# starting wavelength =        3849.9061
# ending wavelength =        7473.9900
# O2 telluric scale =        0
# O2 telluric shift =        0
# H2O telluric scale =        0
# H2O telluric shift =        0
      3851.22       1.0828146     0.084644574
      3855.07       1.1206869     0.084759327
      3858.92       1.1367404     0.084243379
      3862.78       1.1390574     0.084348028
      3866.64       1.1228900     0.084473613
      3870.51       1.1574918     0.083958418
      3874.38       1.1442119     0.084075080
      3878.26       1.1949169     0.083577168
      3882.13       1.2252263     0.083694295
      3886.02       1.2115972     0.082707993
      3889.90       1.1884481     0.082840997
      3893.79       1.1807193     0.082958264
      3897.69       1.1751912     0.082455616
      3901.59       1.1958040     0.082602834
      3905.49       1.1889326     0.082089978
      3909.39       1.1763731     0.082223754
      3913.30       1.1820168     0.081728756
      3917.22       1.1707114     0.081873938
      3921.13       1.1953758     0.081370033
      3925.06       1.2115982     0.081523750
      3928.98       1.2020262     0.081687775
      3932.91       1.1953292     0.081179164
      3936.84       1.1862972     0.081342071
      3940.78       1.2218318     0.080851094
      3944.72       1.1909654     0.080483799
      3948.67       1.1707948     0.079985844
      3952.61       1.1390010     0.080177489
      3956.57       1.1156946     0.079667632
      3960.52       1.0944859     0.079832566
      3964.48       1.1126628     0.079337324
      3968.45       1.1036056     0.079534861
      3972.42       1.1114035     0.079028958
      3976.39       1.1519427     0.079211329
      3980.37       1.1326182     0.078720127
      3984.35       1.1180260     0.078929029
      3988.33       1.1297080     0.078424039
      3992.32       1.1201505     0.078621573
      3996.31       1.1206463     0.078132829
      4000.31       1.1302252     0.078354901
      4004.31       1.1244491     0.077852210
      4008.31       1.1439560     0.078065148
      4012.32       1.1218437     0.077577011
      4016.33       1.1420909     0.077819887
      4020.35       1.1617420     0.077316234
      4024.37       1.1479091     0.077544713
      4028.40       1.1263736     0.077054649
      4032.42       1.0947486     0.077320005
      4036.46       1.1161788     0.076815121
      4040.50       1.1466122     0.077699887
      4044.54       1.1729847     0.076568045
      4048.58       1.1525355     0.076086032
      4052.63       1.1357962     0.075609082
      4056.68       1.1516595     0.075857626
      4060.74       1.1509427     0.074745357
      4064.80       1.1106840     0.074266259
      4068.86       1.1314861     0.073795113
      4072.93       1.1391902     0.073331728
      4077.01       1.1412829     0.072960722
      4081.08       1.1286222     0.072484089
      4085.17       1.1290604     0.072014847
      4089.25       1.1187179     0.071552564
      4093.34       1.0895339     0.070527781
      4097.43       1.0853849     0.070060241
      4101.53       1.0424866     0.069598078
      4105.63       1.0186739     0.069813796
      4109.74       1.0213604     0.069359178
      4113.85       1.0315153     0.068372185
      4117.96       1.0128434     0.067913108
      4122.08      0.94071389     0.067459730
      4126.20      0.89887876     0.067011927
      4130.33      0.86780824     0.066568448
      4134.46      0.86620671     0.066773645
      4138.59      0.85188568     0.065821197
      4142.73      0.83406899     0.065375206
      4146.88      0.87005327     0.064934334
      4151.02      0.88277163     0.064498423
      4155.18      0.89441222     0.064066297
      4159.33      0.88235375     0.063137676
      4163.49      0.93631428     0.062717309
      4167.65      0.94199450     0.062915784
      4171.82      0.96344500     0.062486263
      4175.99      0.96323283     0.062061168
      4180.17      0.97272577     0.061640378
      4184.35      0.98619775     0.060740464
      4188.54       1.0055279     0.060328888
      4192.72      0.98749535     0.059921171
      4196.92      0.93966434     0.059516987
      4201.11      0.89595025     0.059116225
      4205.31      0.91147085     0.058718942
      4209.52      0.87608840     0.058324229
      4213.73      0.85501571     0.058017660
      4217.94      0.82080789     0.057618907
      4222.16      0.78650939     0.057223422
      4226.38      0.77406736     0.056831091
      4230.61      0.76358943     0.056441843
      4234.84      0.75998007     0.056054998
      4239.08      0.74514428     0.055670529
      4243.32      0.78424714     0.055288820
      4247.56      0.79755619     0.054909750
      4251.81      0.83223609     0.054119164
      4256.06      0.84653910     0.053741701
      4260.32      0.88722660     0.053365905
      4264.58      0.90673077     0.052993554
      4268.84      0.89238412     0.052623357
      4273.11      0.88468485     0.052255913
      4277.38      0.85620858     0.051890939
      4281.66      0.85723089     0.051528462
      4285.94      0.84361928     0.051167696
      4290.23      0.81199744     0.050809986
      4294.52      0.78618926     0.050453965
      4298.81      0.75299394     0.049723519
      4303.11      0.75987218     0.049374697
      4307.42      0.77179292     0.049028064
      4311.72      0.77456147     0.048683607
      4316.04      0.77881081     0.048340851
      4320.35      0.80256045     0.047999710
      4324.67      0.82630959     0.047660610
      4329.00      0.82685449     0.047323614
      4333.33      0.82190545     0.046988727
      4337.66      0.82428985     0.046654918
      4342.00      0.80270147     0.046323739
      4346.34      0.78043820     0.045994244
      4350.69      0.76733980     0.045666805
      4355.04      0.76310434     0.045341444
      4359.39      0.74799211     0.045017929
      4363.75      0.74496394     0.044695712
      4368.12      0.74843438     0.044376076
      4372.48      0.75589944     0.044057832
      4376.86      0.74335722     0.043741505
      4381.23      0.73794774     0.043427155
      4385.61      0.74970183     0.043114625
      4390.00      0.76322662     0.042804027
      4394.39      0.76901916     0.042494926
      4398.79      0.77573284     0.042188328
      4403.18      0.79059335     0.041883191
      4407.59      0.79919333     0.041580021
      4412.00      0.80922567     0.041278858
      4416.41      0.81477203     0.040979038
      4420.82      0.84908830     0.040681737
      4425.25      0.86458621     0.040386258
      4429.67      0.89577252     0.039724315
      4434.10      0.92807571     0.039435892
      4438.54      0.96501404     0.039149396
      4442.97      0.99246196     0.038864972
      4447.42       1.0150186     0.038582275
      4451.86       1.0423495     0.038301443
      4456.32       1.0687284     0.038022810
      4460.77       1.0490109     0.037746376
      4465.24       1.0498038     0.037472147
      4469.70       1.0547954     0.037200150
      4474.17       1.0614006     0.036929741
      4478.65       1.0572371     0.036323249
      4483.12       1.0487111     0.036055914
      4487.61       1.0284026     0.035790832
      4492.09       1.0433162     0.035527981
      4496.59       1.0476981     0.035267433
      4501.08       1.0586838     0.035008876
      4505.58       1.0814073     0.034752408
      4510.09       1.0863869     0.034498348
      4514.60       1.0844731     0.033939971
      4519.12       1.1121824     0.033692876
      4523.63       1.1336115     0.033681824
      4528.16       1.1485871     0.033432470
      4532.69       1.1895449     0.033185825
      4537.22       1.2105096     0.032941186
      4541.76       1.2174437     0.032698798
      4546.30       1.2131966     0.032168168
      4550.85       1.2370922     0.031932700
      4555.40       1.2575473     0.031699988
      4559.95       1.2614510     0.031470021
      4564.51       1.2708733     0.031242349
      4569.08       1.2855825     0.031222984
      4573.65       1.2629127     0.030715517
      4578.22       1.2766956     0.030489831
      4582.80       1.2780422     0.030267094
      4587.38       1.2878551     0.030047307
      4591.97       1.2782448     0.029829802
      4596.56       1.2440404     0.029615071
      4601.16       1.2274789     0.029127506
      4605.76       1.2310738     0.029114868
      4610.37       1.2328270     0.028902578
      4614.98       1.2205845     0.028692906
      4619.59       1.2098405     0.028486184
      4624.21       1.1777520     0.028022984
      4628.84       1.1690434     0.027816817
      4633.47       1.1617050     0.027613869
      4638.10       1.1566149     0.027605076
      4642.74       1.1639321     0.027164382
      4647.38       1.1588151     0.026963892
      4652.03       1.1628196     0.026766346
      4656.68       1.1477977     0.026571563
      4661.34       1.1295427     0.026380080
      4666.00       1.1018003     0.026141494
      4670.67       1.1105873     0.025949357
      4675.33       1.1183757     0.025760375
      4680.01       1.1061874     0.025574515
      4684.69       1.0928409     0.025171046
      4689.38       1.0921462     0.024993122
      4694.07       1.0806504     0.024978360
      4698.76       1.0682551     0.024583063
      4703.46       1.0269921     0.024408265
      4708.16       1.0087785     0.024236012
      4712.87      0.98828610     0.024067465
      4717.58      0.96676278     0.023842910
      4722.30      0.94401679     0.023674270
      4727.03      0.94892066     0.023509031
      4731.75      0.95012942     0.023347210
      4736.48      0.92644370     0.023130651
      4741.22      0.92242773     0.022968558
      4745.96      0.89670015     0.022810184
      4750.71      0.89497847     0.022453462
      4755.46      0.88049006     0.022295835
      4760.22      0.90695505     0.022291050
      4764.97      0.92762580     0.021947507
      4769.74      0.94070974     0.021793397
      4774.51      0.94189428     0.021643066
      4779.29      0.95271868     0.021642014
      4784.07      0.95018661     0.021308129
      4788.85      0.95184873     0.021161198
      4793.64      0.94896967     0.021018079
      4798.43      0.96519555     0.020838677
      4803.23      0.95999186     0.020695708
      4808.03      0.95991772     0.020556478
      4812.84      0.96953043     0.020384407
      4817.66      0.96736988     0.020245285
      4822.48      0.94518732     0.020110192
      4827.30      0.92200494     0.019812081
      4832.12      0.92435788     0.019810503
      4836.96      0.91112929     0.019515209
      4841.79      0.89485962     0.019389373
      4846.63      0.88844950     0.019390418
      4851.48      0.88426136     0.019103722
      4856.33      0.87499118     0.018982603
      4861.19      0.85825803     0.018865394
      4866.05      0.85125015     0.018706911
      4870.92      0.85206824     0.018590335
      4875.79      0.85341417     0.018318944
      4880.66      0.87208790     0.018324981
      4885.55      0.89560649     0.018213369
      4890.43      0.91650872     0.017948696
      4895.32      0.92797568     0.017957320
      4900.22      0.93248967     0.017850786
      4905.12      0.92192234     0.017592918
      4910.02      0.92839179     0.017604926
      4914.94      0.92609551     0.017355282
      4919.85      0.91653030     0.017251375
      4924.77      0.90125407     0.017125453
      4929.70      0.89051487     0.017022925
      4934.62      0.86560666     0.016924773
      4939.56      0.83778201     0.016802127
      4944.50      0.80589034     0.016704973
      4949.44      0.76595934     0.016588143
      4954.39      0.75181539     0.016492280
      4959.35      0.74433175     0.016270409
      4964.31      0.73366651     0.016287323
      4969.27      0.73257026     0.016197351
      4974.24      0.73602057     0.015983765
      4979.22      0.73622012     0.016000394
      4984.20      0.72327547     0.015790712
      4989.18      0.72246930     0.015810902
      4994.17      0.73284764     0.015604440
      4999.16      0.75011051     0.015527396
      5004.16      0.77343554     0.015424647
      5009.17      0.78402230     0.015349686
      5014.18      0.79670230     0.015251649
      5019.19      0.79970713     0.015178420
      5024.21      0.82159378     0.015084792
      5029.23      0.82252776     0.015013342
      5034.26      0.81246983     0.014825005
      5039.30      0.81824018     0.014854692
      5044.34      0.82124637     0.014671451
      5049.39      0.83554866     0.014702435
      5054.43      0.85580782     0.014523349
      5059.49      0.86378255     0.014555847
      5064.55      0.87006810     0.014381469
      5069.61      0.86532427     0.014319197
      5074.68      0.85485567     0.014245487
      5079.76      0.84258017     0.014185186
      5084.84      0.84874679     0.014114782
      5089.92      0.85348035     0.014057081
      5095.01      0.86195091     0.013990086
      5100.11      0.85506025     0.013934819
      5105.21      0.85909664     0.013870605
      5110.31      0.86706906     0.013817850
      5115.42      0.85927620     0.013756776
      5120.54      0.85798905     0.013605091
      5125.66      0.85607688     0.013648734
      5130.79      0.86823500     0.013500791
      5135.92      0.87932825     0.013545723
      5141.05      0.89053654     0.013401749
      5146.20      0.92133317     0.013448402
      5151.34      0.94259360     0.013308598
      5156.49      0.95851298     0.013258564
      5161.65      0.98057203     0.013220331
      5166.81      0.99009321     0.013172827
      5171.98       1.0039156     0.013137750
      5177.15       1.0314876     0.013092843
      5182.33       1.0516559     0.012963760
      5187.51       1.0742038     0.013017662
      5192.70       1.1010432     0.012891134
      5197.89       1.1116921     0.012948340
      5203.09       1.1175801     0.012824016
      5208.29       1.1286017     0.012791280
      5213.50       1.1333407     0.012761812
      5218.72       1.1397186     0.012731054
      5223.93       1.1424033     0.012792683
      5229.16       1.1371928     0.012676255
      5234.39       1.1263303     0.012650898
      5239.62       1.1236394     0.012626386
      5244.86       1.1326998     0.012602577
      5250.11       1.1196886     0.012495089
      5255.36       1.1161052     0.012559913
      5260.61       1.1198181     0.012541157
      5265.87       1.1293494     0.012436336
      5271.14       1.1421197     0.012505012
      5276.41       1.1622757     0.012404696
      5281.69       1.1594667     0.012389311
      5286.97       1.1684351     0.012378641
      5292.26       1.1858520     0.012364253
      5297.55       1.1857205     0.012353106
      5302.85       1.1919998     0.012344836
      5308.15       1.2222191     0.012335053
      5313.46       1.2358695     0.012327920
      5318.77       1.2350873     0.012322050
      5324.09       1.2374631     0.012316154
      5329.42       1.2459792     0.012227965
      5334.75       1.2347998     0.012310085
      5340.08       1.2392824     0.012308044
      5345.42       1.2519286     0.012223040
      5350.77       1.2499203     0.012226095
      5356.12       1.2583294     0.012310146
      5361.48       1.2658746     0.012228400
      5366.83       1.2591647     0.012234641
      5372.20       1.2471735     0.012322229
      5377.58       1.2352075     0.012243069
      5382.95       1.2324289     0.012252579
      5388.34       1.2380326     0.012264571
      5393.72       1.2438714     0.012267637
      5399.12       1.2497332     0.012280036
      5404.52       1.2690286     0.012294818
      5409.92       1.2807728     0.012223525
      5415.33       1.2848011     0.012317251
      5420.75       1.2883269     0.012334616
      5426.17       1.3001532     0.012267243
      5431.60       1.3057171     0.012285356
      5437.03       1.3120184     0.012305467
      5442.47       1.3272284     0.012320538
      5447.91       1.3465379     0.012341131
      5453.36       1.3450201     0.012363511
      5458.81       1.3381104     0.012387900
      5464.27       1.3306069     0.012406014
      5469.73       1.3146018     0.012430879
      5475.20       1.3007928     0.012457510
      5480.68       1.3041533     0.012397895
      5486.16       1.3067134     0.012427736
      5491.65       1.2935102     0.012536443
      5497.14       1.2762902     0.012567132
      5502.64       1.2654764     0.012509823
      5508.14       1.2651088     0.012543002
      5513.65       1.2522884     0.012577734
      5519.16       1.2436221     0.012614138
      5524.68       1.2264826     0.012636006
      5530.20       1.2118357     0.012672376
      5535.73       1.2026166     0.012710353
      5541.27       1.1927521     0.012749730
      5546.81       1.1815171     0.012700106
      5552.36       1.1732778     0.012739635
      5557.91       1.1626649     0.012780451
      5563.47       1.1428661     0.012899155
      5569.04       1.1311903     0.012942850
      5574.60       1.1161584     0.012896968
      5580.18       1.1190812     0.012940397
      5585.76       1.1188080     0.012985178
      5591.35       1.1023231     0.013030954
      5596.94       1.0841949     0.013078026
      5602.53       1.0746455     0.013033666
      5608.14       1.0792728     0.013161212
      5613.75       1.0753038     0.013209521
      5619.36       1.0611085     0.013259069
      5624.98       1.0538667     0.013309486
      5630.60       1.0598641     0.013361085
      5636.23       1.0707954     0.013318596
      5641.87       1.0721037     0.013371418
      5647.51       1.0756389     0.013425294
      5653.16       1.0774536     0.013480119
      5658.82       1.0855733     0.013535724
      5664.47       1.0890239     0.013592110
      5670.14       1.0694290     0.013628934
      5675.81       1.0806359     0.013685465
      5681.48       1.0916836     0.013742895
      5687.17       1.1068244     0.013801220
      5692.85       1.0993559     0.013860232
      5698.55       1.0820330     0.013919995
      5704.25       1.0684567     0.013980439
      5709.95       1.0641126     0.014041640
      5715.66       1.0596280     0.014005976
      5721.38       1.0261458     0.014067039
      5727.10       1.0044379     0.014128791
      5732.83       1.0072491     0.014191335
      5738.56       1.0223767     0.014254271
      5744.30       1.0188556     0.014318156
      5750.04       1.0020295     0.014382731
      5755.79       1.0179500     0.014448591
      5761.55       1.0316217     0.014516049
      5767.31       1.0464967     0.014583730
      5773.08       1.0540204     0.014651332
      5778.85       1.0627189     0.014719995
      5784.63       1.0846667     0.014687054
      5790.41       1.1049469     0.014762020
      5796.21       1.1117039     0.014841666
      5802.00       1.1434420     0.014923305
      5807.81       1.1440368     0.015006016
      5813.61       1.1583293     0.015090952
      5819.43       1.1564580     0.015177866
      5825.25       1.1525195     0.015261909
      5831.07       1.1504210     0.015341242
      5836.90       1.1486840     0.015418116
      5842.74       1.1562579     0.015492832
      5848.58       1.1592452     0.015565490
      5854.43       1.1623419     0.015549864
      5860.29       1.1781788     0.015618734
      5866.15       1.2059744     0.015688802
      5872.01       1.2137787     0.015760016
      5877.89       1.2019202     0.015830941
      5883.76       1.1920648     0.015899717
      5889.65       1.1914763     0.015967009
      5895.54       1.1993186     0.016032866
      5901.43       1.1981363     0.016099292
      5907.34       1.1959136     0.016165853
      5913.24       1.1978399     0.016230184
      5919.16       1.1877168     0.016201717
      5925.08       1.1712725     0.016267418
      5931.00       1.1464377     0.016336328
      5936.93       1.1414122     0.016404243
      5942.87       1.1258819     0.016470361
      5948.81       1.1004064     0.016538885
      5954.76       1.0796651     0.016610395
      5960.72       1.0688713     0.016683212
      5966.68       1.0610965     0.016667317
      5972.64       1.0519296     0.016855732
      5978.62       1.0318208     0.016930450
      5984.60       1.0132754     0.017005424
      5990.58      0.99943125     0.017080590
      5996.57      0.97930300     0.017156133
      6002.57      0.98112020     0.017232026
      6008.57      0.99668508     0.017215979
      6014.58      0.98989117     0.017292407
      6020.60      0.97976370     0.017369302
      6026.62      0.97605029     0.017446237
      6032.65      0.97334728     0.017523759
      6038.68      0.96974027     0.017502999
      6044.72      0.96931069     0.017696682
      6050.76      0.95686341     0.017773023
      6056.81      0.94046657     0.017849801
      6062.87      0.93954291     0.017926885
      6068.93      0.92845238     0.017905863
      6075.00      0.92646936     0.017980893
      6081.08      0.92638606     0.018056116
      6087.16      0.91860923     0.018253252
      6093.25      0.91393669     0.018329802
      6099.34      0.91342733     0.018307021
      6105.44      0.93101320     0.018381123
      6111.54      0.93678548     0.018455762
      6117.66      0.95710987     0.018531052
      6123.78      0.96411926     0.018508689
      6129.90      0.96330476     0.018704990
      6136.03      0.96165615     0.018779514
      6142.17      0.96880689     0.018858763
      6148.31      0.97490825     0.018845310
      6154.46      0.97856229     0.018920633
      6160.61      0.97255635     0.019114799
      6166.77      0.96200667     0.019098056
      6172.94      0.96691242     0.019191097
      6179.11      0.97243251     0.019294257
      6185.29      0.96789769     0.019406332
      6191.48      0.96754853     0.019552357
      6197.67      0.95183182     0.019669350
      6203.87      0.93780454     0.019783778
      6210.07      0.93182970     0.019784775
      6216.28      0.92937374     0.019875448
      6222.50      0.94038392     0.020085023
      6228.72      0.94824853     0.020035506
      6234.95      0.93632650     0.020080556
      6241.19      0.92234725     0.020117036
      6247.42      0.91663653     0.020162987
      6253.67      0.92012688     0.020196274
      6259.93      0.92361321     0.020241039
      6266.19      0.91723848     0.020187337
      6272.46      0.92353293     0.020358983
      6278.73      0.92040852     0.020402788
      6285.01      0.92769405     0.020345929
      6291.29      0.93536255     0.020525424
      6297.58      0.94464904     0.020577540
      6303.88      0.94986411     0.020523571
      6310.19      0.94820744     0.020581184
      6316.50      0.94416061     0.020653225
      6322.81      0.94916016     0.020711310
      6329.14      0.95046878     0.020772490
      6335.47      0.95048521     0.020849129
      6341.80      0.95721766     0.020910558
      6348.14      0.96413491     0.020859516
      6354.49      0.95867984     0.021050398
      6360.85      0.96865013     0.021114916
      6367.21      0.99271509     0.021069454
      6373.57       1.0112167     0.021273135
      6379.95       1.0203356     0.021240296
      6386.33       1.0305990     0.021311639
      6392.72       1.0416347     0.021404719
      6399.11       1.0298822     0.021469478
      6405.51       1.0426293     0.021534936
      6411.92       1.0611425     0.021617478
      6418.32       1.0697916     0.021671499
      6424.74       1.0796200     0.021608957
      6431.17       1.0904639     0.021782827
      6437.60       1.0939526     0.021711380
      6444.04       1.0953778     0.021883313
      6450.48       1.0856312     0.021810712
      6456.94       1.0877690     0.021857497
      6463.39       1.0943171     0.021916699
      6469.85       1.0972134     0.021960865
      6476.33       1.1052260     0.022012475
      6482.80       1.1177071     0.022049053
      6489.28       1.1244140     0.021964757
      6495.77       1.1270215     0.022131239
      6502.27       1.1258519     0.022049513
      6508.77       1.1300894     0.022212181
      6515.28       1.1187734     0.022122254
      6521.80       1.1133541     0.022283397
      6528.32       1.1254101     0.022197810
      6534.85       1.1178104     0.022231323
      6541.38       1.1150816     0.022279163
      6547.92       1.1066113     0.022312315
      6554.47       1.1140096     0.022359424
      6561.03       1.1068078     0.022274619
      6567.59       1.1049965     0.022435840
      6574.16       1.1002402     0.022348735
      6580.73       1.1043986     0.022507560
      6587.31       1.1141381     0.022418391
      6593.90       1.1183176     0.022575851
      6600.50       1.1223145     0.022484814
      6607.10       1.1314560     0.022520569
      6613.70       1.1287807     0.022546089
      6620.32       1.1249337     0.022578382
      6626.94       1.1198541     0.022602504
      6633.57       1.1137304     0.022631469
      6640.20       1.0950290     0.022532078
      6646.84       1.0896177     0.022679168
      6653.49       1.0720546     0.022576316
      6660.14       1.0542038     0.022722101
      6666.80       1.0417449     0.022615382
      6673.47       1.0382155     0.022638443
      6680.14       1.0420438     0.022649548
      6686.82       1.0322990     0.022668475
      6693.51       1.0326555     0.022560075
      6700.20       1.0293714     0.022693213
      6706.90       1.0265701     0.022708766
      6713.61       1.0315266     0.022601452
      6720.32       1.0246375     0.022765786
      6727.05       1.0183883     0.022746752
      6733.77       1.0112875     0.022781706
      6740.51      0.99788689     0.022872928
      6747.25      0.98780628     0.022796955
      6754.00      0.97264672     0.022946354
      6760.75      0.96079397     0.023129344
      6767.51      0.94223988     0.023431844
      6774.28      0.92099410     0.023799201
      6781.05      0.89646384     0.024113169
      6787.84      0.87884156     0.024491887
      6794.62      0.85922497     0.024638373
      6801.42      0.86138874     0.024840234
      6808.22      0.84080211     0.025049888
      6815.03      0.84312720     0.024830756
      6821.85      0.85877276     0.024629171
      6828.67      0.86847096     0.024332254
      6835.50      0.87621079     0.024055657
      6842.33      0.90380643     0.023731703
      6849.17      0.91013351     0.023490819
      6856.02      0.91929870     0.023220241
      6862.88      0.92622142     0.023175040
      6869.74      0.94457656     0.022959700
      6876.61      0.95195787     0.022703299
      6883.49      0.96066025     0.022586119
      6890.37      0.97292352     0.022601077
      6897.27      0.99017946     0.022392511
      6904.16      0.96892892     0.022307369
      6911.07      0.95438867     0.022238960
      6917.98      0.93278412     0.022069743
      6924.89      0.92600620     0.022137006
      6931.82      0.91598110     0.022078994
      6938.75      0.90483419     0.022012148
      6945.69      0.89037937     0.021826509
      6952.64      0.88164479     0.021740357
      6959.59      0.87332288     0.021772248
      6966.55      0.87109053     0.021575349
      6973.52      0.87078800     0.021490406
      6980.49      0.86617151     0.021404010
      6987.47      0.89691975     0.021314713
      6994.46      0.92672911     0.021123520
      7001.46      0.96553817     0.021035676
      7008.46      0.99445312     0.021065498
      7015.46       1.0237189     0.020988949
      7022.48       1.0456876     0.020926373
      7029.51       1.0739716     0.020769160
      7036.53       1.0603002     0.020708834
      7043.57       1.0781469     0.020652937
      7050.62       1.0804785     0.020616872
      7057.66       1.0808730     0.020613248
      7064.72       1.0581263     0.020549325
      7071.79       1.0390068     0.020729874
      7078.86       1.0017960     0.020863744
      7085.94      0.98581155     0.021003015
      7093.03      0.95132169     0.021096006
      7100.12      0.94326929     0.020776303
      7107.22      0.93530049     0.020524554
      7114.33      0.91108421     0.020245053
      7121.44      0.90060132     0.019942663
      7128.56      0.88484927     0.019615817
      7135.69      0.85795556     0.019393413
      7142.83      0.86293380     0.019058942
      7149.97      0.85757467     0.018728511
      7157.12      0.85904055     0.018403168
      7164.28      0.84837506     0.018093301
      7171.44      0.85822820     0.017800435
      7178.62      0.89122465     0.017510487
      7185.80      0.89632437     0.017212739
      7192.98      0.89941504     0.016899590
      7200.17      0.89945873     0.016566095
      7207.38      0.90542135     0.016219531
      7214.58      0.94006876     0.015867044
      7221.80      0.94496778     0.015475562
      7229.02      0.94472078     0.015133203
      7236.25      0.94467903     0.014885631
      7243.49      0.94370838     0.014569897
      7250.73      0.94360003     0.014263363
      7257.98      0.93655440     0.013961225
      7265.24      0.92628730     0.013594574
      7272.51      0.90819296     0.013305196
      7279.78      0.89118567     0.013023436
      7287.06      0.87978850     0.012748856
      7294.35      0.85781782     0.012480875
      7301.64      0.83577561     0.012217760
      7308.94      0.82710845     0.011957687
      7316.25      0.81821350     0.011701289
      7323.57      0.81072053     0.011448745
      7330.89      0.79437747     0.011198198
      7338.22      0.78122555     0.010949234
      7345.56      0.76467578     0.010701255
      7352.91      0.74291218     0.010506024
      7360.26      0.72500467     0.010584038
      7367.62      0.70945788     0.010689646
      7374.99      0.69474763     0.010829885
      7382.37      0.68464847     0.011014548
      7389.75      0.66867944     0.011258125
      7397.14      0.64786579     0.011581781
      7404.53      0.62568490     0.012011615
      7411.94      0.60952061     0.012584521
      7419.35      0.59282274     0.013348135
      7426.77      0.58071024     0.014357297
      7434.20      0.56899969     0.015686023
      7441.63      0.55394997     0.017419162
      7449.07      0.53107634     0.019641430
      7456.52      0.50831391     0.022464482
      7463.98      0.48574775     0.026015329
      7471.45      0.46960367     0.030454728
