# starting wavelength =        3684.6700
# ending wavelength =        7473.9900
# O2 telluric scale =        0
# O2 telluric shift =        0
# H2O telluric scale =        0
# H2O telluric shift =        0
      3685.51      0.66887021     0.057267249
      3689.20      0.67186547     0.048465006
      3692.88      0.65941560     0.041401447
      3696.58      0.65783030     0.034797766
      3700.27      0.65981658     0.030609002
      3703.98      0.66189553     0.027320900
      3707.68      0.65643253     0.025229023
      3711.39      0.65952973     0.023151600
      3715.10      0.66634196     0.021545781
      3718.81      0.66485171     0.020093123
      3722.53      0.66212321     0.019168794
      3726.26      0.65277844     0.018495005
      3729.98      0.64743336     0.017876948
      3733.71      0.64497946     0.017380700
      3737.45      0.64948422     0.016857693
      3741.18      0.64558920     0.016527100
      3744.93      0.64207339     0.016248493
      3748.67      0.64796625     0.015923454
      3752.42      0.65535936     0.015708149
      3756.17      0.65065608     0.015729361
      3759.93      0.65171450     0.015652086
      3763.69      0.65145008     0.015601180
      3767.45      0.65646400     0.015523808
      3771.22      0.67119223     0.015543360
      3774.99      0.68397798     0.015565640
      3778.77      0.69243759     0.015489241
      3782.54      0.69484855     0.015511210
      3786.33      0.70422345     0.015361540
      3790.11      0.71986064     0.015382485
      3793.90      0.72410587     0.015406141
      3797.70      0.73790568     0.015330136
      3801.50      0.74647567     0.015353514
      3805.30      0.76212132     0.015203544
      3809.10      0.77104782     0.015225673
      3812.91      0.77988076     0.015251274
      3816.73      0.79193976     0.015175262
      3820.54      0.80594961     0.015199534
      3824.36      0.82189292     0.015126822
      3828.19      0.81758596     0.015150845
      3832.02      0.81735681     0.015100917
      3835.85      0.82455959     0.015024877
      3839.68      0.83931167     0.015050007
      3843.52      0.84129482     0.014976964
      3847.37      0.84089366     0.015003700
      3851.22      0.84044762     0.015031129
      3855.07      0.84354084     0.014958396
      3858.92      0.85886231     0.014905057
      3862.78      0.85342245     0.014831561
      3866.64      0.85307433     0.014861900
      3870.51      0.86444656     0.014787270
      3874.38      0.87595744     0.014816323
      3878.26      0.88325203     0.014848794
      3882.13      0.88665595     0.014774017
      3886.02      0.89865847     0.014805297
      3889.90      0.91567439     0.014733466
      3893.79      0.92626333     0.014765180
      3897.69      0.93413422     0.014607105
      3901.59      0.94730290     0.014641563
      3905.49      0.95363738     0.014672891
      3909.39      0.96708471     0.014599751
      3913.30      0.97817856     0.014637286
      3917.22      0.98048994     0.014562665
      3921.13      0.98286552     0.014597205
      3925.06      0.99918997     0.014525376
      3928.98       1.0117291     0.014563014
      3932.91       1.0148989     0.014489387
      3936.84       1.0158212     0.014527024
      3940.78       1.0267161     0.014456154
      3944.72       1.0382875     0.014494437
      3948.67       1.0459340     0.014421912
      3952.61       1.0493737     0.014462592
      3956.57       1.0610807     0.014505037
      3960.52       1.0729350     0.014431348
      3964.48       1.0702962     0.014474022
      3968.45       1.0722289     0.014403054
      3972.42       1.0797627     0.014447117
      3976.39       1.0864954     0.014374295
      3980.37       1.0915916     0.014420028
      3984.35       1.0791459     0.014349576
      3988.33       1.0708814     0.014395331
      3992.32       1.0565304     0.014322658
      3996.31       1.0681232     0.014371606
      4000.31       1.0764204     0.014301596
      4004.31       1.0744216     0.014350377
      4008.31       1.0814715     0.014277899
      4012.32       1.0765973     0.014329771
      4016.33       1.0754705     0.014259694
      4020.35       1.0831276     0.014311849
      4024.37       1.0798130     0.014239053
      4028.40       1.0736744     0.014294031
      4032.42       1.0736554     0.014223575
      4036.46       1.0643273     0.014280506
      4040.50       1.0672125     0.014207485
      4044.54       1.0635127     0.014265542
      4048.58       1.0458474     0.014194860
      4052.63       1.0233407     0.014257290
      4056.68       1.0075409     0.014183460
      4060.74      0.97630572     0.014244595
      4064.80      0.92939067     0.014173045
      4068.86      0.90390659     0.014102896
      4072.93      0.90176217     0.014034122
      4077.01      0.90508752     0.013976317
      4081.08      0.92518238     0.013904791
      4085.17      0.91819903     0.013834570
      4089.25      0.91797912     0.013765567
      4093.34      0.91276843     0.013584910
      4097.43      0.90023373     0.013514539
      4101.53      0.89682694     0.013445016
      4105.63      0.89588622     0.013503101
      4109.74      0.88607351     0.013435013
      4113.85      0.88316927     0.013260361
      4117.96      0.87371086     0.013191012
      4122.08      0.87356424     0.013122639
      4126.20      0.85943431     0.013055230
      4130.33      0.84552137     0.012988553
      4134.46      0.83621791     0.013045052
      4138.59      0.82301367     0.012875549
      4142.73      0.80969724     0.012808034
      4146.88      0.82767953     0.012741323
      4151.02      0.83380182     0.012675603
      4155.18      0.84424950     0.012610438
      4159.33      0.84054549     0.012444119
      4163.49      0.82507119     0.012380855
      4167.65      0.81108073     0.012436378
      4171.82      0.78923587     0.012371252
      4175.99      0.77235481     0.012306866
      4180.17      0.75391211     0.012243218
      4184.35      0.74710661     0.012080972
      4188.54      0.72762334     0.012018734
      4192.72      0.71900728     0.011957135
      4196.92      0.71233684     0.011896113
      4201.11      0.71739188     0.011835651
      4205.31      0.71789955     0.011775761
      4209.52      0.72290038     0.011716268
      4213.73      0.72892466     0.011667808
      4217.94      0.73471678     0.011607261
      4222.16      0.74022564     0.011547247
      4226.38      0.74918378     0.011487738
      4230.61      0.75627353     0.011428725
      4234.84      0.76781931     0.011370074
      4239.08      0.75853737     0.011311767
      4243.32      0.74766483     0.011253886
      4247.56      0.74081944     0.011196410
      4251.81      0.73694341     0.011051607
      4256.06      0.73456440     0.010994048
      4260.32      0.72961151     0.010936704
      4264.58      0.73132263     0.010879927
      4268.84      0.73106841     0.010823448
      4273.11      0.74074659     0.010767399
      4277.38      0.74881273     0.010711722
      4281.66      0.75364427     0.010656427
      4285.94      0.75517747     0.010601356
      4290.23      0.75705313     0.010546783
      4294.52      0.75623148     0.010492413
      4298.81      0.74768630     0.010356796
      4303.11      0.73894377     0.010303503
      4307.42      0.73350759     0.010250534
      4311.72      0.72458231     0.010197884
      4316.04      0.71977862     0.010145460
      4320.35      0.70773677     0.010093226
      4324.67      0.70460819     0.010041284
      4329.00      0.70064549    0.0099896428
      4333.33      0.70444660    0.0099383061
      4337.66      0.70918758    0.0098870673
      4342.00      0.71260600    0.0098362426
      4346.34      0.72092179    0.0097856289
      4350.69      0.72810527    0.0097353070
      4355.04      0.73447838    0.0096852993
      4359.39      0.74315510    0.0096355152
      4363.75      0.75002780    0.0095858875
      4368.12      0.75469678    0.0095366663
      4372.48      0.76045087    0.0094875935
      4376.86      0.76404243    0.0094387894
      4381.23      0.76851237    0.0093902604
      4385.61      0.77203090    0.0093419810
      4390.00      0.77681461    0.0092939736
      4394.39      0.78178937    0.0092461500
      4398.79      0.79027007    0.0091987220
      4403.18      0.79583976    0.0091514552
      4407.59      0.80712734    0.0091044668
      4412.00      0.82089410    0.0090577689
      4416.41      0.83476257    0.0090112264
      4420.82      0.84884537    0.0089650781
      4425.25      0.85747413    0.0089191588
      4429.67      0.86284156    0.0087953184
      4434.10      0.87495700    0.0087504908
      4438.54      0.89247447    0.0087059422
      4442.97      0.90624500    0.0086617048
      4447.42      0.91516508    0.0086177060
      4451.86      0.92862965    0.0085739597
      4456.32      0.94190729    0.0085305510
      4460.77      0.95109867    0.0084874823
      4465.24      0.96310853    0.0084447534
      4469.70      0.96886303    0.0084023760
      4474.17      0.97350842    0.0083601931
      4478.65      0.97883012    0.0082448984
      4483.12      0.98671889    0.0082029288
      4487.61      0.99893295    0.0081613147
      4492.09       1.0105654    0.0081200504
      4496.59       1.0231153    0.0080791577
      4501.08       1.0382938    0.0080385587
      4505.58       1.0509930    0.0079982900
      4510.09       1.0568977    0.0079584070
      4514.60       1.0627118    0.0078511999
      4519.12       1.0792870    0.0078124382
      4523.63       1.0962764    0.0078313551
      4528.16       1.1091253    0.0077918801
      4532.69       1.1211285    0.0077528732
      4537.22       1.1387369    0.0077141656
      4541.76       1.1510853    0.0076758194
      4546.30       1.1618033    0.0075726533
      4550.85       1.1699739    0.0075354414
      4555.40       1.1769106    0.0074987151
      4559.95       1.1828543    0.0074624778
      4564.51       1.1841000    0.0074266182
      4569.08       1.1870168    0.0074431642
      4573.65       1.1890577    0.0073433651
      4578.22       1.1856131    0.0073074421
      4582.80       1.1833939    0.0072720568
      4587.38       1.1823884    0.0072372170
      4591.97       1.1763420    0.0072027518
      4596.56       1.1680292    0.0071687934
      4601.16       1.1593746    0.0070715467
      4605.76       1.1543155    0.0070891238
      4610.37       1.1438235    0.0070552094
      4614.98       1.1307338    0.0070217604
      4619.59       1.1218078    0.0069888573
      4624.21       1.1172016    0.0068957463
      4628.84       1.1092010    0.0068624798
      4633.47       1.1021357    0.0068298364
      4638.10       1.0944909    0.0068479634
      4642.74       1.0937001    0.0067589546
      4647.38       1.0869229    0.0067263437
      4652.03       1.0796543    0.0066942985
      4656.68       1.0723229    0.0066627614
      4661.34       1.0669707    0.0066318840
      4666.00       1.0618039    0.0065946578
      4670.67       1.0572522    0.0065632073
      4675.33       1.0518194    0.0065323772
      4680.01       1.0413572    0.0065021578
      4684.69       1.0306031    0.0064191869
      4689.38       1.0171062    0.0063904834
      4694.07       1.0025839    0.0064061305
      4698.76      0.99185710    0.0063241399
      4703.46      0.98443248    0.0062956029
      4708.16      0.97734634    0.0062676577
      4712.87      0.96653983    0.0062404313
      4717.58      0.95349815    0.0062039148
      4722.30      0.94531153    0.0061762586
      4727.03      0.93417874    0.0061493089
      4731.75      0.92761101    0.0061230756
      4736.48      0.91808349    0.0060876244
      4741.22      0.91365342    0.0060609124
      4745.96      0.90458480    0.0060350005
      4750.71      0.90059092    0.0059589924
      4755.46      0.89645572    0.0059327601
      4760.22      0.89175870    0.0059496386
      4764.97      0.88594044    0.0058760343
      4769.74      0.88553014    0.0058501471
      4774.51      0.88390028    0.0058250809
      4779.29      0.87714560    0.0058425745
      4784.07      0.87581422    0.0057701481
      4788.85      0.87553968    0.0057453905
      4793.64      0.87809402    0.0057214867
      4798.43      0.87452784    0.0056924304
      4803.23      0.87048581    0.0056681308
      4808.03      0.86890479    0.0056446697
      4812.84      0.86627840    0.0056168356
      4817.66      0.86228214    0.0055929777
      4822.48      0.86505565    0.0055700438
      4827.30      0.86206976    0.0055040685
      4832.12      0.85793680    0.0055201021
      4836.96      0.85416743    0.0054541698
      4841.79      0.85468281    0.0054328694
      4846.63      0.85463862    0.0054492742
      4851.48      0.85681048    0.0053846832
      4856.33      0.86109524    0.0053640884
      4861.19      0.86334845    0.0053444137
      4866.05      0.85865875    0.0053172763
      4870.92      0.85866117    0.0052973564
      4875.79      0.86212100    0.0052352455
      4880.66      0.86294350    0.0052520477
      4885.55      0.86960479    0.0052329225
      4890.43      0.86718428    0.0051716861
      4895.32      0.86580976    0.0051888377
      4900.22      0.86583543    0.0051705547
      4905.12      0.86044031    0.0051102390
      4910.02      0.85588512    0.0051279651
      4914.94      0.84811846    0.0050693148
      4919.85      0.83848644    0.0050508654
      4924.77      0.82665375    0.0050296692
      4929.70      0.81644779    0.0050111862
      4934.62      0.80726147    0.0049938024
      4939.56      0.79474991    0.0049727517
      4944.50      0.79010981    0.0049552222
      4949.44      0.78009764    0.0049353319
      4954.39      0.77535001    0.0049177497
      4959.35      0.77371179    0.0048641159
      4964.31      0.77805873    0.0048815702
      4969.27      0.77795388    0.0048651151
      4974.24      0.78037083    0.0048129869
      4979.22      0.78745470    0.0048298919
      4984.20      0.78645169    0.0047782611
      4989.18      0.79018571    0.0047959090
      4994.17      0.79717787    0.0047445822
      4999.16      0.80486406    0.0047306893
      5004.16      0.81019775    0.0047118678
      5009.17      0.81621643    0.0046981838
      5014.18      0.81943871    0.0046802378
      5019.19      0.82188407    0.0046666514
      5024.21      0.82532298    0.0046494843
      5029.23      0.82869316    0.0046360213
      5034.26      0.83134553    0.0045875910
      5039.30      0.83142626    0.0046063790
      5044.34      0.82999909    0.0045588906
      5049.39      0.83041234    0.0045777073
      5054.43      0.83074043    0.0045308954
      5059.49      0.83215383    0.0045498451
      5064.55      0.83191517    0.0045038664
      5069.61      0.83469806    0.0044915232
      5074.68      0.83544527    0.0044777044
      5079.76      0.83443561    0.0044655597
      5084.84      0.83715800    0.0044522313
      5089.92      0.84158480    0.0044404863
      5095.01      0.84850794    0.0044276851
      5100.11      0.85223205    0.0044162906
      5105.21      0.86008314    0.0044038248
      5110.31      0.86707548    0.0043928146
      5115.42      0.87895103    0.0043807984
      5120.54      0.88797661    0.0043386819
      5125.66      0.89861283    0.0043586655
      5130.79      0.90865627    0.0043171821
      5135.92      0.91851790    0.0043371899
      5141.05      0.92736001    0.0042964264
      5146.20      0.94376385    0.0043165973
      5151.34      0.96072222    0.0042766323
      5156.49      0.97926479    0.0042659316
      5161.65      0.99339302    0.0042574845
      5166.81       1.0059345    0.0042470762
      5171.98       1.0174546    0.0042392533
      5177.15       1.0295570    0.0042291660
      5182.33       1.0443999    0.0041910311
      5187.51       1.0542884    0.0042119045
      5192.70       1.0652710    0.0041741005
      5197.89       1.0734821    0.0041956454
      5203.09       1.0787990    0.0041580723
      5208.29       1.0845236    0.0041503395
      5213.50       1.0893334    0.0041427630
      5218.72       1.0909154    0.0041351790
      5223.93       1.0959667    0.0041571308
      5229.16       1.1007915    0.0041209238
      5234.39       1.1089305    0.0041143308
      5239.62       1.1107677    0.0041074218
      5244.86       1.1222763    0.0041008523
      5250.11       1.1271467    0.0040666420
      5255.36       1.1353859    0.0040883855
      5260.61       1.1381561    0.0040827188
      5265.87       1.1469230    0.0040487238
      5271.14       1.1569234    0.0040710889
      5276.41       1.1704467    0.0040381561
      5281.69       1.1818053    0.0040326437
      5286.97       1.1900893    0.0040286179
      5292.26       1.2050745    0.0040229806
      5297.55       1.2171989    0.0040181423
      5302.85       1.2242506    0.0040143806
      5308.15       1.2336046    0.0040095522
      5313.46       1.2371044    0.0040053363
      5318.77       1.2428345    0.0040018468
      5324.09       1.2475260    0.0039976096
      5329.42       1.2515030    0.0039667270
      5334.75       1.2572638    0.0039909977
      5340.08       1.2594926    0.0039873511
      5345.42       1.2658696    0.0039569945
      5350.77       1.2676524    0.0039545982
      5356.12       1.2689808    0.0039786451
      5361.48       1.2727936    0.0039488613
      5366.83       1.2794439    0.0039468623
      5372.20       1.2842616    0.0039714501
      5377.58       1.2899523    0.0039420454
      5382.95       1.2890157    0.0039405021
      5388.34       1.2926719    0.0039395402
      5393.72       1.2985942    0.0039367852
      5399.12       1.3007874    0.0039355541
      5404.52       1.3024634    0.0039349470
      5409.92       1.3036279    0.0039072711
      5415.33       1.3049927    0.0039322428
      5420.75       1.3133175    0.0039318681
      5426.17       1.3206238    0.0039050774
      5431.60       1.3275484    0.0039046200
      5437.03       1.3362694    0.0039046063
      5442.47       1.3469356    0.0039044686
      5447.91       1.3542711    0.0039042795
      5453.36       1.3583271    0.0039044738
      5458.81       1.3632550    0.0039051213
      5464.27       1.3669353    0.0039054334
      5469.73       1.3652962    0.0039059177
      5475.20       1.3626115    0.0039067860
      5480.68       1.3547082    0.0038814226
      5486.16       1.3402678    0.0038830276
      5491.65       1.3297419    0.0039100802
      5497.14       1.3173265    0.0039115873
      5502.64       1.3013514    0.0038866032
      5508.14       1.2851701    0.0038886423
      5513.65       1.2665810    0.0038910007
      5519.16       1.2509739    0.0038937204
      5524.68       1.2380094    0.0038939944
      5530.20       1.2208793    0.0038964589
      5535.73       1.2014147    0.0038992406
      5541.27       1.1872759    0.0039023198
      5546.81       1.1718668    0.0038792219
      5552.36       1.1592344    0.0038821445
      5557.91       1.1440645    0.0038853279
      5563.47       1.1316705    0.0039131783
      5569.04       1.1192834    0.0039169215
      5574.60       1.1095484    0.0038946962
      5580.18       1.1027749    0.0038981831
      5585.76       1.0934331    0.0039019539
      5591.35       1.0842796    0.0039059030
      5596.94       1.0773714    0.0039101219
      5602.53       1.0705953    0.0038881934
      5608.14       1.0637494    0.0039174612
      5613.75       1.0623354    0.0039217340
      5619.36       1.0609516    0.0039262648
      5624.98       1.0597265    0.0039309454
      5630.60       1.0596467    0.0039358679
      5636.23       1.0561627    0.0039143348
      5641.87       1.0565809    0.0039194950
      5647.51       1.0595854    0.0039248703
      5653.16       1.0610153    0.0039304123
      5658.82       1.0655337    0.0039360900
      5664.47       1.0680165    0.0039419031
      5670.14       1.0693101    0.0039446315
      5675.81       1.0716805    0.0039503403
      5681.48       1.0749258    0.0039562187
      5687.17       1.0757966    0.0039622700
      5692.85       1.0725985    0.0039684411
      5698.55       1.0652944    0.0039747461
      5704.25       1.0608286    0.0039811677
      5709.95       1.0553376    0.0039877285
      5715.66       1.0540517    0.0039681598
      5721.38       1.0542002    0.0039746213
      5727.10       1.0488470    0.0039812073
      5732.83       1.0459082    0.0039879498
      5738.56       1.0427333    0.0039947371
      5744.30       1.0402987    0.0040017280
      5750.04       1.0428267    0.0040088603
      5755.79       1.0425987    0.0040163003
      5761.55       1.0465938    0.0040241381
      5767.31       1.0574524    0.0040319743
      5773.08       1.0697667    0.0040397234
      5778.85       1.0776515    0.0040477127
      5784.63       1.0864419    0.0040291698
      5790.41       1.0959740    0.0040388877
      5796.21       1.1071161    0.0040498516
      5802.00       1.1154816    0.0040612741
      5807.81       1.1235675    0.0040728928
      5813.61       1.1363736    0.0040850534
      5819.43       1.1437075    0.0040976892
      5825.25       1.1588407    0.0041094474
      5831.07       1.1726541    0.0041198423
      5836.90       1.1826744    0.0041295403
      5842.74       1.1954654    0.0041386504
      5848.58       1.2056543    0.0041472058
      5854.43       1.2164240    0.0041309884
      5860.29       1.2230999    0.0041385713
      5866.15       1.2311553    0.0041464408
      5872.01       1.2428059    0.0041545724
      5877.89       1.2530230    0.0041626019
      5883.76       1.2577626    0.0041700723
      5889.65       1.2607508    0.0041771584
      5895.54       1.2570946    0.0041838687
      5901.43       1.2544654    0.0041907174
      5907.34       1.2507248    0.0041975903
      5913.24       1.2427810    0.0042039142
      5919.16       1.2328887    0.0041850314
      5925.08       1.2244120    0.0041917780
      5931.00       1.2132578    0.0041993289
      5936.93       1.2061641    0.0042066525
      5942.87       1.1932093    0.0042135558
      5948.81       1.1815822    0.0042210719
      5954.76       1.1656250    0.0042293433
      5960.72       1.1525068    0.0042379634
      5966.68       1.1381900    0.0042228978
      5972.64       1.1223048    0.0042595275
      5978.62       1.1117727    0.0042686227
      5984.60       1.1007992    0.0042777907
      5990.58       1.0929378    0.0042870178
      5996.57       1.0818457    0.0042963501
      6002.57       1.0738986    0.0043057743
      6008.57       1.0618054    0.0042911481
      6014.58       1.0566915    0.0043007878
      6020.60       1.0529326    0.0043105576
      6026.62       1.0519084    0.0043203485
      6032.65       1.0519997    0.0043303023
      6038.68       1.0521784    0.0043149342
      6044.72       1.0522109    0.0043523904
      6050.76       1.0507574    0.0043621147
      6056.81       1.0448838    0.0043719631
      6062.87       1.0421826    0.0043819078
      6068.93       1.0362469    0.0043668846
      6075.00       1.0365447    0.0043764362
      6081.08       1.0337710    0.0043860603
      6087.16       1.0336773    0.0044241547
      6093.25       1.0351465    0.0044341079
      6099.34       1.0418390    0.0044190831
      6105.44       1.0475750    0.0044285598
      6111.54       1.0517493    0.0044381963
      6117.66       1.0581033    0.0044480297
      6123.78       1.0611704    0.0044335044
      6129.90       1.0668880    0.0044713427
      6136.03       1.0749665    0.0044811083
      6142.17       1.0803280    0.0044920735
      6148.31       1.0859016    0.0044801461
      6154.46       1.0858249    0.0044902477
      6160.61       1.0877198    0.0045275096
      6166.77       1.0847036    0.0045150085
      6172.94       1.0796259    0.0045294803
      6179.11       1.0743951    0.0045463775
      6185.29       1.0705670    0.0045653869
      6191.48       1.0661680    0.0045905231
      6197.67       1.0597754    0.0046106398
      6203.87       1.0592292    0.0046301226
      6210.07       1.0567069    0.0046222033
      6216.28       1.0535166    0.0046361544
      6222.50       1.0507611    0.0046768975
      6228.72       1.0457129    0.0046574647
      6234.95       1.0395826    0.0046610180
      6241.19       1.0291278    0.0046627023
      6247.42       1.0216664    0.0046650554
      6253.67       1.0159629    0.0046662384
      6259.93       1.0094755    0.0046701130
      6266.19       1.0083318    0.0046505793
      6272.46      0.99973296    0.0046830538
      6278.73      0.99482850    0.0046869975
      6285.01      0.98982063    0.0046671680
      6291.29      0.98897765    0.0047015800
      6297.58      0.98996956    0.0047076252
      6303.88      0.99108743    0.0046888045
      6310.19      0.99348817    0.0046962735
      6316.50      0.99850874    0.0047057092
      6322.81       1.0061928    0.0047134369
      6329.14       1.0102799    0.0047219359
      6335.47       1.0173074    0.0047326942
      6341.80       1.0247973    0.0047414123
      6348.14       1.0297374    0.0047240835
      6354.49       1.0356993    0.0047616053
      6360.85       1.0393692    0.0047712118
      6367.21       1.0438620    0.0047554995
      6373.57       1.0522228    0.0047960621
      6379.95       1.0614573    0.0047834431
      6386.33       1.0691670    0.0047949144
      6392.72       1.0734600    0.0048102201
      6399.11       1.0791771    0.0048203169
      6405.51       1.0841990    0.0048306994
      6411.92       1.0912979    0.0048438708
      6418.32       1.0958963    0.0048518193
      6424.74       1.0999577    0.0048333111
      6431.17       1.1071407    0.0048677314
      6437.60       1.1149277    0.0048474999
      6444.04       1.1234164    0.0048816595
      6450.48       1.1278890    0.0048614257
      6456.94       1.1342250    0.0048683378
      6463.39       1.1382938    0.0048772490
      6469.85       1.1430375    0.0048837659
      6476.33       1.1495756    0.0048912376
      6482.80       1.1530882    0.0048962699
      6489.28       1.1549449    0.0048742161
      6495.77       1.1600233    0.0049078760
      6502.27       1.1641075    0.0048866467
      6508.77       1.1697111    0.0049196518
      6515.28       1.1739386    0.0048968852
      6521.80       1.1779462    0.0049297637
      6528.32       1.1802038    0.0049082132
      6534.85       1.1855539    0.0049133821
      6541.38       1.1865997    0.0049212865
      6547.92       1.1913594    0.0049265842
      6554.47       1.1962542    0.0049345804
      6561.03       1.2005962    0.0049138750
      6567.59       1.2002142    0.0049475150
      6574.16       1.1974362    0.0049265587
      6580.73       1.1978825    0.0049598954
      6587.31       1.1942070    0.0049387475
      6593.90       1.1853187    0.0049720152
      6600.50       1.1813764    0.0049507230
      6607.10       1.1744471    0.0049573415
      6613.70       1.1672702    0.0049620723
      6620.32       1.1601037    0.0049682150
      6626.94       1.1520799    0.0049728685
      6633.57       1.1490894    0.0049785720
      6640.20       1.1385875    0.0049562699
      6646.84       1.1276179    0.0049882760
      6653.49       1.1178806    0.0049654832
      6660.14       1.1130755    0.0049974690
      6666.80       1.1002755    0.0049741027
      6673.47       1.0960984    0.0049794288
      6680.14       1.0880602    0.0049821968
      6686.82       1.0791076    0.0049869249
      6693.51       1.0747574    0.0049637544
      6700.20       1.0687070    0.0049938256
      6706.90       1.0622822    0.0049983048
      6713.61       1.0546942    0.0049758003
      6720.32       1.0453217    0.0050131626
      6727.05       1.0457374    0.0050102577
      6733.77       1.0419562    0.0050196387
      6740.51       1.0339717    0.0050414767
      6747.25       1.0277338    0.0050265566
      6754.00       1.0220313    0.0050615896
      6760.75       1.0141804    0.0051037594
      6767.51       1.0013639    0.0051729870
      6774.28      0.98567140    0.0052568660
      6781.05      0.97808598    0.0053286988
      6787.84      0.97371840    0.0054158873
      6794.62      0.96468373    0.0054518318
      6801.42      0.96243212    0.0055008293
      6808.22      0.95426294    0.0055514409
      6815.03      0.95211254    0.0055072462
      6821.85      0.95299184    0.0054674119
      6828.67      0.94615761    0.0054063194
      6835.50      0.94277194    0.0053486742
      6842.33      0.94163080    0.0052815587
      6849.17      0.93989265    0.0052330728
      6856.02      0.94042360    0.0051778861
      6862.88      0.93819514    0.0051727714
      6869.74      0.93531040    0.0051301296
      6876.61      0.93329379    0.0050780764
      6883.49      0.92940608    0.0050578784
      6890.37      0.92390031    0.0050667337
      6897.27      0.92085966    0.0050257220
      6904.16      0.91778574    0.0050131751
      6911.07      0.92288380    0.0050046709
      6917.98      0.92546645    0.0049731203
      6924.89      0.92634748    0.0049948968
      6931.82      0.92949662    0.0049895340
      6938.75      0.93353678    0.0049824057
      6945.69      0.93987419    0.0049477848
      6952.64      0.94490147    0.0049366256
      6959.59      0.95251682    0.0049516078
      6966.55      0.96076032    0.0049148779
      6973.52      0.97005013    0.0049047030
      6980.49      0.97512124    0.0048944151
      6987.47      0.97954424    0.0048836734
      6994.46      0.98357207    0.0048488319
      7001.46      0.98320461    0.0048388365
      7008.46      0.98026455    0.0048550736
      7015.46      0.97487286    0.0048480896
      7022.48      0.97257282    0.0048444723
      7029.51      0.97091073    0.0048181172
      7036.53      0.96286076    0.0048155820
      7043.57      0.95443759    0.0048144202
      7050.62      0.94395743    0.0048181564
      7057.66      0.93330531    0.0048298283
      7064.72      0.91935237    0.0048264530
      7071.79      0.90752270    0.0048806489
      7078.86      0.90054538    0.0049258021
      7085.94      0.89907027    0.0049731967
      7093.03      0.90179942    0.0050110097
      7100.12      0.89821688    0.0049789581
      7107.22      0.89615093    0.0049346189
      7114.33      0.89209341    0.0049081039
      7121.44      0.89025961    0.0048506759
      7128.56      0.88882494    0.0047666117
      7135.69      0.89168870    0.0047033146
      7142.83      0.89575660    0.0046396514
      7149.97      0.89720289    0.0045769501
      7157.12      0.89911781    0.0045157579
      7164.28      0.90347532    0.0044587177
      7171.44      0.91052037    0.0044061855
      7178.62      0.91576880    0.0043545933
      7185.80      0.91646856    0.0043011628
      7192.98      0.92060140    0.0042642102
      7200.17      0.92312606    0.0042013270
      7207.38      0.92428608    0.0041344192
      7214.58      0.92755215    0.0040654009
      7221.80      0.92808239    0.0039959139
      7229.02      0.92884304    0.0039290176
      7236.25      0.93274439    0.0038664285
      7243.49      0.93753720    0.0038074248
      7250.73      0.94120648    0.0037503630
      7257.98      0.94311679    0.0036841506
      7265.24      0.94666357    0.0036289691
      7272.51      0.94650664    0.0035754616
      7279.78      0.94810248    0.0035240553
      7287.06      0.94458504    0.0034747087
      7294.35      0.94181926    0.0034273275
      7301.64      0.94279153    0.0033681714
      7308.94      0.94309163    0.0033234707
      7316.25      0.94068114    0.0032799118
      7323.57      0.93658776    0.0032376697
      7330.89      0.92828141    0.0031961052
      7338.22      0.91733617    0.0031551139
      7345.56      0.90700983    0.0031145234
      7352.91      0.89536679    0.0030856874
      7360.26      0.88486943    0.0031182879
      7367.62      0.87235276    0.0031591624
      7374.99      0.85912198    0.0032105358
      7382.37      0.84388462    0.0032753864
      7389.75      0.82804646    0.0033582232
      7397.14      0.80995183    0.0034656137
      7404.53      0.79055191    0.0036058084
      7411.94      0.77138938    0.0037904700
      7419.35      0.74945844    0.0040347114
      7426.77      0.72570908    0.0043562356
      7434.20      0.70224411    0.0047787673
      7441.63      0.67735329    0.0053296882
      7449.07      0.65165169    0.0060369563
      7456.52      0.62625332    0.0069370462
      7463.98      0.60100322    0.0080718667
      7471.45      0.57552479    0.0094944942
