# starting wavelength =        3153.6300
# ending wavelength =        8760.8800
# O2 telluric scale =        0
# O2 telluric shift =        0
# H2O telluric scale =        0
# H2O telluric shift =        0
      3156.55     -0.15672990      0.30632364
      3159.70     0.063158683      0.27447366
      3162.86      0.23095553      0.23609261
      3166.03      0.38907479      0.19893299
      3169.19      0.42076966      0.17730220
      3172.36      0.47149933      0.16510884
      3175.54      0.56966080      0.15101295
      3178.71      0.60725797      0.13999634
      3181.89      0.60036606      0.12926451
      3185.07      0.53049656      0.12290379
      3188.26      0.50919741      0.11928250
      3191.45      0.51393359      0.11476260
      3194.64      0.51691739      0.11096130
      3197.83      0.49631603      0.10787454
      3201.03      0.45886156      0.10518868
      3204.23      0.49395537      0.10375653
      3207.44      0.47691825      0.10154439
      3210.64      0.55078891     0.099536380
      3213.85      0.57316073     0.098537022
      3217.07      0.60910382     0.098218172
      3220.28      0.56408514     0.098757535
      3223.51      0.64646215     0.097739935
      3226.73      0.50478962     0.097422778
      3229.96      0.48663978     0.097956201
      3233.19      0.50364766     0.097665941
      3236.42      0.47055376     0.097462853
      3239.66      0.48217344     0.097158183
      3242.90      0.43228900     0.096868136
      3246.14      0.52395580     0.097406082
      3249.39      0.56074527     0.096363735
      3252.64      0.50419731     0.096931177
      3255.89      0.58330648     0.096609010
      3259.14      0.57480149     0.096301246
      3262.40      0.58923442     0.096139870
      3265.67      0.60992168     0.095817379
      3268.93      0.58124793     0.095509112
      3272.20      0.52110324     0.096060428
      3275.47      0.51550901     0.095031782
      3278.75      0.53575098     0.095561150
      3282.03      0.57075949     0.095261662
      3285.31      0.43371519     0.094975811
      3288.60      0.42717111     0.094771658
      3291.88      0.47300450     0.094468495
      3295.18      0.34857875     0.094179987
      3298.47      0.29282640     0.094731670
      3301.77      0.33905078     0.094421876
      3305.07      0.32139549     0.093388090
      3308.38      0.29169254     0.093945655
      3311.69      0.30916600     0.093634784
      3315.00      0.30047519     0.094188912
      3318.31      0.35381107     0.093168142
      3321.63      0.36201090     0.092853653
      3324.95      0.41080613     0.093397674
      3328.28      0.37006512     0.093101771
      3331.61      0.35842224     0.092819708
      3334.94      0.36468927     0.092611408
      3338.27      0.34344897     0.092311702
      3341.61      0.37023830     0.092022293
      3344.95      0.34852566     0.092588191
      3348.30      0.26918458     0.092281078
      3351.65      0.30585960     0.091234671
      3355.00      0.31973406     0.091815091
      3358.35      0.37103718     0.091501087
      3361.71      0.39672063     0.091198780
      3365.07      0.43877224     0.091764181
      3368.44      0.43297841     0.091480222
      3371.81      0.49417834     0.090423479
      3375.18      0.52432841     0.090974719
      3378.56      0.52558616     0.090682191
      3381.94      0.54971517     0.090400441
      3385.32      0.56869154     0.090967502
      3388.70      0.59475090     0.089897962
      3392.09      0.54328927     0.089606141
      3395.48      0.49365993     0.090198099
      3398.88      0.51919904     0.089886467
      3402.28      0.54048782     0.089585860
      3405.68      0.58098790     0.090166036
      3409.09      0.55931915     0.089125721
      3412.49      0.51927862     0.088815240
      3415.91      0.51356472     0.089378988
      3419.32      0.53585307     0.089084147
      3422.74      0.57887232     0.088798188
      3426.17      0.55338773     0.089396667
      3429.59      0.51812345     0.089091280
      3433.02      0.51051764     0.088010181
      3436.45      0.52027885     0.087722682
      3439.89      0.52102126     0.088326193
      3443.33      0.51632151     0.088018146
      3446.78      0.48754082     0.087716526
      3450.22      0.50947280     0.088308031
      3453.67      0.53410878     0.088024137
      3457.13      0.53013583     0.087747190
      3460.58      0.52477175     0.087527959
      3464.04      0.52928510     0.087230656
      3467.51      0.53482292     0.086943005
      3470.98      0.53925262     0.086658847
      3474.45      0.52915354     0.087267091
      3477.92      0.50188308     0.086963872
      3481.40      0.48801742     0.086669160
      3484.88      0.51747452     0.087282858
      3488.37      0.52034508     0.086212110
      3491.86      0.47615209     0.085904815
      3495.35      0.43798999     0.085601649
      3498.84      0.47316394     0.086198690
      3502.34      0.48336149     0.085909327
      3505.84      0.46313059     0.085627411
      3509.35      0.48490712     0.086268384
      3512.86      0.50406613     0.085960775
      3516.37      0.53065301     0.085661413
      3519.89      0.51902245     0.085369012
      3523.41      0.48441340     0.085221143
      3526.93      0.49010015     0.084907702
      3530.46      0.47851950     0.084602008
      3533.99      0.51075004     0.084302553
      3537.53      0.49866587     0.084919724
      3541.06      0.50000043     0.084628650
      3544.60      0.53029361     0.084343516
      3548.15      0.52932521     0.084064160
      3551.70      0.52188829     0.084711682
      3555.25      0.54160349     0.084408222
      3558.80      0.53447634     0.084112757
      3562.36      0.52960730     0.083822796
      3565.92      0.53826229     0.084478557
      3569.49      0.52394229     0.084195670
      3573.06      0.53219479     0.083059440
      3576.64      0.50340707     0.082758720
      3580.21      0.47122369     0.083392339
      3583.79      0.42200033     0.083099366
      3587.38      0.42536465     0.082814149
      3590.96      0.42314538     0.082527947
      3594.55      0.37895478     0.083226998
      3598.15      0.33275291     0.082921573
      3601.75      0.32588269     0.082619521
      3605.35      0.32483730     0.082320863
      3608.96      0.30024060     0.082991288
      3612.56      0.33412574     0.082701914
      3616.18      0.34527443     0.082413877
      3619.79      0.33139563     0.082130590
      3623.41      0.34921237     0.081854834
      3627.04      0.37316203     0.082550114
      3630.66      0.38244155     0.082247447
      3634.29      0.37655513     0.081950352
      3637.93      0.39778567     0.081655712
      3641.57      0.38877291     0.082361025
      3645.21      0.38529066     0.082070286
      3648.86      0.37665218     0.081785542
      3652.50      0.37102106     0.081504320
      3656.16      0.36105692     0.081224644
      3659.81      0.34090434     0.081945410
      3663.47      0.32133094     0.081643398
      3667.14      0.31897172     0.081346889
      3670.80      0.31313623     0.081052201
      3674.48      0.27801981     0.080759562
      3678.15      0.30364747     0.081500016
      3681.83      0.37713772     0.081214678
      3685.51      0.38602776     0.080924855
      3689.20      0.39880349     0.080640520
      3692.88      0.40591899     0.080361654
      3696.58      0.41628458     0.081120543
      3700.27      0.45086900     0.080814655
      3703.98      0.48165530     0.080514785
      3707.68      0.47864867     0.080218427
      3711.39      0.50737236     0.079921270
      3715.10      0.52145541     0.080693578
      3718.81      0.51893573     0.080404118
      3722.53      0.52150460     0.080110753
      3726.26      0.50982181     0.079820626
      3729.98      0.51044377     0.079536246
      3733.71      0.48717659     0.078299450
      3737.45      0.46452336     0.077996113
      3741.18      0.44757507     0.077698174
      3744.93      0.42295224     0.077405200
      3748.67      0.39712137     0.077107101
      3752.42      0.38665435     0.076814132
      3756.17      0.36645214     0.076525826
      3759.93      0.35020982     0.076235605
      3763.69      0.33398219     0.075948058
      3767.45      0.33914438     0.075664777
      3771.22      0.34572496     0.075381056
      3774.99      0.37986547     0.075096461
      3778.77      0.39566587     0.074816000
      3782.54      0.42637743     0.074537530
      3786.33      0.44290638     0.073340337
      3790.11      0.46567654     0.073063712
      3793.90      0.49765142     0.072790137
      3797.70      0.51731208     0.072514079
      3801.50      0.53527379     0.072239357
      3805.30      0.59005162     0.071967780
      3809.10      0.61968986     0.071696942
      3812.91      0.65522651     0.071423718
      3816.73      0.64714207     0.071153642
      3820.54      0.63828483     0.070884604
      3824.36      0.64205647     0.070613305
      3828.19      0.65260023     0.070344797
      3832.02      0.66444521     0.070079182
      3835.85      0.66779422     0.069807788
      3839.68      0.65974651     0.069539109
      3843.52      0.65347098     0.069273113
      3847.37      0.62700659     0.069004290
      3851.22      0.59243535     0.068736267
      3855.07      0.59651835     0.068470933
      3858.92      0.58306806     0.068206150
      3862.78      0.59987660     0.067938471
      3866.64      0.60079915     0.067673628
      3870.51      0.60686457     0.067409476
      3874.38      0.60118519     0.067142440
      3878.26      0.62686281     0.066878172
      3882.13      0.63833080     0.066616284
      3886.02      0.64130436     0.066351380
      3889.90      0.63396663     0.066087483
      3893.79      0.66341013     0.065826232
      3897.69      0.68690420     0.065562533
      3901.59      0.70420934     0.065299593
      3905.49      0.70259052     0.065039175
      3909.39      0.70195200     0.064779730
      3913.30      0.69491655     0.064517723
      3917.22      0.71716410     0.064258517
      3921.13      0.72363311     0.064000201
      3925.06      0.75218137     0.063739744
      3928.98      0.78901181     0.063482231
      3932.91      0.78722768     0.063227085
      3936.84      0.79903025     0.062969835
      3940.78      0.79913918     0.062714144
      3944.72      0.82861464     0.062461323
      3948.67      0.84052478     0.061416526
      3952.61      0.86789022     0.061166970
      3956.57      0.87876414     0.060919850
      3960.52      0.87050005     0.060672698
      3964.48      0.85192466     0.060425778
      3968.45      0.87217924     0.060181675
      3972.42      0.86978864     0.059937645
      3976.39      0.87220213     0.059694152
      3980.37      0.88031276     0.059453539
      3984.35      0.90844533     0.059214015
      3988.33      0.89904038     0.058975604
      3992.32      0.91606150     0.058739008
      3996.31      0.90991830     0.058503896
      4000.31      0.87836412     0.057505827
      4004.31      0.85299048     0.057264557
      4008.31      0.85518841     0.057024067
      4012.32      0.88904799     0.056786433
      4016.33      0.90293868     0.056549422
      4020.35      0.94825395     0.056313786
      4024.37      0.94193805     0.056080595
      4028.40      0.92971674     0.056501509
      4032.42      0.91543093     0.056270075
      4036.46      0.88787221     0.056039388
      4040.50      0.88165548     0.055111265
      4044.54      0.91609344     0.054871681
      4048.58      0.90665484     0.054635335
      4052.63      0.91313190     0.054399880
      4056.68      0.92514140     0.054167710
      4060.74      0.90188874     0.053936293
      4064.80      0.83983953     0.053708551
      4068.86      0.85520403     0.053483099
      4072.93      0.84845480     0.052608941
      4077.01      0.83167354     0.052391363
      4081.08      0.85478227     0.052764823
      4085.17      0.87450747     0.052530596
      4089.25      0.87551846     0.052300137
      4093.34      0.85004271     0.052072430
      4097.43      0.84584062     0.051846038
      4101.53      0.81577863     0.051623953
      4105.63      0.82455810     0.050777681
      4109.74      0.82813811     0.050562803
      4113.85      0.82904494     0.050353236
      4117.96      0.81276224     0.050145835
      4122.08      0.81495389     0.050469397
      4126.20      0.79820339     0.050246388
      4130.33      0.79747727     0.049415616
      4134.46      0.79858575     0.049200981
      4138.59      0.78113012     0.048991849
      4142.73      0.78406324     0.048785286
      4146.88      0.80561425     0.048580994
      4151.02      0.80035181     0.048382427
      4155.18      0.79661566     0.048082016
      4159.33      0.78825928     0.047868709
      4163.49      0.75898037     0.047661116
      4167.65      0.72914849     0.047456593
      4171.82      0.70415386     0.047254773
      4175.99      0.68768259     0.047059140
      4180.17      0.69055162     0.046261107
      4184.35      0.71688750     0.046052593
      4188.54      0.71549087     0.046357147
      4192.72      0.73282077     0.046156171
      4196.92      0.71765274     0.045958383
      4201.11      0.71065099     0.045195248
      4205.31      0.72188185     0.044988127
      4209.52      0.73023654     0.044783902
      4213.73      0.73993922     0.045078835
      4217.94      0.73391686     0.044883136
      4222.16      0.71845942     0.044145303
      4226.38      0.71041164     0.043939499
      4230.61      0.70621379     0.043737691
      4234.84      0.67216013     0.043539431
      4239.08      0.64324502     0.043826849
      4243.32      0.63472512     0.043109862
      4247.56      0.62584801     0.042904868
      4251.81      0.60284838     0.042706963
      4256.06      0.62804179     0.042513334
      4260.32      0.65809255     0.041825418
      4264.58      0.67985466     0.042090250
      4268.84      0.67693896     0.041889192
      4273.11      0.68877576     0.041692642
      4277.38      0.69010919     0.041503651
      4281.66      0.69410385     0.040832111
      4285.94      0.71907871     0.041081629
      4290.23      0.71116586     0.040885923
      4294.52      0.72270381     0.040694416
      4298.81      0.72069695     0.040032158
      4303.11      0.73404603     0.039857108
      4307.42      0.72749439     0.040090334
      4311.72      0.70544841     0.039899478
      4316.04      0.68637077     0.039249035
      4320.35      0.69420777     0.039073365
      4324.67      0.69329686     0.038904162
      4329.00      0.67495492     0.039117429
      4333.33      0.67288570     0.038474257
      4337.66      0.68395676     0.038300665
      4342.00      0.69286089     0.038134925
      4346.34      0.70885214     0.037974143
      4350.69      0.69605179     0.037712238
      4355.04      0.71230142     0.037542446
      4359.39      0.72194614     0.037377220
      4363.75      0.74633275     0.036752976
      4368.12      0.76064322     0.036963478
      4372.48      0.76326834     0.036794934
      4376.86      0.79381516     0.036634983
      4381.23      0.78060366     0.036019093
      4385.61      0.78774889     0.036223498
      4390.00      0.76525854     0.036060844
      4394.39      0.74592983     0.035466732
      4398.79      0.74929806     0.035294675
      4403.18      0.75660931     0.035497810
      4407.59      0.74299203     0.034922658
      4412.00      0.72957917     0.034748914
      4416.41      0.75621999     0.034583917
      4420.82      0.75592071     0.034783864
      4425.25      0.78238054     0.034211217
      4429.67      0.79353911     0.034044895
      4434.10      0.80034697     0.033885325
      4438.54      0.85223596     0.033681468
      4442.97      0.87416615     0.033514275
      4447.42      0.89342911     0.033353088
      4451.86      0.92901424     0.033157545
      4456.32      0.96366250     0.032988938
      4460.77      0.98703687     0.032827644
      4465.24      0.99254921     0.032304201
      4469.70      0.99331708     0.032470770
      4474.17      0.98736356     0.032309786
      4478.65      0.95393745     0.031792661
      4483.12      0.98055270     0.031958599
      4487.61      0.99997396     0.031798957
      4492.09       1.0089941     0.031289017
      4496.59       1.0225501     0.031148662
      4501.08       1.0399871     0.031295210
      4505.58       1.0471274     0.030791806
      4510.09       1.0608819     0.030652838
      4514.60       1.0771192     0.030797030
      4519.12       1.0948044     0.030301361
      4523.63       1.1329954     0.030164662
      4528.16       1.1259466     0.029960085
      4532.69       1.1348006     0.029817352
      4537.22       1.1613533     0.029683727
      4541.76       1.1594743     0.029480777
      4546.30       1.1607656     0.029340737
      4550.85       1.1739356     0.029210281
      4555.40       1.1737894     0.029007677
      4559.95       1.1866298     0.028871287
      4564.51       1.1846501     0.028401104
      4569.08       1.2265622     0.028541099
      4573.65       1.2579548     0.028408590
      4578.22       1.2733682     0.027942017
      4582.80       1.3050101     0.028081438
      4587.38       1.3405245     0.027630364
      4591.97       1.3673386     0.027490507
      4596.56       1.3726406     0.027630130
      4601.16       1.3936661     0.027180838
      4605.76       1.3920928     0.027045636
      4610.37       1.3958254     0.026878032
      4614.98       1.3863289     0.026738780
      4619.59       1.3834470     0.026872779
      4624.21       1.3694709     0.026437505
      4628.84       1.3700129     0.026304225
      4633.47       1.3711962     0.026141866
      4638.10       1.3687443     0.026004522
      4642.74       1.3601262     0.025877979
      4647.38       1.3433854     0.025710892
      4652.03       1.3234525     0.025580594
      4656.68       1.3173253     0.025421694
      4661.34       1.3135488     0.025288608
      4666.00       1.3066596     0.024889170
      4670.67       1.3144100     0.025001636
      4675.33       1.2967664     0.024602083
      4680.01       1.2655129     0.024718402
      4684.69       1.2411471     0.024590597
      4689.38       1.2180797     0.024204026
      4694.07       1.1853240     0.024309667
      4698.76       1.1586893     0.023923920
      4703.46       1.1314170     0.024032683
      4708.16       1.1021201     0.023647737
      4712.87       1.0924191     0.023539045
      4717.58       1.0852962     0.023376154
      4722.30       1.0654280     0.023265828
      4727.03       1.0433387     0.023108136
      4731.75       1.0358918     0.022995928
      4736.48       1.0387150     0.022895449
      4741.22       1.0405519     0.022730913
      4745.96       1.0335431     0.022628860
      4750.71       1.0366495     0.022468701
      4755.46       1.0400568     0.022365917
      4760.22       1.0538817     0.022210070
      4764.97       1.0450934     0.022107166
      4769.74       1.0351091     0.021954792
      4774.51       1.0267993     0.021851670
      4779.29       1.0023199     0.021499890
      4784.07      0.99329260     0.021599282
      4788.85      0.98822304     0.021253524
      4793.64      0.98951814     0.021350769
      4798.43      0.99857153     0.021009912
      4803.23       1.0126264     0.021105353
      4808.03       1.0112155     0.020768617
      4812.84       1.0178555     0.020862945
      4817.66       1.0304167     0.020531040
      4822.48       1.0542750     0.020623894
      4827.30       1.0592632     0.020296213
      4832.12       1.0461146     0.019982574
      4836.96       1.0357129     0.020064121
      4841.79       1.0342707     0.019754304
      4846.63       1.0340227     0.019834455
      4851.48       1.0178023     0.019529138
      4856.33       1.0107792     0.019607703
      4861.19       1.0040803     0.019306562
      4866.05      0.99703407     0.019384718
      4870.92      0.99668072     0.019087395
      4875.79      0.99564843     0.019164140
      4880.66       1.0143688     0.018871234
      4885.55       1.0361073     0.018946260
      4890.43       1.0364630     0.018658869
      4895.32       1.0595336     0.018532916
      4900.22       1.0764621     0.018449062
      4905.12       1.1142812     0.018323477
      4910.02       1.1337634     0.018241903
      4914.94       1.1506780     0.018117714
      4919.85       1.1504154     0.018038569
      4924.77       1.1594253     0.017914427
      4929.70       1.1605082     0.017639358
      4934.62       1.1650890     0.017714625
      4939.56       1.1546890     0.017599213
      4944.50       1.1497119     0.017518179
      4949.44       1.1669471     0.017402550
      4954.39       1.1580480     0.017325273
      4959.35       1.1464573     0.017209013
      4964.31       1.1351387     0.016947706
      4969.27       1.1148989     0.017019614
      4974.24       1.1011210     0.016759194
      4979.22       1.0788281     0.016833712
      4984.20       1.0488751     0.016574073
      4989.18       1.0405803     0.016472860
      4994.17       1.0279668     0.016541425
      4999.16       1.0133494     0.016290640
      5004.16      0.99847733     0.016362642
      5009.17      0.98331451     0.016112070
      5014.18      0.98004016     0.016015469
      5019.19      0.99097279     0.015937455
      5024.21      0.98888596     0.015839550
      5029.23       1.0005912     0.015747802
      5034.26       1.0058725     0.015668138
      5039.30       1.0193598     0.015575562
      5044.34       1.0249139     0.015500878
      5049.39       1.0081862     0.015406934
      5054.43       1.0054204     0.015181984
      5059.49      0.99132976     0.015242697
      5064.55      0.98246380     0.015153282
      5069.61      0.97583406     0.014929678
      5074.68      0.96396338     0.014992136
      5079.76      0.94928977     0.014776220
      5084.84      0.93469996     0.014684924
      5089.92      0.93207532     0.014748649
      5095.01      0.92975542     0.014534975
      5100.11      0.94417951     0.014447471
      5105.21      0.94619841     0.014390094
      5110.31      0.96598014     0.014301068
      5115.42      0.99284624     0.014216821
      5120.54       1.0101250     0.014159497
      5125.66       1.0445217     0.014073945
      5130.79       1.0688512     0.013992504
      5135.92       1.0918992     0.013936367
      5141.05       1.0955792     0.013853780
      5146.20       1.1262855     0.013654905
      5151.34       1.1587456     0.013720208
      5156.49       1.1843958     0.013640171
      5161.65       1.2211271     0.013445683
      5166.81       1.2433369     0.013373568
      5171.98       1.2656686     0.013433354
      5177.15       1.2798945     0.013243005
      5182.33       1.2847123     0.013172615
      5187.51       1.2844000     0.013233290
      5192.70       1.2923402     0.013046217
      5197.89       1.2840335     0.012977856
      5203.09       1.2734468     0.013039979
      5208.29       1.2678361     0.012856108
      5213.50       1.2600816     0.012789723
      5218.72       1.2527023     0.012726063
      5223.93       1.2611416     0.012672493
      5229.16       1.2651762     0.012607704
      5234.39       1.2684480     0.012545641
      5239.62       1.2743908     0.012374919
      5244.86       1.2973541     0.012432246
      5250.11       1.3314439     0.012371629
      5255.36       1.3471476     0.012206770
      5260.61       1.3613980     0.012145555
      5265.87       1.3822072     0.012204323
      5271.14       1.3995859     0.012045552
      5276.41       1.4264476     0.011985712
      5281.69       1.4293245     0.011928200
      5286.97       1.4379359     0.011988109
      5292.26       1.4485962     0.011832762
      5297.55       1.4685703     0.011776422
      5302.85       1.4681724     0.011722328
      5308.15       1.4740292     0.011687288
      5313.46       1.4776806     0.011632116
      5318.77       1.4858101     0.011579018
      5324.09       1.5092257     0.011528062
      5329.42       1.5252686     0.011380723
      5334.75       1.5352310     0.011443104
      5340.08       1.5513261     0.011393065
      5345.42       1.5466679     0.011345066
      5350.77       1.5652818     0.011201872
      5356.12       1.5695095     0.011157748
      5361.48       1.5701370     0.011218775
      5366.83       1.5793696     0.011173436
      5372.20       1.5873399     0.011033906
      5377.58       1.5963624     0.010992317
      5382.95       1.5722195     0.010952597
      5388.34       1.5601152     0.011013400
      5393.72       1.5411375     0.010877211
      5399.12       1.5345586     0.010838013
      5404.52       1.5030986     0.010800244
      5409.92       1.4896805     0.010764298
      5415.33       1.4718116     0.010731811
      5420.75       1.4512665     0.010694898
      5426.17       1.4512685     0.010659479
      5431.60       1.4373828     0.010625394
      5437.03       1.4282882     0.010592929
      5442.47       1.4435040     0.010468149
      5447.91       1.4354682     0.010435346
      5453.36       1.4508486     0.010498211
      5458.81       1.4569982     0.010467658
      5464.27       1.4618087     0.010350730
      5469.73       1.4916907     0.010319664
      5475.20       1.5098156     0.010290049
      5480.68       1.5210151     0.010261425
      5486.16       1.5280574     0.010234356
      5491.65       1.5421156     0.010300288
      5497.14       1.5579037     0.010188565
      5502.64       1.5582884     0.010162068
      5508.14       1.5600439     0.010136741
      5513.65       1.5702946     0.010112578
      5519.16       1.5815166     0.010089546
      5524.68       1.5877164    0.0099813604
      5530.20       1.6010060    0.0099603425
      5535.73       1.6002685     0.010030291
      5541.27       1.5899135     0.010008893
      5546.81       1.5862464    0.0099888655
      5552.36       1.5762644    0.0099696122
      5557.91       1.5622265    0.0098653915
      5563.47       1.5540493    0.0098484558
      5569.04       1.5472361    0.0098320378
      5574.60       1.5280958    0.0098170234
      5580.18       1.4787153    0.0098024520
      5585.76       1.4266657    0.0097892127
      5591.35       1.3670697    0.0097764864
      5596.94       1.3165832    0.0097606139
      5602.53       1.2573745    0.0097480780
      5608.14       1.1955498    0.0097362377
      5613.75       1.1359770    0.0097255879
      5619.36       1.0921013    0.0097154284
      5624.98       1.0622679    0.0097064173
      5630.60       1.0304386    0.0096978559
      5636.23      0.99400596    0.0096905801
      5641.87      0.96972037    0.0096837104
      5647.51      0.94357504    0.0095939242
      5653.16      0.93966801    0.0095873957
      5658.82      0.95258751    0.0095817496
      5664.47      0.96602489    0.0095769745
      5670.14      0.98139716    0.0095727791
      5675.81      0.98395856    0.0095695620
      5681.48      0.96208566    0.0095668678
      5687.17      0.95365350    0.0095652664
      5692.85      0.94854917    0.0095639092
      5698.55      0.92888855    0.0095636770
      5704.25      0.92953275    0.0094812476
      5709.95      0.92578561    0.0094821954
      5715.66      0.91471193    0.0094837918
      5721.38      0.91028756    0.0094860001
      5727.10      0.91395253    0.0095689591
      5732.83      0.91638327    0.0095718395
      5738.56      0.91404942    0.0095758148
      5744.30      0.90512546    0.0095800261
      5750.04      0.90835248    0.0095854601
      5755.79      0.89324655    0.0095917840
      5761.55      0.88873418    0.0095228297
      5767.31      0.88114840    0.0095312113
      5773.08      0.88586746    0.0095401297
      5778.85      0.88047970    0.0095500716
      5784.63      0.87050224    0.0095621483
      5790.41      0.86205697    0.0095776232
      5796.21      0.86930600    0.0095961899
      5802.00      0.87824710    0.0096160827
      5807.81      0.88241627    0.0096367221
      5813.61      0.91109853    0.0096594515
      5819.43      0.90803184    0.0096829473
      5825.25      0.94677101    0.0096183592
      5831.07      0.99084894    0.0096376835
      5836.90       1.0404788    0.0096560486
      5842.74       1.0891732    0.0096736484
      5848.58       1.1538549    0.0096902838
      5854.43       1.2151498    0.0097058680
      5860.29       1.2723606    0.0097211732
      5866.15       1.3169600    0.0097376142
      5872.01       1.3694160    0.0097551342
      5877.89       1.4181677    0.0097731303
      5883.76       1.4454024    0.0097904789
      5889.65       1.4737110    0.0098889576
      5895.54       1.4929067    0.0098285446
      5901.43       1.5022130    0.0098451360
      5907.34       1.5107911    0.0098621768
      5913.24       1.5254538    0.0098782868
      5919.16       1.5132318    0.0098945149
      5925.08       1.5039833    0.0099136095
      5931.00       1.4942758    0.0099348353
      5936.93       1.5089646    0.0099557732
      5942.87       1.4934943    0.0099765322
      5948.81       1.4900502    0.0099993967
      5954.76       1.4841881    0.0099490936
      5960.72       1.4722884    0.0099743383
      5966.68       1.4552431     0.010000526
      5972.64       1.4416806     0.010027681
      5978.62       1.4237510     0.010056054
      5984.60       1.4096247     0.010085326
      5990.58       1.3944521     0.010115169
      5996.57       1.3571556     0.010145754
      6002.57       1.3417002     0.010103939
      6008.57       1.3231571     0.010136223
      6014.58       1.3057089     0.010258371
      6020.60       1.2879579     0.010290741
      6026.62       1.2698090     0.010323825
      6032.65       1.2592469     0.010357649
      6038.68       1.2567447     0.010392129
      6044.72       1.2512185     0.010353112
      6050.76       1.2453196     0.010389003
      6056.81       1.2389764     0.010425825
      6062.87       1.2272057     0.010463250
      6068.93       1.2125314     0.010501679
      6075.00       1.2098835     0.010629873
      6081.08       1.2226877     0.010592519
      6087.16       1.2301533     0.010631465
      6093.25       1.2329982     0.010671392
      6099.34       1.2403464     0.010712081
      6105.44       1.2480788     0.010753625
      6111.54       1.2459003     0.010717460
      6117.66       1.2484804     0.010758244
      6123.78       1.2409122     0.010895260
      6129.90       1.2513576     0.010938301
      6136.03       1.2604447     0.010982918
      6142.17       1.2949705     0.010954052
      6148.31       1.3174655     0.011002091
      6154.46       1.3376666     0.011046142
      6160.61       1.3714647     0.011090896
      6166.77       1.4208276     0.011241278
      6172.94       1.4575324     0.011225222
      6179.11       1.4870608     0.011288480
      6185.29       1.5311806     0.011357741
      6191.48       1.5865320     0.011430738
      6197.67       1.6285357     0.011430142
      6203.87       1.6835346     0.011609131
      6210.07       1.7245465     0.011676153
      6216.28       1.7846917     0.011737278
      6222.50       1.8385184     0.011710578
      6228.72       1.8945278     0.011756797
      6234.95       1.9341432     0.011797076
      6241.19       1.9695656     0.011925458
      6247.42       2.0298311     0.011872817
      6253.67       2.0803156     0.011905572
      6259.93       2.1268675     0.011946133
      6266.19       2.1518477     0.011993208
      6272.46       2.1869330     0.012050123
      6278.73       2.2189461     0.012091760
      6285.01       2.2336560     0.012139433
      6291.29       2.2236042     0.012103194
      6297.58       2.2190481     0.012255011
      6303.88       2.1917852     0.012305589
      6310.19       2.1567147     0.012358905
      6316.50       2.1052000     0.012326107
      6322.81       2.0670428     0.012486917
      6329.14       2.0083094     0.012543469
      6335.47       1.9740407     0.012517048
      6341.80       1.9179589     0.012573736
      6348.14       1.8629064     0.012742798
      6354.49       1.8016777     0.012719775
      6360.85       1.7502369     0.012780402
      6367.21       1.7056110     0.012844648
      6373.57       1.6649374     0.012945946
      6379.95       1.6305107     0.013015593
      6386.33       1.6038296     0.013086216
      6392.72       1.5690167     0.013071898
      6399.11       1.5573197     0.013257077
      6405.51       1.5423196     0.013325241
      6411.92       1.5156650     0.013307338
      6418.32       1.4988046     0.013374281
      6424.74       1.4824874     0.013549506
      6431.17       1.4886463     0.013521632
      6437.60       1.4704624     0.013583139
      6444.04       1.4767361     0.013756628
      6450.48       1.4784007     0.013729219
      6456.94       1.4851823     0.013794804
      6463.39       1.4796083     0.013976669
      6469.85       1.4774041     0.013949885
      6476.33       1.4858168     0.014015059
      6482.80       1.4845323     0.014100866
      6489.28       1.4755351     0.014162578
      6495.77       1.4769382     0.014228888
      6502.27       1.4752006     0.014197972
      6508.77       1.4650736     0.014382045
      6515.28       1.4620976     0.014349371
      6521.80       1.4654463     0.014533734
      6528.32       1.4664814     0.014601901
      6534.85       1.4660638     0.014574022
      6541.38       1.4666133     0.014767016
      6547.92       1.4508291     0.014742874
      6554.47       1.4404123     0.014812195
      6561.03       1.4267300     0.014916203
      6567.59       1.4120317     0.014984593
      6574.16       1.3941654     0.015056089
      6580.73       1.3705342     0.015159566
      6587.31       1.3527368     0.015230884
      6593.90       1.3295802     0.015209707
      6600.50       1.3058626     0.015408530
      6607.10       1.2801584     0.015385655
      6613.70       1.2504959     0.015588291
      6620.32       1.2280105     0.015563866
      6626.94       1.2020693     0.015640534
      6633.57       1.1858709     0.015843570
      6640.20       1.1714477     0.015820682
      6646.84       1.1507697     0.016027131
      6653.49       1.1325714     0.016002824
      6660.14       1.1241666     0.016082723
      6666.80       1.0960663     0.016186822
      6673.47       1.0708420     0.016266656
      6680.14       1.0450869     0.016372765
      6686.82       1.0319032     0.016452605
      6693.51       1.0000264     0.016560289
      6700.20      0.98349682     0.016640030
      6706.90      0.95336592     0.016612441
      6713.61      0.94309151     0.016832429
      6720.32      0.90733677     0.016832627
      6727.05      0.89152848     0.017107109
      6733.77      0.88145764     0.017096085
      6740.51      0.85304650     0.017309452
      6747.25      0.82892811     0.017306999
      6754.00      0.80461800     0.017624133
      6760.75      0.78671795     0.017767824
      6767.51      0.75618211     0.017953669
      6774.28      0.73079114     0.018451257
      6781.05      0.71999952     0.018693680
      6787.84      0.71864873     0.019231576
      6794.62      0.68890557     0.019424684
      6801.42      0.67523528     0.019869656
      6808.22      0.65314582     0.019900571
      6815.03      0.65756717     0.020142358
      6821.85      0.65397495     0.019982554
      6828.67      0.65984562     0.019880317
      6835.50      0.66589101     0.019767593
      6842.33      0.67950526     0.019623860
      6849.17      0.67682361     0.019562718
      6856.02      0.70533166     0.019568325
      6862.88      0.70673772     0.019555308
      6869.74      0.70427429     0.019500305
      6876.61      0.70906856     0.019377097
      6883.49      0.70293380     0.019548218
      6890.37      0.69721939     0.019456801
      6897.27      0.68682099     0.019640920
      6904.16      0.68763077     0.019572255
      6911.07      0.69044159     0.019669948
      6917.98      0.69959940     0.019901094
      6924.89      0.69715711     0.019863934
      6931.82      0.70537984     0.020106219
      6938.75      0.72460351     0.020058984
      6945.69      0.74727495     0.020165153
      6952.64      0.76736359     0.020227888
      6959.59      0.78032312     0.020321401
      6966.55      0.79958682     0.020266363
      6973.52      0.81664949     0.020493342
      6980.49      0.83022111     0.020599880
      6987.47      0.85094799     0.020543863
      6994.46      0.86331454     0.020775299
      7001.46      0.88499087     0.020727486
      7008.46      0.89113256     0.020840949
      7015.46      0.90048069     0.021090348
      7022.48      0.90952008     0.021070208
      7029.51      0.91992191     0.021215106
      7036.53      0.91781564     0.021325304
      7043.57      0.90719640     0.021480726
      7050.62      0.90392835     0.021665599
      7057.66      0.88062748     0.021828842
      7064.72      0.85954987     0.022099361
      7071.79      0.84488700     0.022260501
      7078.86      0.83885353     0.022743783
      7085.94      0.82470922     0.023157496
      7093.03      0.82086285     0.023325266
      7100.12      0.81827858     0.023775413
      7107.22      0.81346465     0.024038377
      7114.33      0.81290666     0.024036572
      7121.44      0.81802144     0.024194196
      7128.56      0.82123199     0.024455573
      7135.69      0.83701371     0.024339098
      7142.83      0.84068180     0.024412974
      7149.97      0.87618319     0.024339372
      7157.12      0.88934895     0.024621138
      7164.28      0.89643011     0.024791293
      7171.44      0.89572050     0.024757478
      7178.62      0.91041125     0.025062443
      7185.80      0.92007662     0.025171954
      7192.98      0.93327847     0.025226546
      7200.17      0.94218672     0.025070595
      7207.38      0.96989188     0.025085464
      7214.58       1.0073584     0.025278706
      7221.80       1.0413025     0.025129669
      7229.02       1.0899514     0.025127536
      7236.25       1.1215519     0.025109102
      7243.49       1.1571644     0.025096447
      7250.73       1.1947315     0.025088985
      7257.98       1.2292798     0.025104661
      7265.24       1.2755457     0.025135056
      7272.51       1.3150794     0.025006818
      7279.78       1.3411594     0.025229211
      7287.06       1.3845859     0.025307313
      7294.35       1.4027519     0.025214662
      7301.64       1.4273986     0.025300967
      7308.94       1.4465448     0.025383227
      7316.25       1.4613566     0.025623387
      7323.57       1.4716449     0.025529928
      7330.89       1.4876944     0.025628240
      7338.22       1.4746459     0.025735724
      7345.56       1.4746370     0.025848870
      7352.91       1.4681234     0.025776859
      7360.26       1.4421169     0.026040870
      7367.62       1.4074982     0.026160086
      7374.99       1.3707394     0.026284686
      7382.37       1.3300123     0.026411041
      7389.75       1.2858966     0.026346013
      7397.14       1.2405007     0.026471900
      7404.53       1.1955841     0.026600667
      7411.94       1.1541642     0.026885238
      7419.35       1.1151381     0.027017956
      7426.77       1.0650998     0.026978511
      7434.20       1.0270650     0.027240104
      7441.63      0.99849037     0.027668222
      7449.07      0.97454285     0.028067469
      7456.52      0.94988934     0.028166701
      7463.98      0.94436087     0.028041006
      7471.45      0.92907989     0.028616943
      7478.92      0.90986829     0.029612290
      7486.40      0.90184527     0.030918978
      7493.88      0.88605683     0.032715377
      7501.38      0.86291409     0.034906249
      7508.88      0.85293990     0.036873021
      7516.39      0.84585311     0.039370397
      7523.91      0.79413358     0.041678066
      7531.43      0.77502539     0.043386590
      7538.96      0.75766769     0.044095629
      7546.50      0.75054591     0.043639770
      7554.05      0.74960073     0.042196297
      7561.60      0.73790903     0.040219112
      7569.16      0.71649199     0.038088316
      7576.73      0.71867422     0.036064062
      7584.31      0.70227037     0.034454971
      7591.89      0.69449550     0.033259926
      7599.49      0.67332799     0.032232785
      7607.09      0.67556213     0.031503837
      7614.70      0.67884484     0.031156170
      7622.31      0.67376237     0.031174550
      7629.93      0.67302954     0.030801923
      7637.56      0.69347673     0.030659773
      7645.20      0.71815090     0.030586897
      7652.85      0.72728532     0.030577664
      7660.50      0.75554702     0.030618203
      7668.16      0.76920123     0.030694575
      7675.83      0.82979596     0.030793012
      7683.50      0.88104635     0.030903767
      7691.19      0.93974141     0.030846416
      7698.88       1.0028276     0.030970496
      7706.58       1.0620344     0.031098766
      7714.29       1.1032640     0.031226816
      7722.00       1.1670143     0.031355767
      7729.73       1.2262172     0.031486445
      7737.45       1.2797126     0.031616451
      7745.19       1.3204362     0.031748249
      7752.94       1.3685774     0.031885183
      7760.69       1.4104772     0.031808145
      7768.45       1.4333052     0.031953508
      7776.22       1.4716222     0.032103622
      7784.00       1.4883054     0.032260592
      7791.78       1.4813218     0.032421580
      7799.57       1.4688367     0.032576902
      7807.37       1.4597179     0.032718410
      7815.18       1.4217918     0.032851495
      7822.99       1.4002053     0.032981571
      7830.82       1.3469441     0.032916853
      7838.65       1.2898827     0.033040256
      7846.49       1.2325235     0.033161124
      7854.34       1.1689484     0.033282316
      7862.19       1.1048203     0.033633280
      7870.05       1.0756718     0.033764284
      7877.93       1.0380503     0.033900305
      7885.80      0.99144586     0.034034510
      7893.69      0.95114616     0.034168579
      7901.58      0.91706199     0.034115694
      7909.49      0.89654111     0.034241818
      7917.40      0.85904253     0.034360105
      7925.31      0.83684240     0.034474393
      7933.24      0.79877367     0.034591625
      7941.17      0.78070143     0.034712892
      7949.11      0.77353254     0.034830710
      7957.06      0.74630122     0.034758593
      7965.02      0.72314252     0.034888454
      7972.98      0.70066558     0.035030755
      7980.96      0.68119606     0.035192673
      7988.94      0.65317301     0.035384274
      7996.93      0.62613873     0.035834701
      8004.93      0.61824559     0.035913259
      8012.93      0.60890285     0.036225560
      8020.95      0.60204782     0.036599242
      8028.97      0.58502078     0.037023617
      8036.99      0.56365817     0.037477592
      8045.03      0.54408533     0.037818222
      8053.08      0.52750169     0.038330866
      8061.13      0.50607293     0.038770586
      8069.20      0.48049422     0.039343446
      8077.26      0.46621213     0.039520296
      8085.34      0.45985198     0.039443907
      8093.43      0.43814479     0.039556372
      8101.52      0.41367370     0.039638150
      8109.62      0.36312034     0.039689576
      8117.73      0.32061919     0.039486388
      8125.85      0.29183617     0.039723470
      8133.98      0.28578316     0.039739797
      8142.11      0.26068955     0.039789344
      8150.25      0.26543079     0.039613967
      8158.41      0.26615300     0.039636026
      8166.56      0.27904186     0.039885729
      8174.73      0.25961663     0.039873870
      8182.91      0.26692800     0.039629847
      8191.09      0.30195809     0.039613570
      8199.28      0.32182424     0.039650446
      8207.48      0.34325091     0.039528165
      8215.69      0.35255856     0.039369728
      8223.91      0.35385669     0.038881625
      8232.13      0.38909244     0.038563895
      8240.36      0.41235209     0.038071088
      8248.60      0.43543616     0.037825578
      8256.85      0.44819235     0.037399684
      8265.11      0.42992500     0.037195788
      8273.37      0.42831375     0.037021398
      8281.65      0.43675503     0.036837779
      8289.93      0.43404451     0.036669097
      8298.22      0.44319276     0.036332205
      8306.52      0.43636503     0.036191658
      8314.83      0.43695786     0.036076401
      8323.14      0.44985372     0.035791894
      8331.46      0.45987873     0.035683530
      8339.80      0.45636143     0.035586824
      8348.13      0.47587676     0.035329106
      8356.48      0.47162786     0.035246295
      8364.84      0.48302388     0.035007202
      8373.21      0.48383079     0.034803106
      8381.58      0.47161111     0.034740918
      8389.96      0.48914927     0.034522461
      8398.35      0.50442163     0.034468107
      8406.75      0.51098212     0.034413886
      8415.16      0.58403671     0.034207781
      8423.57      0.62929713     0.034157436
      8432.00      0.69322578     0.034105575
      8440.43      0.73659282     0.033906763
      8448.87      0.81446918     0.033855381
      8457.32      0.90079738     0.033659800
      8465.78       1.0000032     0.033610046
      8474.25       1.1096237     0.033556144
      8482.72       1.2796489     0.033253740
      8491.20       1.4137827     0.033207967
      8499.69       1.5484986     0.033164339
      8508.19       1.6907877     0.032992116
      8516.70       1.8271268     0.032951730
      8525.22       1.9251083     0.032914287
      8533.75       2.0535001     0.032751141
      8542.28       2.1948010     0.032606758
      8550.82       2.3264814     0.032570942
      8559.37       2.4478311     0.032412700
      8567.93       2.5901032     0.032379323
      8576.50       2.7121407     0.032344865
      8585.08       2.8028896     0.032310900
      8593.66       2.8384876     0.032060642
      8602.26       2.9085239     0.032025854
      8610.86       2.9684801     0.031992680
      8619.47       3.0156752     0.032244827
      8628.09       3.0646347     0.032771233
      8636.72       3.1082771     0.033380837
      8645.36       3.1374552     0.034059898
      8654.00       3.1607425     0.034945311
      8662.66       3.1628183     0.036025161
      8671.32       3.1553765     0.037365761
      8679.99       3.1468183     0.038841736
      8688.67       3.1255106     0.040979222
      8697.36       3.0801812     0.043753025
      8706.06       3.0505745     0.047852598
      8714.76       3.0022407     0.052724098
      8723.48       2.9806292     0.059046714
      8732.21       2.9494445     0.067188313
      8740.93       2.9127092     0.076293571
      8749.68       2.8840900     0.089177243
      8758.43       2.7899554      0.10552441
