# starting wavelength =        3373.8700
# ending wavelength =        7169.5700
# O2 telluric scale =        0
# O2 telluric shift =        0
# H2O telluric scale =        0
# H2O telluric shift =        0
      3375.18      0.66575637     0.088665534
      3378.56      0.70344444     0.075144824
      3381.94      0.70560173     0.064405845
      3385.32      0.70750245     0.055930870
      3388.70      0.71652657     0.050527086
      3392.09      0.72858803     0.045119819
      3395.48      0.73901111     0.040905913
      3398.88      0.75126301     0.037634317
      3402.28      0.73904471     0.034653503
      3405.68      0.72030221     0.032780823
      3409.09      0.72712202     0.031311357
      3412.49      0.74403155     0.030149059
      3415.91      0.72996612     0.029216470
      3419.32      0.72735665     0.028421855
      3422.74      0.74783098     0.027748505
      3426.17      0.75642824     0.027182934
      3429.59      0.76410066     0.026701939
      3433.02      0.75604433     0.026119876
      3436.45      0.76837036     0.025767042
      3439.89      0.77627529     0.025816451
      3443.33      0.79925822     0.025736647
      3446.78      0.79202585     0.025625609
      3450.22      0.77713697     0.025676037
      3453.67      0.78003272     0.025598319
      3457.13      0.77448350     0.025649200
      3460.58      0.78673752     0.025406975
      3464.04      0.79089936     0.025458629
      3467.51      0.78063975     0.025512802
      3470.98      0.77935001     0.025436445
      3474.45      0.77444774     0.025322021
      3477.92      0.77751052     0.025245241
      3481.40      0.79326027     0.025297995
      3484.88      0.79767613     0.025356645
      3488.37      0.78918506     0.025108606
      3491.86      0.77975504     0.025165926
      3495.35      0.77858105     0.025223749
      3498.84      0.76712551     0.025144334
      3502.34      0.76872086     0.025034762
      3505.84      0.77432219     0.025093725
      3509.35      0.77420208     0.025018150
      3512.86      0.76919821     0.024904529
      3516.37      0.75608584     0.024967534
      3519.89      0.74217648     0.024886250
      3523.41      0.73499866     0.024952037
      3526.93      0.75926679     0.024839666
      3530.46      0.76039232     0.024763120
      3533.99      0.75385059     0.024824447
      3537.53      0.76668521     0.024719168
      3541.06      0.77294819     0.024636613
      3544.60      0.77625086     0.024704304
      3548.15      0.78460606     0.024770333
      3551.70      0.79487350     0.024516731
      3555.25      0.79966564     0.024582056
      3558.80      0.79691629     0.024653379
      3562.36      0.80352047     0.024394919
      3565.92      0.81198314     0.024465702
      3569.49      0.81994760     0.024534726
      3573.06      0.81613075     0.024430740
      3576.64      0.82803096     0.024347331
      3580.21      0.82602426     0.024422750
      3583.79      0.83402150     0.024312329
      3587.38      0.85450253     0.024236293
      3590.96      0.85175752     0.024307664
      3594.55      0.85577967     0.024203039
      3598.15      0.84995177     0.024276899
      3601.75      0.85593827     0.024201911
      3605.35      0.85209061     0.024090486
      3608.96      0.84298155     0.024170132
      3612.56      0.84592685     0.024250445
      3616.18      0.84366318     0.023983676
      3619.79      0.84139342     0.024063772
      3623.41      0.84609369     0.024146023
      3627.04      0.86617314     0.024043996
      3630.66      0.86333469     0.023959226
      3634.29      0.87110585     0.024047694
      3637.93      0.87084317     0.023937623
      3641.57      0.87099929     0.024027073
      3645.21      0.86795540     0.023944927
      3648.86      0.86670326     0.023839427
      3652.50      0.87249472     0.023929538
      3656.16      0.86888267     0.024020813
      3659.81      0.86737324     0.023744880
      3663.47      0.87854852     0.023833172
      3667.14      0.87377479     0.023933751
      3670.80      0.88562914     0.023822640
      3674.48      0.88494392     0.023920874
      3678.15      0.90136131     0.023840438
      3681.83      0.90385142     0.023732785
      3685.51      0.90178101     0.023837014
      3689.20      0.90336436     0.023727505
      3692.88      0.89997957     0.023831682
      3696.58      0.89270071     0.023938651
      3700.27      0.89413565     0.023642856
      3703.98      0.89553103     0.023753200
      3707.68      0.90695602     0.023858267
      3711.39      0.90132307     0.023753987
      3715.10      0.89045664     0.023866982
      3718.81      0.89307018     0.023759724
      3722.53      0.88263998     0.023682071
      3726.26      0.87615312     0.023793102
      3729.98      0.87947972     0.023687366
      3733.71      0.87198943     0.023809767
      3737.45      0.87863621     0.023700539
      3741.18      0.87829295     0.023827201
      3744.93      0.88377906     0.023741600
      3748.67      0.89078417     0.023634620
      3752.42      0.88758831     0.023767951
      3756.17      0.89621451     0.023656290
      3759.93      0.89621773     0.023786965
      3763.69      0.90297062     0.023471343
      3767.45      0.92142092     0.023362018
      3771.22      0.92644249     0.023291241
      3774.99      0.93940414     0.023178131
      3778.77      0.94163781     0.023070822
      3782.54      0.94172025     0.022999900
      3786.33      0.93884921     0.022888524
      3790.11      0.94821902     0.022783437
      3793.90      0.96075218     0.022481243
      3797.70      0.95571156     0.022602773
      3801.50      0.94141791     0.022298685
      3805.30      0.94065731     0.022199890
      3809.10      0.93787603     0.022320432
      3812.91      0.93381548     0.022019176
      3816.73      0.92468429     0.021920780
      3820.54      0.91110318     0.022040544
      3824.36      0.90025343     0.021742739
      3828.19      0.90012932     0.021645419
      3832.02      0.89839650     0.021551635
      3835.85      0.91450385     0.021469692
      3839.68      0.92952687     0.021372113
      3843.52      0.93687392     0.021278268
      3847.37      0.94611109     0.020997252
      3851.22      0.94161461     0.021102790
      3855.07      0.94121760     0.021008183
      3858.92      0.95025155     0.020733640
      3862.78      0.96240288     0.020836083
      3866.64      0.97133100     0.020741828
      3870.51      0.95596329     0.020650805
      3874.38      0.95237686     0.020376403
      3878.26      0.95498946     0.020478759
      3882.13      0.94981133     0.020386526
      3886.02      0.95142773     0.020121086
      3889.90      0.93298783     0.020025879
      3893.79      0.93061468     0.020127013
      3897.69      0.93483948     0.019869532
      3901.59      0.92111103     0.019773763
      3905.49      0.91461702     0.019681137
      3909.39      0.91771366     0.019590683
      3913.30      0.90234514     0.019527229
      3917.22      0.91035401     0.019432892
      3921.13      0.90671898     0.019341504
      3925.06      0.90533718     0.019088564
      3928.98      0.90283272     0.019190735
      3932.91      0.90914518     0.019098392
      3936.84      0.91516660     0.019007790
      3940.78      0.92136630     0.018758650
      3944.72      0.91436198     0.018673556
      3948.67      0.92028918     0.018769373
      3952.61      0.91167828     0.018680304
      3956.57      0.90423210     0.018434171
      3960.52      0.91511751     0.018349673
      3964.48      0.91085213     0.018266985
      3968.45      0.91266824     0.018358282
      3972.42      0.91935798     0.018116125
      3976.39      0.92381427     0.018031641
      3980.37      0.92577318     0.017949302
      3984.35      0.92365673     0.017868081
      3988.33      0.92493728     0.017788616
      3992.32      0.92928889     0.017719803
      3996.31      0.92929032     0.017637111
      4000.31      0.93707479     0.017556131
      4004.31      0.93807678     0.017476651
      4008.31      0.95656846     0.017252673
      4012.32      0.96449375     0.017171210
      4016.33      0.96727280     0.017251055
      4020.35      0.97075439     0.017171556
      4024.37      0.97304972     0.017093300
      4028.40      0.97267231     0.016876968
      4032.42      0.96948782     0.016796847
      4036.46      0.96294485     0.016717527
      4040.50      0.95576952     0.016639529
      4044.54      0.95017148     0.016562796
      4048.58      0.95891909     0.016510779
      4052.63      0.96511868     0.016431509
      4056.68      0.95965701     0.016353453
      4060.74      0.95160474     0.016276268
      4064.80      0.94386549     0.016200298
      4068.86      0.95756779     0.016124829
      4072.93      0.97620494     0.015918994
      4077.01      0.98827809     0.015846141
      4081.08      0.99747749     0.015923594
      4085.17       1.0162729     0.015848380
      4089.25       1.0156175     0.015773617
      4093.34       1.0189233     0.015699685
      4097.43       1.0340860     0.015498732
      4101.53       1.0178556     0.015426898
      4105.63       1.0218669     0.015355968
      4109.74       1.0181330     0.015285778
      4113.85       1.0133730     0.015216062
      4117.96       1.0087119     0.015146811
      4122.08       1.0040146     0.015078186
      4126.20      0.99883795     0.015010347
      4130.33      0.99625394     0.014952141
      4134.46      0.97767528     0.014882745
      4138.59      0.96412032     0.014813811
      4142.73      0.96147569     0.014745545
      4146.88      0.97167822     0.014677902
      4151.02      0.96487794     0.014610815
      4155.18      0.95637422     0.014544127
      4159.33      0.95012123     0.014477922
      4163.49      0.94794585     0.014298463
      4167.65      0.93797952     0.014232048
      4171.82      0.93816905     0.014166125
      4175.99      0.93388459     0.014100618
      4180.17      0.90942338     0.014035628
      4184.35      0.91427898     0.013970742
      4188.54      0.91663591     0.013906587
      4192.72      0.90870987     0.013842749
      4196.92      0.89553530     0.013779333
      4201.11      0.89692686     0.013716413
      4205.31      0.89927640     0.013653768
      4209.52      0.91299455     0.013484343
      4213.73      0.91930384     0.013422854
      4217.94      0.93443974     0.013361813
      4222.16      0.94403032     0.013301340
      4226.38      0.94965103     0.013240836
      4230.61      0.95922043     0.013180892
      4234.84      0.96289337     0.013121433
      4239.08      0.96924081     0.013061830
      4243.32      0.97735893     0.013002743
      4247.56      0.98919648     0.012944125
      4251.81       1.0014985     0.012885473
      4256.06       1.0071767     0.012827329
      4260.32       1.0030420     0.012769496
      4264.58       1.0110541     0.012711968
      4268.84       1.0125025     0.012655008
      4273.11       1.0041824     0.012597987
      4277.38       1.0019336     0.012541470
      4281.66       1.0154123     0.012485224
      4285.94       1.0315670     0.012428979
      4290.23       1.0481906     0.012373257
      4294.52       1.0539602     0.012318047
      4298.81       1.0646272     0.012262870
      4303.11       1.0733703     0.012207982
      4307.42       1.0862267     0.012153620
      4311.72       1.0983735     0.012099284
      4316.04       1.1084552     0.012045554
      4320.35       1.1228011     0.011992191
      4324.67       1.1447240     0.011938840
      4329.00       1.1697080     0.011782778
      4333.33       1.1868586     0.011730890
      4337.66       1.1997017     0.011679095
      4342.00       1.2048892     0.011627877
      4346.34       1.2160901     0.011576935
      4350.69       1.2142022     0.011526242
      4355.04       1.2201839     0.011476077
      4359.39       1.2310628     0.011426095
      4363.75       1.2415486     0.011376659
      4368.12       1.2478649     0.011327821
      4372.48       1.2465488     0.011278876
      4376.86       1.2494535     0.011132333
      4381.23       1.2545545     0.011083657
      4385.61       1.2591590     0.011035434
      4390.00       1.2605597     0.010987580
      4394.39       1.2667951     0.010940273
      4398.79       1.2768367     0.010893150
      4403.18       1.2845472     0.010846508
      4407.59       1.2957295     0.010800413
      4412.00       1.2974812     0.010754540
      4416.41       1.3062180     0.010700755
      4420.82       1.3073947     0.010654529
      4425.25       1.3132810     0.010608564
      4429.67       1.3134443     0.010563199
      4434.10       1.2993241     0.010518269
      4438.54       1.2980352     0.010473897
      4442.97       1.2946110     0.010429998
      4447.42       1.2802903     0.010299309
      4451.86       1.2683907     0.010256812
      4456.32       1.2529354     0.010214879
      4460.77       1.2357075     0.010173272
      4465.24       1.2200655     0.010205724
      4469.70       1.2206855     0.010163182
      4474.17       1.2123929     0.010036237
      4478.65       1.2088654    0.0099951985
      4483.12       1.2013513    0.0099546812
      4487.61       1.1994774    0.0099147783
      4492.09       1.1951019    0.0098754682
      4496.59       1.1931293    0.0097512878
      4501.08       1.2000884    0.0097113764
      4505.58       1.2057883    0.0097449424
      4510.09       1.2070311    0.0097061041
      4514.60       1.1966008    0.0096680539
      4519.12       1.1837098    0.0095489298
      4523.63       1.1886067    0.0095103057
      4528.16       1.1863368    0.0094722867
      4532.69       1.1714899    0.0094350858
      4537.22       1.1611735    0.0094691134
      4541.76       1.1557496    0.0093540781
      4546.30       1.1475620    0.0093165356
      4550.85       1.1485071    0.0092798473
      4555.40       1.1528517    0.0092438404
      4559.95       1.1434064    0.0091339202
      4564.51       1.1377139    0.0091661615
      4569.08       1.1366849    0.0091300074
      4573.65       1.1348881    0.0090946150
      4578.22       1.1330232    0.0089866667
      4582.80       1.1425301    0.0089532932
      4587.38       1.1547431    0.0089849502
      4591.97       1.1508710    0.0089505074
      4596.56       1.1421216    0.0088447301
      4601.16       1.1349778    0.0088120772
      4605.76       1.1355854    0.0087805654
      4610.37       1.1395874    0.0088111263
      4614.98       1.1403422    0.0087074274
      4619.59       1.1377469    0.0086758397
      4624.21       1.1385085    0.0086454367
      4628.84       1.1463682    0.0086156967
      4633.47       1.1466798    0.0085747399
      4638.10       1.1437091    0.0085443124
      4642.74       1.1473918    0.0085148545
      4647.38       1.1521366    0.0084151051
      4652.03       1.1553347    0.0084466738
      4656.68       1.1604888    0.0084175951
      4661.34       1.1591126    0.0083209344
      4666.00       1.1605387    0.0082912187
      4670.67       1.1671768    0.0083232763
      4675.33       1.1620252    0.0082294191
      4680.01       1.1497543    0.0082000016
      4684.69       1.1471264    0.0081717629
      4689.38       1.1400318    0.0082044610
      4694.07       1.1390172    0.0081114492
      4698.76       1.1382421    0.0080835584
      4703.46       1.1386033    0.0080569626
      4708.16       1.1350512    0.0080255779
      4712.87       1.1281827    0.0079981968
      4717.58       1.1258936    0.0079099556
      4722.30       1.1221330    0.0078852423
      4727.03       1.1199825    0.0079152791
      4731.75       1.1247587    0.0078283891
      4736.48       1.1275766    0.0078043815
      4741.22       1.1285338    0.0078347250
      4745.96       1.1194451    0.0077491442
      4750.71       1.1108820    0.0077257998
      4755.46       1.1028880    0.0077565243
      4760.22       1.0975705    0.0076724145
      4764.97       1.0913326    0.0076498795
      4769.74       1.0877709    0.0075667536
      4774.51       1.0820190    0.0075981541
      4779.29       1.0717697    0.0075765769
      4784.07       1.0672182    0.0074944729
      4788.85       1.0590101    0.0075264471
      4793.64       1.0535774    0.0074467917
      4798.43       1.0451589    0.0074246444
      4803.23       1.0358365    0.0074570931
      4808.03       1.0391856    0.0073782385
      4812.84       1.0389142    0.0073570949
      4817.66       1.0468868    0.0073333620
      4822.48       1.0515830    0.0073118883
      4827.30       1.0594746    0.0073446054
      4832.12       1.0594321    0.0072682761
      4836.96       1.0570191    0.0072481498
      4841.79       1.0600661    0.0072259753
      4846.63       1.0605067    0.0072056668
      4851.48       1.0611509    0.0071331866
      4856.33       1.0633442    0.0071646092
      4861.19       1.0653540    0.0070923031
      4866.05       1.0644736    0.0071247177
      4870.92       1.0597719    0.0071056762
      4875.79       1.0587792    0.0070355786
      4880.66       1.0544103    0.0070670396
      4885.55       1.0548075    0.0069971555
      4890.43       1.0513261    0.0070294051
      4895.32       1.0569489    0.0069599093
      4900.22       1.0650822    0.0069444424
      4905.12       1.0701107    0.0069238267
      4910.02       1.0785733    0.0069083126
      4914.94       1.0817089    0.0068888112
      4919.85       1.0946063    0.0068735262
      4924.77       1.1076575    0.0068066614
      4929.70       1.1170146    0.0068396131
      4934.62       1.1365750    0.0067739497
      4939.56       1.1507452    0.0068069644
      4944.50       1.1717252    0.0067421371
      4949.44       1.1851040    0.0067751403
      4954.39       1.1954384    0.0067112631
      4959.35       1.2056873    0.0066969050
      4964.31       1.2074822    0.0066812843
      4969.27       1.2110639    0.0066671231
      4974.24       1.2072246    0.0066522381
      4979.22       1.2085791    0.0066385528
      4984.20       1.2050240    0.0066240069
      4989.18       1.2068028    0.0066106965
      4994.17       1.2028647    0.0065968354
      4999.16       1.2051906    0.0065840303
      5004.16       1.2029886    0.0065704173
      5009.17       1.2055180    0.0065112024
      5014.18       1.2175232    0.0065449553
      5019.19       1.2280302    0.0064866346
      5024.21       1.2325902    0.0065202809
      5029.23       1.2482969    0.0064626175
      5034.26       1.2612115    0.0064964214
      5039.30       1.2685812    0.0064397396
      5044.34       1.2683249    0.0064275116
      5049.39       1.2721542    0.0064176341
      5054.43       1.2764302    0.0064056114
      5059.49       1.2762122    0.0063966651
      5064.55       1.2809749    0.0063848313
      5069.61       1.2831911    0.0063302412
      5074.68       1.2893762    0.0063648546
      5079.76       1.2934236    0.0063105809
      5084.84       1.2928019    0.0063459386
      5089.92       1.2982211    0.0062916656
      5095.01       1.3012400    0.0062830206
      5100.11       1.2958804    0.0062738148
      5105.21       1.2985428    0.0062650756
      5110.31       1.2975713    0.0063007832
      5115.42       1.2969253    0.0062481346
      5120.54       1.2967786    0.0062407771
      5125.66       1.2965152    0.0062322166
      5130.79       1.2991646    0.0062246817
      5135.92       1.3008372    0.0061747207
      5141.05       1.3023369    0.0062096619
      5146.20       1.2986849    0.0062031771
      5151.34       1.3042025    0.0061532673
      5156.49       1.3156041    0.0061889750
      5161.65       1.3277705    0.0061406079
      5166.81       1.3337427    0.0061338241
      5171.98       1.3450737    0.0061289419
      5177.15       1.3559690    0.0061220857
      5182.33       1.3581944    0.0061162486
      5187.51       1.3680343    0.0061115377
      5192.70       1.3697258    0.0061054215
      5197.89       1.3696587    0.0061003614
      5203.09       1.3709831    0.0060959365
      5208.29       1.3677251    0.0060905177
      5213.50       1.3714688    0.0060442878
      5218.72       1.3751292    0.0060820208
      5223.93       1.3761110    0.0060773537
      5229.16       1.3724259    0.0060317188
      5234.39       1.3663279    0.0060286398
      5239.62       1.3597381    0.0060656632
      5244.86       1.3493495    0.0060205344
      5250.11       1.3480832    0.0060179375
      5255.36       1.3506790    0.0060557038
      5260.61       1.3506139    0.0060110490
      5265.87       1.3446002    0.0060088363
      5271.14       1.3445422    0.0060073259
      5276.41       1.3427494    0.0060031179
      5281.69       1.3392743    0.0060012798
      5286.97       1.3395791    0.0060000698
      5292.26       1.3369121    0.0059574004
      5297.55       1.3346733    0.0059950897
      5302.85       1.3341117    0.0059941335
      5308.15       1.3351041    0.0059527853
      5313.46       1.3356297    0.0059513654
      5318.77       1.3341013    0.0059896863
      5324.09       1.3292386    0.0059496488
      5329.42       1.3166928    0.0059485228
      5334.75       1.3132837    0.0059479657
      5340.08       1.3055973    0.0059478304
      5345.42       1.3059763    0.0059473486
      5350.77       1.3105647    0.0059468303
      5356.12       1.3063796    0.0059468834
      5361.48       1.2995181    0.0059070552
      5366.83       1.2867479    0.0059079401
      5372.20       1.2813662    0.0059476983
      5377.58       1.2785207    0.0059482848
      5382.95       1.2748056    0.0059089313
      5388.34       1.2646881    0.0059103553
      5393.72       1.2543466    0.0059121568
      5399.12       1.2470960    0.0059143066
      5404.52       1.2424509    0.0059131064
      5409.92       1.2355728    0.0059148277
      5415.33       1.2252344    0.0059169494
      5420.75       1.2198978    0.0059193859
      5426.17       1.2144699    0.0058821709
      5431.60       1.2135468    0.0058842168
      5437.03       1.2134874    0.0059238651
      5442.47       1.2116504    0.0059266031
      5447.91       1.2224615    0.0059295573
      5453.36       1.2245630    0.0058933964
      5458.81       1.2135354    0.0058960135
      5464.27       1.2145869    0.0058989590
      5469.73       1.2176152    0.0059021100
      5475.20       1.2158955    0.0059055670
      5480.68       1.2162946    0.0059080657
      5486.16       1.2162255    0.0059111790
      5491.65       1.2056340    0.0059144595
      5497.14       1.1950736    0.0059180231
      5502.64       1.1931999    0.0059218489
      5508.14       1.1915172    0.0059258586
      5513.65       1.1875910    0.0058904479
      5519.16       1.1818594    0.0058948020
      5524.68       1.1801785    0.0058993119
      5530.20       1.1779837    0.0059040113
      5535.73       1.1740814    0.0059088728
      5541.27       1.1703893    0.0059138640
      5546.81       1.1697740    0.0059149113
      5552.36       1.1688384    0.0059197163
      5557.91       1.1727802    0.0059246086
      5563.47       1.1718895    0.0059296780
      5569.04       1.1765406    0.0059348561
      5574.60       1.1758277    0.0059401701
      5580.18       1.1737246    0.0059455898
      5585.76       1.1748491    0.0059511141
      5591.35       1.1717371    0.0059179946
      5596.94       1.1636734    0.0059233297
      5602.53       1.1618849    0.0059287338
      5608.14       1.1642162    0.0059343076
      5613.75       1.1573540    0.0059399579
      5619.36       1.1556851    0.0059457802
      5624.98       1.1547790    0.0059517825
      5630.60       1.1519570    0.0059581038
      5636.23       1.1481477    0.0059648612
      5641.87       1.1458580    0.0059717675
      5647.51       1.1454894    0.0059784133
      5653.16       1.1355084    0.0059458785
      5658.82       1.1266637    0.0059533103
      5664.47       1.1184868    0.0059622701
      5670.14       1.1067008    0.0059730410
      5675.81       1.1015022    0.0059847857
      5681.48       1.0910216    0.0059966889
      5687.17       1.0830492    0.0060092277
      5692.85       1.0774241    0.0060225785
      5698.55       1.0732810    0.0060351051
      5704.25       1.0661594    0.0060455067
      5709.95       1.0662196    0.0060544350
      5715.66       1.0596484    0.0060625400
      5721.38       1.0565803    0.0060698191
      5727.10       1.0562577    0.0060760560
      5732.83       1.0555739    0.0060457163
      5738.56       1.0542434    0.0060515015
      5744.30       1.0617457    0.0060577308
      5750.04       1.0684495    0.0060638279
      5755.79       1.0694091    0.0060692663
      5761.55       1.0634490    0.0060739013
      5767.31       1.0582388    0.0060779558
      5773.08       1.0553697    0.0060819113
      5778.85       1.0593137    0.0060861075
      5784.63       1.0603315    0.0060896563
      5790.41       1.0567089    0.0060923780
      5796.21       1.0601597    0.0060591326
      5802.00       1.0625773    0.0060638987
      5807.81       1.0632563    0.0060686252
      5813.61       1.0610443    0.0060725361
      5819.43       1.0576761    0.0060770195
      5825.25       1.0550294    0.0060824813
      5831.07       1.0496482    0.0060885277
      5836.90       1.0407470    0.0060949256
      5842.74       1.0346147    0.0060665015
      5848.58       1.0317365    0.0061122528
      5854.43       1.0316286    0.0061190498
      5860.29       1.0240354    0.0061258372
      5866.15       1.0147250    0.0061327031
      5872.01       1.0053854    0.0061397024
      5877.89      0.99097238    0.0061115053
      5883.76      0.98218644    0.0061187248
      5889.65      0.97295106    0.0061259961
      5895.54      0.96010404    0.0061333944
      5901.43      0.94983821    0.0061409331
      5907.34      0.94600820    0.0061484956
      5913.24      0.93733440    0.0061575306
      5919.16      0.93160764    0.0061645775
      5925.08      0.92521852    0.0061717247
      5931.00      0.91964074    0.0061789012
      5936.93      0.91538320    0.0061504619
      5942.87      0.91094115    0.0061571110
      5948.81      0.90851188    0.0061638505
      5954.76      0.90689802    0.0061706793
      5960.72      0.90641186    0.0062165819
      5966.68      0.91061791    0.0061880376
      5972.64      0.90595448    0.0061943870
      5978.62      0.90763346    0.0062008143
      5984.60      0.91044974    0.0062074409
      5990.58      0.90895714    0.0061792115
      5996.57      0.91366550    0.0062243207
      6002.57      0.91645515    0.0062306964
      6008.57      0.92180530    0.0062382318
      6014.58      0.92764686    0.0062137060
      6020.60      0.93401161    0.0062214863
      6026.62      0.93768697    0.0062274236
      6032.65      0.93824283    0.0062728909
      6038.68      0.94330273    0.0062502236
      6044.72      0.94460285    0.0062654004
      6050.76      0.94742711    0.0062836164
      6056.81      0.94923180    0.0062694854
      6062.87      0.95083853    0.0063292585
      6068.93      0.95197727    0.0063489161
      6075.00      0.95025565    0.0063310134
      6081.08      0.95365587    0.0063435593
      6087.16      0.94886169    0.0063918701
      6093.25      0.94834501    0.0063583834
      6099.34      0.95438371    0.0063565559
      6105.44      0.95488717    0.0063518754
      6111.54      0.95788022    0.0063460226
      6117.66      0.95641625    0.0063392336
      6123.78      0.95820565    0.0063356705
      6129.90      0.95879904    0.0063001412
      6136.03      0.95888245    0.0063367868
      6142.17      0.95707918    0.0063338542
      6148.31      0.95694700    0.0062978723
      6154.46      0.95701231    0.0062988871
      6160.61      0.96199622    0.0063361555
      6166.77      0.96602343    0.0063018106
      6172.94      0.96980058    0.0063038136
      6179.11      0.97778496    0.0063423769
      6185.29      0.98148147    0.0063092904
      6191.48      0.98206556    0.0063125641
      6197.67      0.99095461    0.0063172711
      6203.87      0.99444663    0.0063208969
      6210.07      0.99739461    0.0063250465
      6216.28       1.0020300    0.0062925703
      6222.50       1.0026711    0.0063343701
      6228.72       1.0018149    0.0063045655
      6234.95       1.0003000    0.0063110057
      6241.19      0.99613760    0.0063230773
      6247.42      0.99740506    0.0063301970
      6253.67      0.99618421    0.0063750352
      6259.93      0.99560345    0.0063459485
      6266.19      0.99681470    0.0063512801
      6272.46      0.99167180    0.0063590820
      6278.73      0.99712421    0.0063615341
      6285.01      0.99718065    0.0063282200
      6291.29      0.99830024    0.0063646446
      6297.58      0.99743075    0.0063286506
      6303.88      0.99559376    0.0063282551
      6310.19      0.99241558    0.0063280057
      6316.50      0.99652387    0.0063282262
      6322.81      0.99496343    0.0063295011
      6329.14      0.99017756    0.0063295691
      6335.47      0.98584129    0.0062933587
      6341.80      0.98432763    0.0063272705
      6348.14      0.98200979    0.0062895760
      6354.49      0.97886548    0.0063229465
      6360.85      0.97446501    0.0062862371
      6367.21      0.97731830    0.0063192415
      6373.57      0.97642398    0.0062806814
      6379.95      0.97416451    0.0062768580
      6386.33      0.96990370    0.0062753785
      6392.72      0.96301739    0.0062729389
      6399.11      0.96760863    0.0062724105
      6405.51      0.96874709    0.0062700613
      6411.92      0.96946552    0.0062695978
      6418.32      0.97073705    0.0062671867
      6424.74      0.96923767    0.0062661966
      6431.17      0.96826622    0.0062293892
      6437.60      0.97060433    0.0062618264
      6444.04      0.96847696    0.0062247998
      6450.48      0.96343813    0.0062568765
      6456.94      0.95999660    0.0062196379
      6463.39      0.95718101    0.0062174268
      6469.85      0.95221608    0.0062135185
      6476.33      0.94936255    0.0062101261
      6482.80      0.94716809    0.0062064766
      6489.28      0.94265847    0.0062023769
      6495.77      0.93768625    0.0061985630
      6502.27      0.93140364    0.0061936241
      6508.77      0.92717786    0.0061551230
      6515.28      0.92091996    0.0061838848
      6521.80      0.92408437    0.0061447149
      6528.32      0.92079326    0.0061398033
      6534.85      0.92009607    0.0061333479
      6541.38      0.91963967    0.0061275846
      6547.92      0.91978191    0.0061211134
      6554.47      0.92161279    0.0061143845
      6561.03      0.92044003    0.0060749340
      6567.59      0.91659551    0.0061008637
      6574.16      0.91390434    0.0061005086
      6580.73      0.91195563    0.0060844468
      6587.31      0.91257625    0.0061216449
      6593.90      0.90722718    0.0060763774
      6600.50      0.90557617    0.0060703733
      6607.10      0.89937370    0.0061218222
      6613.70      0.89263421    0.0061312436
      6620.32      0.89173930    0.0061976302
      6626.94      0.88849372    0.0062438706
      6633.57      0.88631863    0.0063570172
      6640.20      0.88161157    0.0064493605
      6646.84      0.88191689    0.0064842547
      6653.49      0.87942395    0.0065689516
      6660.14      0.87457781    0.0065470182
      6666.80      0.87561983    0.0065290594
      6673.47      0.88104567    0.0064740017
      6680.14      0.87828765    0.0064074915
      6686.82      0.87669590    0.0063126624
      6693.51      0.87711385    0.0062177632
      6700.20      0.87794143    0.0061151776
      6706.90      0.87654686    0.0060959087
      6713.61      0.87304896    0.0060441664
      6720.32      0.86935842    0.0059545023
      6727.05      0.86334857    0.0059019129
      6733.77      0.85889017    0.0058980356
      6740.51      0.85797587    0.0058338709
      6747.25      0.85574350    0.0057995476
      6754.00      0.85842154    0.0057699697
      6760.75      0.85682801    0.0057173811
      6767.51      0.85149284    0.0057270001
      6774.28      0.84835670    0.0057062171
      6781.05      0.84298935    0.0056856100
      6787.84      0.83812485    0.0056351818
      6794.62      0.84006907    0.0055841547
      6801.42      0.83511585    0.0055006339
      6808.22      0.83374379    0.0054176964
      6815.03      0.82788081    0.0053650528
      6821.85      0.82246511    0.0052864284
      6828.67      0.81703334    0.0052106657
      6835.50      0.80998023    0.0051631681
      6842.33      0.80666815    0.0050898919
      6849.17      0.80430147    0.0050194696
      6856.02      0.80003069    0.0049354037
      6862.88      0.79837439    0.0048989626
      6869.74      0.79647808    0.0048390451
      6876.61      0.79228267    0.0047784265
      6883.49      0.79116231    0.0047190105
      6890.37      0.79147425    0.0046835716
      6897.27      0.78929916    0.0046367555
      6904.16      0.78891844    0.0046046397
      6911.07      0.78646658    0.0045820579
      6917.98      0.78159183    0.0045580630
      6924.89      0.78214850    0.0045274058
      6931.82      0.78528223    0.0044950662
      6938.75      0.78653888    0.0044606618
      6945.69      0.78734182    0.0044237228
      6952.64      0.78443661    0.0043818819
      6959.59      0.77977714    0.0043374400
      6966.55      0.77794598    0.0042896561
      6973.52      0.77678506    0.0042557790
      6980.49      0.77533215    0.0042000621
      6987.47      0.76842830    0.0041413571
      6994.46      0.76849205    0.0040816285
      7001.46      0.77023477    0.0040210272
      7008.46      0.76842165    0.0039595170
      7015.46      0.76606073    0.0038968245
      7022.48      0.76272802    0.0038236263
      7029.51      0.76243958    0.0037592365
      7036.53      0.76303160    0.0036952303
      7043.57      0.75804386    0.0036318521
      7050.62      0.75682725    0.0035847615
      7057.66      0.75528623    0.0036015663
      7064.72      0.75224987    0.0036415644
      7071.79      0.74826263    0.0036907071
      7078.86      0.74397613    0.0037511865
      7085.94      0.74050834    0.0038267727
      7093.03      0.73724051    0.0039235114
      7100.12      0.73200605    0.0040495431
      7107.22      0.72654118    0.0042190571
      7114.33      0.72155230    0.0044500639
      7121.44      0.71732735    0.0047646298
      7128.56      0.71184297    0.0051842400
      7135.69      0.70524824    0.0057291786
      7142.83      0.69958972    0.0064285788
      7149.97      0.69110252    0.0073202155
      7157.12      0.68061692    0.0084556269
      7164.28      0.66946584    0.0098860711
