# starting wavelength =        3371.9400
# ending wavelength =        7166.6600
# O2 telluric scale =        0
# O2 telluric shift =        0
# H2O telluric scale =        0
# H2O telluric shift =        0
      3375.18      0.69856544      0.26927756
      3378.56      0.66178434      0.22919608
      3381.94      0.60143720      0.19738632
      3385.32      0.56551476      0.16777995
      3388.70      0.52238537      0.14927730
      3392.09      0.50012503      0.13481482
      3395.48      0.51890378      0.12362312
      3398.88      0.51443062      0.11651317
      3402.28      0.49153737      0.10933842
      3405.68      0.48615971      0.10373639
      3409.09      0.50589683     0.099330930
      3412.49      0.48149417     0.095822619
      3415.91      0.41311455     0.092255129
      3419.32      0.40714288     0.089977508
      3422.74      0.38964610     0.088068666
      3426.17      0.41771443     0.086442798
      3429.59      0.39225688     0.084574714
      3433.02      0.38088797     0.083292882
      3436.45      0.40950149     0.082958922
      3439.89      0.43156533     0.082634819
      3443.33      0.46792085     0.082183403
      3446.78      0.48343685     0.081857309
      3450.22      0.50808756     0.081945238
      3453.67      0.46760194     0.082028420
      3457.13      0.53908151     0.081169095
      3460.58      0.58855989     0.081255699
      3464.04      0.60225362     0.080933572
      3467.51      0.64175939     0.081033026
      3470.98      0.65630373     0.080571096
      3474.45      0.67106266     0.080259049
      3477.92      0.70639523     0.080346815
      3481.40      0.71599631     0.080447855
      3484.88      0.73809798     0.079580712
      3488.37      0.77036752     0.079677555
      3491.86      0.76816160     0.079372356
      3495.35      0.74667040     0.079459452
      3498.84      0.76232675     0.079016162
      3502.34      0.82182531     0.078695644
      3505.84      0.85360765     0.078807535
      3509.35      0.92572991     0.078353393
      3512.86      0.99256293     0.078044631
      3516.37       1.0053247     0.078144989
      3519.89       1.0236887     0.078263314
      3523.41       1.0397950     0.077388057
      3526.93       1.0494118     0.077502676
      3530.46       1.0069825     0.077616365
      3533.99      0.97110949     0.076747004
      3537.53      0.97590680     0.076860238
      3541.06      0.95322388     0.076982682
      3544.60      0.94163588     0.076684897
      3548.15      0.97148126     0.076227921
      3551.70       1.0085366     0.076350945
      3555.25      0.99906992     0.076037238
      3558.80       1.0357290     0.075599789
      3562.36       1.0368943     0.075728643
      3565.92       1.0444762     0.075861985
      3569.49       1.0306918     0.074979593
      3573.06       1.0013366     0.075110744
      3576.64      0.97475360     0.075250784
      3580.21      0.93245598     0.074957612
      3583.79      0.90961140     0.074503029
      3587.38      0.88288354     0.074643306
      3590.96      0.80109417     0.074797013
      3594.55      0.80644844     0.073897170
      3598.15      0.79868905     0.074050004
      3601.75      0.78160729     0.074196974
      3605.35      0.80070632     0.073309397
      3608.96      0.83317444     0.073451976
      3612.56      0.82622982     0.073622635
      3616.18      0.85549548     0.073179425
      3619.79      0.84525067     0.072882962
      3623.41      0.82924188     0.073031040
      3627.04      0.80279962     0.072603611
      3630.66      0.79450596     0.072772683
      3634.29      0.78157486     0.072947160
      3637.93      0.84083976     0.072033959
      3641.57      0.87569229     0.072202307
      3645.21      0.90449928     0.072396657
      3648.86      0.92560865     0.071958035
      3652.50      0.94368478     0.071661293
      3656.16      0.98161801     0.071832682
      3659.81      0.98831752     0.071405712
      3663.47       1.0448152     0.071604735
      3667.14       1.0436568     0.071173175
      3670.80       1.0599643     0.070870821
      3674.48       1.0491444     0.071058519
      3678.15       1.0497235     0.070639494
      3681.83       1.0232676     0.070845020
      3685.51       1.0511661     0.071060122
      3689.20       1.0656119     0.070114221
      3692.88       1.0610994     0.070316314
      3696.58       1.1047227     0.070561042
      3700.27       1.0903072     0.070118739
      3703.98       1.1033754     0.070349892
      3707.68       1.0850133     0.069389035
      3711.39       1.0942883     0.069606467
      3715.10       1.0760867     0.069867870
      3718.81       1.0984529     0.069425710
      3722.53       1.1002329     0.069670872
      3726.26       1.0482600     0.069262702
      3729.98       1.0507497     0.069505412
      3733.71       1.0340324     0.069214961
      3737.45       1.0341806     0.068769822
      3741.18       1.0135858     0.069025316
      3744.93      0.94066375     0.068615087
      3748.67      0.89031026     0.068883483
      3752.42      0.87128560     0.069166417
      3756.17      0.86101550     0.068156082
      3759.93      0.87546228     0.067721804
      3763.69      0.90078830     0.067444255
      3767.45      0.94525349     0.067001552
      3771.22      0.95131582     0.066577335
      3774.99      0.96961773     0.066297805
      3778.77       1.0282133     0.065862167
      3782.54       1.0372188     0.065446805
      3786.33       1.0224399     0.065167145
      3790.11       1.0492798     0.064740026
      3793.90       1.0797221     0.064329503
      3797.70       1.0793584     0.063382331
      3801.50       1.0855878     0.063632315
      3805.30       1.0758179     0.062682729
      3809.10       1.0559247     0.062293671
      3812.91      0.99848478     0.062538639
      3816.73       1.0106051     0.061602012
      3820.54       1.0129876     0.061217516
      3824.36       1.0187159     0.061460948
      3828.19       1.0088056     0.060537004
      3832.02       1.0398700     0.060154192
      3835.85       1.0497130     0.059784093
      3839.68       1.0501654     0.059486032
      3843.52       1.0274141     0.059105207
      3847.37       1.0325692     0.058736484
      3851.22       1.0089253     0.057870360
      3855.07      0.97535377     0.058070931
      3858.92      0.98043467     0.057702592
      3862.78       1.0176283     0.056859651
      3866.64       1.0277685     0.056485174
      3870.51       1.0372325     0.056683068
      3874.38       1.0403448     0.056325438
      3878.26       1.0295253     0.055492605
      3882.13       1.0382110     0.055128393
      3886.02       1.0238430     0.055321956
      3889.90       1.0289835     0.054515594
      3893.79       1.0385970     0.054151284
      3897.69       1.0423499     0.053795785
      3901.59       1.0500900     0.053557648
      3905.49       1.0495558     0.053192503
      3909.39       1.0090821     0.052835938
      3913.30      0.98894164     0.052488733
      3917.22      0.97757087     0.052253458
      3921.13      0.96545527     0.051897692
      3925.06      0.96948140     0.051548249
      3928.98      0.98485742     0.051205892
      3932.91       1.0007967     0.050454114
      3936.84       1.0266142     0.050627341
      3940.78       1.0262610     0.050283808
      3944.72       1.0235446     0.049538229
      3948.67       1.0016646     0.049209372
      3952.61      0.99087381     0.048887764
      3956.57      0.99821139     0.049045733
      3960.52      0.97256863     0.048313612
      3964.48      0.98074202     0.047990008
      3968.45      0.99313890     0.047671912
      3972.42       1.0034268     0.047359362
      3976.39       1.0022138     0.047506846
      3980.37       1.0140204     0.046797705
      3984.35       1.0345648     0.046482763
      3988.33       1.0740309     0.046173639
      3992.32       1.0901355     0.045867708
      3996.31       1.0916747     0.045190170
      4000.31       1.1115633     0.045319968
      4004.31       1.0984111     0.045011204
      4008.31       1.0963074     0.044708916
      4012.32       1.0777385     0.044410767
      4016.33       1.0547095     0.043756550
      4020.35       1.0172278     0.043455038
      4024.37       1.0018150     0.043157342
      4028.40       1.0100600     0.043281460
      4032.42       1.0035803     0.042988583
      4036.46      0.96413692     0.042363328
      4040.50      0.95677277     0.042067358
      4044.54      0.94273790     0.041775985
      4048.58      0.95917048     0.041488028
      4052.63      0.95652177     0.041202716
      4056.68      0.96693724     0.041011810
      4060.74      0.96936901     0.040722455
      4064.80      0.97286092     0.040436339
      4068.86      0.98031075     0.040153963
      4072.93       1.0039847     0.039874216
      4077.01       1.0165143     0.039596726
      4081.08       1.0084784     0.039015296
      4085.17       1.0079875     0.038745509
      4089.25       1.0034227     0.038478287
      4093.34       1.0143907     0.038587512
      4097.43       1.0267289     0.038314999
      4101.53       1.0607987     0.038418475
      4105.63       1.0783135     0.039156610
      4109.74       1.0720226     0.038574287
      4113.85       1.0589263     0.037100987
      4117.96       1.0482310     0.037043191
      4122.08       1.0422811     0.037483555
      4126.20       1.0508437     0.038136701
      4130.33       1.0293867     0.038834556
      4134.46       1.0199584     0.039429875
      4138.59       1.0066158     0.039355954
      4142.73       1.0085686     0.039435688
      4146.88      0.99757406     0.039447623
      4151.02      0.97572982     0.038694262
      4155.18      0.97723188     0.037703092
      4159.33      0.96442975     0.036592567
      4163.49      0.95175172     0.035485079
      4167.65      0.96130307     0.034494065
      4171.82      0.94564772     0.033746691
      4175.99      0.95593130     0.033039728
      4180.17      0.96950255     0.033284902
      4184.35      0.96457813     0.034120774
      4188.54      0.98196541     0.032874544
      4192.72      0.98934627     0.032137330
      4196.92      0.99391039     0.031908097
      4201.11      0.98817768     0.031681289
      4205.31      0.98331344     0.031455565
      4209.52      0.95701389     0.031231622
      4213.73      0.95584187     0.031009978
      4217.94      0.93841766     0.030789338
      4222.16      0.92544970     0.030569997
      4226.38      0.91779467     0.030353125
      4230.61      0.93826391     0.029911343
      4234.84      0.96205633     0.029697918
      4239.08      0.96378737     0.029486711
      4243.32      0.97047201     0.029277217
      4247.56      0.99777951     0.029068720
      4251.81       1.0003090     0.028861620
      4256.06       1.0195548     0.028656548
      4260.32       1.0312171     0.028452125
      4264.58       1.0519575     0.028249697
      4268.84       1.0720723     0.028048716
      4273.11       1.0588036     0.027848670
      4277.38       1.0452890     0.027650134
      4281.66       1.0223135     0.027453788
      4285.94       1.0146562     0.027258338
      4290.23      0.99969492     0.027063695
      4294.52      0.98488089     0.026871110
      4298.81      0.97073506     0.026680196
      4303.11      0.96915644     0.026490275
      4307.42      0.98745450     0.026301698
      4311.72       1.0135233     0.025875615
      4316.04       1.0342153     0.025691800
      4320.35       1.0604575     0.025509467
      4324.67       1.0946773     0.025328573
      4329.00       1.1281404     0.025149139
      4333.33       1.1535368     0.024970871
      4337.66       1.1724235     0.024794630
      4342.00       1.2122526     0.024619881
      4346.34       1.2237238     0.024445711
      4350.69       1.2335522     0.024273564
      4355.04       1.2419283     0.024103560
      4359.39       1.2711156     0.023934227
      4363.75       1.2921574     0.023545122
      4368.12       1.2921264     0.023378511
      4372.48       1.2994271     0.023213144
      4376.86       1.2954949     0.023049543
      4381.23       1.3028691     0.022887342
      4385.61       1.2959226     0.022726591
      4390.00       1.3058171     0.022567657
      4394.39       1.3199376     0.022410091
      4398.79       1.3331544     0.022416059
      4403.18       1.3502616     0.022061874
      4407.59       1.3613331     0.021906388
      4412.00       1.3628699     0.021752207
      4416.41       1.3565725     0.021600076
      4420.82       1.3466020     0.021449181
      4425.25       1.3417425     0.021299889
      4429.67       1.3165792     0.021152330
      4434.10       1.3035242     0.021006715
      4438.54       1.2958360     0.020677342
      4442.97       1.2792005     0.020536119
      4447.42       1.2541221     0.020396392
      4451.86       1.2237853     0.020258939
      4456.32       1.2025390     0.020259355
      4460.77       1.1683621     0.020120244
      4465.24       1.1696801     0.019806249
      4469.70       1.1683148     0.019672179
      4474.17       1.1580341     0.019539544
      4478.65       1.1794521     0.019408700
      4483.12       1.1933008     0.019279894
      4487.61       1.2060698     0.019153151
      4492.09       1.2352507     0.018851343
      4496.59       1.2346184     0.018857575
      4501.08       1.2300793     0.018732303
      4505.58       1.2094093     0.018609367
      4510.09       1.2158044     0.018488296
      4514.60       1.2221822     0.018202772
      4519.12       1.2273239     0.018082555
      4523.63       1.2154326     0.017964077
      4528.16       1.2046463     0.017973933
      4532.69       1.1960814     0.017858311
      4537.22       1.1957358     0.017586823
      4541.76       1.1757607     0.017472229
      4546.30       1.1587799     0.017359333
      4550.85       1.1568998     0.017248591
      4555.40       1.1340364     0.017113627
      4559.95       1.1136238     0.017003059
      4564.51       1.1176253     0.016894243
      4569.08       1.1072284     0.016787615
      4573.65       1.1030614     0.016540827
      4578.22       1.1134286     0.016439366
      4582.80       1.1006456     0.016450280
      4587.38       1.0784245     0.016347732
      4591.97       1.0716841     0.016109449
      4596.56       1.0785014     0.016012021
      4601.16       1.0857041     0.015916788
      4605.76       1.0921411     0.015928004
      4610.37       1.0913436     0.015697857
      4614.98       1.1056588     0.015605012
      4619.59       1.1149768     0.015514430
      4624.21       1.1118065     0.015426207
      4628.84       1.0978306     0.015306777
      4633.47       1.1013151     0.015218546
      4638.10       1.0967527     0.015132671
      4642.74       1.0978983     0.014917424
      4647.38       1.0944626     0.014935420
      4652.03       1.0785266     0.014851927
      4656.68       1.0825528     0.014645547
      4661.34       1.0782466     0.014562651
      4666.00       1.0827096     0.014583347
      4670.67       1.0865539     0.014504745
      4675.33       1.0784550     0.014304626
      4680.01       1.0934767     0.014226606
      4684.69       1.1025334     0.014250536
      4689.38       1.1128747     0.014057966
      4694.07       1.1296442     0.013982606
      4698.76       1.1383426     0.013909865
      4703.46       1.1375071     0.013821934
      4708.16       1.1384638     0.013749523
      4712.87       1.1268193     0.013679492
      4717.58       1.1259336     0.013502210
      4722.30       1.1208861     0.013526877
      4727.03       1.1084465     0.013459729
      4731.75       1.1104142     0.013287690
      4736.48       1.0972021     0.013314880
      4741.22       1.0971372     0.013144376
      4745.96       1.0888930     0.013083765
      4750.71       1.0787261     0.013025854
      4755.46       1.0811787     0.012947783
      4760.22       1.0730197     0.012890098
      4764.97       1.0598896     0.012835338
      4769.74       1.0690006     0.012761045
      4774.51       1.0778969     0.012706786
      4779.29       1.0890190     0.012550677
      4784.07       1.0903470     0.012584386
      4788.85       1.0734847     0.012533493
      4793.64       1.0576010     0.012381365
      4798.43       1.0555301     0.012417653
      4803.23       1.0514449     0.012271227
      4808.03       1.0532612     0.012221939
      4812.84       1.0494264     0.012261163
      4817.66       1.0567558     0.012118111
      4822.48       1.0658158     0.012072364
      4827.30       1.0649963     0.012019259
      4832.12       1.0646683     0.011974174
      4836.96       1.0434122     0.011925332
      4841.79       1.0431192     0.011881328
      4846.63       1.0436335     0.011840196
      4851.48       1.0267613     0.011793161
      4856.33       1.0314758     0.011752745
      4861.19       1.0461485     0.011627267
      4866.05       1.0523665     0.011670598
      4870.92       1.0461586     0.011546854
      4875.79       1.0270279     0.011592837
      4880.66       1.0258433     0.011470933
      4885.55       1.0237991     0.011439467
      4890.43       1.0365749     0.011399528
      4895.32       1.0380884     0.011369155
      4900.22       1.0409819     0.011417656
      4905.12       1.0612637     0.011303106
      4910.02       1.0720100     0.011277264
      4914.94       1.0814104     0.011241687
      4919.85       1.0988417     0.011216813
      4924.77       1.1123874     0.011184060
      4929.70       1.1301155     0.011160476
      4934.62       1.1563985     0.011052519
      4939.56       1.1780248     0.011108805
      4944.50       1.1841172     0.011003385
      4949.44       1.1916812     0.011060853
      4954.39       1.2015791     0.010957982
      4959.35       1.2049549     0.011016794
      4964.31       1.1953218     0.010916431
      4969.27       1.1973102     0.010976684
      4974.24       1.2042219     0.010878725
      4979.22       1.1777730     0.010863037
      4984.20       1.1749292     0.010844699
      4989.18       1.1657420     0.010753800
      4994.17       1.1608416     0.010814440
      4999.16       1.1659062     0.010725500
      5004.16       1.1581775     0.010787510
      5009.17       1.1635589     0.010700922
      5014.18       1.1706359     0.010764539
      5019.19       1.1820196     0.010679948
      5024.21       1.1923070     0.010670023
      5029.23       1.2006121     0.010662528
      5034.26       1.1966473     0.010654150
      5039.30       1.1959614     0.010648643
      5044.34       1.1998446     0.010641831
      5049.39       1.2129462     0.010638450
      5054.43       1.2272002     0.010633105
      5059.49       1.2409223     0.010555463
      5064.55       1.2462263     0.010627731
      5069.61       1.2506795     0.010551157
      5074.68       1.2416655     0.010625827
      5079.76       1.2433145     0.010626447
      5084.84       1.2466614     0.010553809
      5089.92       1.2450755     0.010629123
      5095.01       1.2458428     0.010557379
      5100.11       1.2492766     0.010635352
      5105.21       1.2415179     0.010564178
      5110.31       1.2434094     0.010572594
      5115.42       1.2471940     0.010574495
      5120.54       1.2400132     0.010583672
      5125.66       1.2498732     0.010518502
      5130.79       1.2406938     0.010598116
      5135.92       1.2483529     0.010610928
      5141.05       1.2552102     0.010616030
      5146.20       1.2738356     0.010629422
      5151.34       1.2821611     0.010567921
      5156.49       1.2965738     0.010651267
      5161.65       1.2949983     0.010667626
      5166.81       1.2984940     0.010607074
      5171.98       1.2986359     0.010693469
      5177.15       1.2940880     0.010635947
      5182.33       1.2987074     0.010653353
      5187.51       1.2920437     0.010742344
      5192.70       1.2990024     0.010686021
      5197.89       1.2875226     0.010706000
      5203.09       1.2844426     0.010650929
      5208.29       1.2830384     0.010742880
      5213.50       1.2831270     0.010765356
      5218.72       1.2788068     0.010711852
      5223.93       1.2716172     0.010805763
      5229.16       1.2571849     0.010830462
      5234.39       1.2514386     0.010778242
      5239.62       1.2458702     0.010874904
      5244.86       1.2528404     0.010822439
      5250.11       1.2424054     0.010850710
      5255.36       1.2434759     0.010880622
      5260.61       1.2385926     0.010898546
      5265.87       1.2363000     0.010928594
      5271.14       1.2355008     0.010960206
      5276.41       1.2325883     0.010912812
      5281.69       1.2327105     0.011012116
      5286.97       1.2304242     0.011045252
      5292.26       1.2402907     0.010999745
      5297.55       1.2340217     0.011032613
      5302.85       1.2378595     0.011135131
      5308.15       1.2424075     0.011092145
      5313.46       1.2399365     0.011126386
      5318.77       1.2277684     0.011161984
      5324.09       1.2177748     0.011267916
      5329.42       1.2159521     0.011225562
      5334.75       1.2091717     0.011262344
      5340.08       1.2166965     0.011300445
      5345.42       1.2068781     0.011258091
      5350.77       1.2038928     0.011367920
      5356.12       1.1982964     0.011406818
      5361.48       1.1960604     0.011446963
      5366.83       1.1918573     0.011405228
      5372.20       1.1832219     0.011447245
      5377.58       1.1750458     0.011559465
      5382.95       1.1642742     0.011601434
      5388.34       1.1595218     0.011560371
      5393.72       1.1607458     0.011604073
      5399.12       1.1554357     0.011648807
      5404.52       1.1539326     0.011694399
      5409.92       1.1628866     0.011722900
      5415.33       1.1526406     0.011768051
      5420.75       1.1509200     0.011813996
      5426.17       1.1486707     0.011860720
      5431.60       1.1503403     0.011822707
      5437.03       1.1454392     0.011868785
      5442.47       1.1349820     0.011915551
      5447.91       1.1288923     0.012033737
      5453.36       1.1396605     0.012082501
      5458.81       1.1285186     0.012045911
      5464.27       1.1285713     0.012093717
      5469.73       1.1276801     0.012142406
      5475.20       1.1238560     0.012191663
      5480.68       1.1214603     0.012241453
      5486.16       1.1243012     0.012204463
      5491.65       1.1333674     0.012328377
      5497.14       1.1359128     0.012378272
      5502.64       1.1331356     0.012428621
      5508.14       1.1315083     0.012479694
      5513.65       1.1310829     0.012531184
      5519.16       1.1184549     0.012493775
      5524.68       1.1116722     0.012545989
      5530.20       1.1072490     0.012598573
      5535.73       1.1061902     0.012651483
      5541.27       1.1090423     0.012704686
      5546.81       1.1081238     0.012758456
      5552.36       1.1216928     0.012721022
      5557.91       1.1197611     0.012846801
      5563.47       1.1174990     0.012900472
      5569.04       1.1238025     0.012954386
      5574.60       1.1286777     0.013008524
      5580.18       1.1291293     0.013063152
      5585.76       1.1350756     0.013117963
      5591.35       1.1445242     0.013172925
      5596.94       1.1397160     0.013228012
      5602.53       1.1264879     0.013191891
      5608.14       1.1122026     0.013246414
      5613.75       1.1025549     0.013301096
      5619.36       1.0902921     0.013356165
      5624.98       1.0891562     0.013411494
      5630.60       1.0849143     0.013467431
      5636.23       1.0652585     0.013524568
      5641.87       1.0702248     0.013582037
      5647.51       1.0749212     0.013638842
      5653.16       1.0850183     0.013695931
      5658.82       1.0958045     0.013754429
      5664.47       1.1037639     0.013816170
      5670.14       1.1061017     0.013785337
      5675.81       1.1075257     0.013853370
      5681.48       1.1102766     0.013921717
      5687.17       1.1073369     0.013991470
      5692.85       1.0997477     0.014063296
      5698.55       1.1000169     0.014133472
      5704.25       1.0875867     0.014198701
      5709.95       1.0819169     0.014260472
      5715.66       1.0546592     0.014240800
      5721.38       1.0528313     0.014297912
      5727.10       1.0387287     0.014352323
      5732.83       1.0325931     0.014405099
      5738.56       1.0194337     0.014458062
      5744.30      0.99771272     0.014512072
      5750.04       1.0066629     0.014565951
      5755.79       1.0013872     0.014617840
      5761.55       1.0184804     0.014667676
      5767.31       1.0248253     0.014715874
      5773.08       1.0319921     0.014763649
      5778.85       1.0228828     0.014811663
      5784.63       1.0306233     0.014857873
      5790.41       1.0373341     0.014815446
      5796.21       1.0400066     0.014860188
      5802.00       1.0303215     0.014908383
      5807.81       1.0249004     0.014956683
      5813.61       1.0178841     0.015002512
      5819.43       1.0020597     0.015049151
      5825.25      0.98043680     0.015098198
      5831.07      0.98606644     0.015148730
      5836.90      0.98595004     0.015217656
      5842.74      0.98867982     0.015268118
      5848.58      0.99593182     0.015319256
      5854.43      0.99059925     0.015370554
      5860.29      0.98144188     0.015421840
      5866.15      0.97225656     0.015473057
      5872.01      0.97982570     0.015439099
      5877.89      0.97299091     0.015490180
      5883.76      0.96580442     0.015541140
      5889.65      0.95505628     0.015592181
      5895.54      0.93978917     0.015643133
      5901.43      0.93874054     0.015694052
      5907.34      0.92512430     0.015756502
      5913.24      0.89386375     0.015805465
      5919.16      0.88176345     0.015854632
      5925.08      0.86664258     0.015903728
      5931.00      0.85753934     0.015952781
      5936.93      0.86873374     0.015911117
      5942.87      0.87119153     0.015957829
      5948.81      0.87199860     0.016004490
      5954.76      0.87759681     0.016155934
      5960.72      0.88601025     0.016114186
      5966.68      0.88951819     0.016158521
      5972.64      0.88603170     0.016202915
      5978.62      0.88809616     0.016247329
      5984.60      0.89274552     0.016291794
      5990.58      0.88740764     0.016352241
      5996.57      0.88190459     0.016394456
      6002.57      0.88673906     0.016437292
      6008.57      0.88504366     0.016394657
      6014.58      0.90203907     0.016445465
      6020.60      0.90733171     0.016491038
      6026.62      0.91478261     0.016632572
      6032.65      0.92273592     0.016588348
      6038.68      0.93199704     0.016643185
      6044.72      0.94191353     0.016706565
      6050.76      0.95302757     0.016777785
      6056.81      0.93970060     0.016871983
      6062.87      0.93736427     0.016948624
      6068.93      0.93756353     0.017023356
      6075.00      0.93521049     0.016998412
      6081.08      0.92818589     0.017053788
      6087.16      0.92604656     0.017208099
      6093.25      0.91792526     0.017139845
      6099.34      0.91129033     0.017155428
      6105.44      0.90282705     0.017162245
      6111.54      0.91469486     0.017168475
      6117.66      0.91973674     0.017168230
      6123.78      0.91847338     0.017176236
      6129.90      0.92408050     0.017099097
      6136.03      0.93331226     0.017216389
      6142.17      0.93973204     0.017224674
      6148.31      0.93637919     0.017144385
      6154.46      0.94818219     0.017264241
      6160.61      0.95740517     0.017279700
      6166.77      0.95495544     0.017202189
      6172.94      0.94836590     0.017221644
      6179.11      0.95546147     0.017245691
      6185.29      0.95913314     0.017264996
      6191.48      0.95799554     0.017286633
      6197.67      0.95136033     0.017313004
      6203.87      0.95635713     0.017334451
      6210.07      0.95081944     0.017258828
      6216.28      0.94823241     0.017382197
      6222.50      0.94557044     0.017404434
      6228.72      0.94827402     0.017331685
      6234.95      0.93717041     0.017463040
      6241.19      0.92846673     0.017400767
      6247.42      0.92637694     0.017429006
      6253.67      0.93185672     0.017466325
      6259.93      0.92689359     0.017487287
      6266.19      0.91326343     0.017508644
      6272.46      0.91459756     0.017536261
      6278.73      0.90980447     0.017548800
      6285.01      0.89739388     0.017462419
      6291.29      0.90389598     0.017566536
      6297.58      0.90722725     0.017471443
      6303.88      0.91072712     0.017571606
      6310.19      0.91595297     0.017474737
      6316.50      0.91944694     0.017477555
      6322.81      0.93227666     0.017481802
      6329.14      0.93276313     0.017482912
      6335.47      0.93472190     0.017481128
      6341.80      0.93449016     0.017475473
      6348.14      0.93174526     0.017369084
      6354.49      0.93444291     0.017459702
      6360.85      0.93502428     0.017354760
      6367.21      0.93270821     0.017443228
      6373.57      0.92773321     0.017331745
      6379.95      0.90745692     0.017415622
      6386.33      0.88976149     0.017306686
      6392.72      0.88696888     0.017294820
      6399.11      0.87766685     0.017285268
      6405.51      0.87072942     0.017272655
      6411.92      0.86578784     0.017261355
      6418.32      0.86152814     0.017247415
      6424.74      0.87280161     0.017233315
      6431.17      0.88237492     0.017121898
      6437.60      0.88690851     0.017199433
      6444.04      0.89405993     0.017086170
      6450.48      0.90094521     0.017161064
      6456.94      0.90999400     0.017045997
      6463.39      0.91520860     0.017117242
      6469.85      0.92174082     0.016999945
      6476.33      0.92653454     0.016972496
      6482.80      0.92356936     0.016948211
      6489.28      0.91671436     0.016917155
      6495.77      0.91343105     0.016891073
      6502.27      0.90344180     0.016856003
      6508.77      0.89259338     0.016731046
      6515.28      0.88993010     0.016789334
      6521.80      0.88376613     0.016660873
      6528.32      0.87930833     0.016622393
      6534.85      0.87365818     0.016585038
      6541.38      0.86644095     0.016542323
      6547.92      0.86719789     0.016411429
      6554.47      0.85758931     0.016456451
      6561.03      0.86450592     0.016409101
      6567.59      0.86190004     0.016366055
      6574.16      0.86249353     0.016333153
      6580.73      0.86710296     0.016262786
      6587.31      0.86374018     0.016334278
      6593.90      0.86643154     0.016182498
      6600.50      0.86318216     0.016129088
      6607.10      0.86300474     0.016157671
      6613.70      0.86139222     0.016225447
      6620.32      0.85736401     0.016362837
      6626.94      0.85303877     0.016448386
      6633.57      0.84201176     0.016708614
      6640.20      0.84374208     0.016904930
      6646.84      0.84540303     0.016951268
      6653.49      0.84398447     0.017125500
      6660.14      0.84127701     0.017118050
      6666.80      0.83538589     0.016914219
      6673.47      0.82826360     0.016714992
      6680.14      0.81974629     0.016499584
      6686.82      0.82688383     0.016201401
      6693.51      0.82421431     0.015904003
      6700.20      0.81907495     0.015591829
      6706.90      0.82216815     0.015488296
      6713.61      0.81937144     0.015297980
      6720.32      0.81834523     0.015020852
      6727.05      0.81937964     0.014829744
      6733.77      0.81919980     0.014765808
      6740.51      0.81841634     0.014550505
      6747.25      0.80829263     0.014403109
      6754.00      0.79756775     0.014266306
      6760.75      0.79325913     0.014139337
      6767.51      0.80313359     0.014041495
      6774.28      0.79813146     0.013921294
      6781.05      0.78934100     0.013799782
      6787.84      0.79404366     0.013611834
      6794.62      0.78928530     0.013338761
      6801.42      0.78466966     0.013146916
      6808.22      0.77858357     0.012873009
      6815.03      0.78422540     0.012604106
      6821.85      0.79040299     0.012415239
      6828.67      0.78554926     0.012157958
      6835.50      0.78407297     0.011863284
      6842.33      0.78220998     0.011616750
      6849.17      0.79037241     0.011440690
      6856.02      0.78474975     0.011213780
      6862.88      0.78390960     0.010996758
      6869.74      0.78264621     0.010779353
      6876.61      0.78246594     0.010618024
      6883.49      0.77798168     0.010398677
      6890.37      0.77422459     0.010186865
      6897.27      0.77073321    0.0099989041
      6904.16      0.76681691    0.0098585347
      6911.07      0.76182192    0.0097202465
      6917.98      0.76355868    0.0095743027
      6924.89      0.75687552    0.0094113198
      6931.82      0.75007374    0.0092367198
      6938.75      0.74936289    0.0090568453
      6945.69      0.75306674    0.0089239949
      6952.64      0.74816576    0.0087370987
      6959.59      0.74647987    0.0085457655
      6966.55      0.74731393    0.0083484143
      6973.52      0.74557102    0.0081464106
      6980.49      0.75086420    0.0079408693
      6987.47      0.74753248    0.0077277892
      6994.46      0.75160156    0.0075725000
      7001.46      0.76228044    0.0073888449
      7008.46      0.75477324    0.0072165480
      7015.46      0.75396803    0.0070552742
      7022.48      0.74911253    0.0069044653
      7029.51      0.75088888    0.0067651723
      7036.53      0.74762460    0.0066385887
      7043.57      0.74109310    0.0065242995
      7050.62      0.73403596    0.0064712026
      7057.66      0.73434029    0.0065328166
      7064.72      0.73118612    0.0066132007
      7071.79      0.73126200    0.0067158438
      7078.86      0.72991797    0.0068458599
      7085.94      0.72632105    0.0070112514
      7093.03      0.72391453    0.0072249629
      7100.12      0.72279139    0.0075041346
      7107.22      0.72283657    0.0078779711
      7114.33      0.71842758    0.0083837026
      7121.44      0.71709798    0.0090621023
      7128.56      0.71751234    0.0099570401
      7135.69      0.71930782     0.011269717
      7142.83      0.72235955     0.012760102
      7149.97      0.72792769     0.014627991
      7157.12      0.73074950     0.016976063
      7164.28      0.74400722     0.019912682
