# starting wavelength =        3651.3700
# ending wavelength =        7401.3800
# O2 telluric scale =        0
# O2 telluric shift =        0
# H2O telluric scale =        0
# H2O telluric shift =        0
      3652.50      0.52778427     0.076039590
      3656.16      0.52143278     0.064422080
      3659.81      0.52695040     0.055166605
      3663.47      0.52522685     0.049071149
      3667.14      0.52978005     0.043127475
      3670.80      0.53245987     0.038459923
      3674.48      0.52555292     0.034228184
      3678.15      0.53132032     0.031554741
      3681.83      0.52507498     0.029497047
      3685.51      0.51881914     0.027902343
      3689.20      0.50661899     0.026806209
      3692.88      0.50988886     0.025763348
      3696.58      0.50782245     0.024932426
      3700.27      0.51170993     0.024088936
      3703.98      0.50014610     0.023553340
      3707.68      0.50322968     0.023107277
      3711.39      0.50379384     0.022625611
      3715.10      0.50961418     0.022284504
      3718.81      0.49577574     0.021991863
      3722.53      0.48435153     0.021912588
      3726.26      0.47558254     0.021964057
      3729.98      0.47650887     0.022017097
      3733.71      0.48336585     0.021827495
      3737.45      0.49946337     0.021879689
      3741.18      0.49907881     0.021934804
      3744.93      0.50341551     0.021854367
      3748.67      0.51229452     0.021798530
      3752.42      0.51314311     0.021852100
      3756.17      0.52030023     0.021774361
      3759.93      0.52725367     0.021829422
      3763.69      0.52794150     0.021775279
      3767.45      0.54024592     0.021693386
      3771.22      0.54122200     0.021751109
      3774.99      0.55175798     0.021810955
      3778.77      0.55830840     0.021614519
      3782.54      0.57148475     0.021675255
      3786.33      0.57713318     0.021733949
      3790.11      0.59942441     0.021656607
      3793.90      0.61446310     0.021717480
      3797.70      0.61482413     0.021664282
      3801.50      0.62003525     0.021581964
      3805.30      0.62664205     0.021644547
      3809.10      0.62809093     0.021711583
      3812.91      0.64777012     0.021630881
      3816.73      0.66626611     0.021577128
      3820.54      0.68252602     0.021495389
      3824.36      0.69103665     0.021561074
      3828.19      0.69026489     0.021630795
      3832.02      0.70704257     0.021550705
      3835.85      0.71198058     0.021621102
      3839.68      0.71914562     0.021562666
      3843.52      0.73992825     0.021484077
      3847.37      0.76088070     0.021557383
      3851.22      0.77911707     0.021477337
      3855.07      0.77759123     0.021550664
      3858.92      0.77878756     0.021626148
      3862.78      0.78279048     0.021414044
      3866.64      0.79242029     0.021492022
      3870.51      0.80059628     0.021411284
      3874.38      0.81388027     0.021487275
      3878.26      0.81494711     0.021567607
      3882.13      0.82658495     0.021487760
      3886.02      0.83148219     0.021568873
      3889.90      0.82560120     0.021353182
      3893.79      0.82969855     0.021431456
      3897.69      0.83486563     0.021518426
      3901.59      0.83596169     0.021437246
      3905.49      0.82841242     0.021520191
      3909.39      0.82652282     0.021444508
      3913.30      0.82174563     0.021529943
      3917.22      0.82968990     0.021617989
      3921.13      0.81712433     0.021542532
      3925.06      0.79573148     0.021632639
      3928.98      0.79074078     0.021403621
      3932.91      0.78830484     0.021498556
      3936.84      0.77507841     0.021417438
      3940.78      0.76711544     0.021509555
      3944.72      0.76983463     0.021610891
      3948.67      0.76835960     0.021529187
      3952.61      0.76034371     0.021626151
      3956.57      0.76278160     0.021550558
      3960.52      0.76312680     0.021651487
      3964.48      0.76772720     0.021572245
      3968.45      0.77064103     0.021677161
      3972.42      0.76581733     0.021786419
      3976.39      0.76554670     0.021705680
      3980.37      0.76843715     0.021816001
      3984.35      0.77423377     0.021741658
      3988.33      0.78155951     0.021851808
      3992.32      0.79747961     0.021598249
      3996.31      0.78691272     0.021717470
      4000.31      0.78943414     0.021635279
      4004.31      0.79911714     0.021748514
      4008.31      0.78829889     0.021879333
      4012.32      0.78226610     0.021794652
      4016.33      0.78470253     0.021913543
      4020.35      0.77747478     0.021834891
      4024.37      0.75826639     0.021970492
      4028.40      0.75942317     0.021886426
      4032.42      0.74705444     0.021805997
      4036.46      0.75351964     0.021934573
      4040.50      0.75520461     0.021672342
      4044.54      0.74841434     0.021590397
      4048.58      0.73523717     0.021510903
      4052.63      0.72681726     0.021434109
      4056.68      0.72302443     0.021378633
      4060.74      0.70410734     0.021298147
      4064.80      0.69300668     0.021220263
      4068.86      0.69702182     0.020960385
      4072.93      0.70670503     0.021090186
      4077.01      0.71242137     0.021010613
      4081.08      0.71907680     0.020932966
      4085.17      0.71839299     0.020676422
      4089.25      0.69801955     0.020603899
      4093.34      0.68753600     0.020727098
      4097.43      0.68761274     0.020650085
      4101.53      0.68150276     0.020396346
      4105.63      0.66965260     0.020323845
      4109.74      0.67685160     0.020253291
      4113.85      0.69724420     0.020184589
      4117.96      0.70039804     0.020121207
      4122.08      0.69059110     0.020049047
      4126.20      0.68275839     0.019977766
      4130.33      0.67576041     0.019908157
      4134.46      0.66976363     0.019840132
      4138.59      0.66982048     0.019598038
      4142.73      0.67573568     0.019707030
      4146.88      0.69669842     0.019637278
      4151.02      0.70059348     0.019568187
      4155.18      0.70182078     0.019336153
      4159.33      0.68522509     0.019264682
      4163.49      0.68602798     0.019194820
      4167.65      0.67946885     0.019302236
      4171.82      0.68792011     0.019234473
      4175.99      0.69868242     0.019009818
      4180.17      0.69302248     0.018939155
      4184.35      0.68658103     0.018870007
      4188.54      0.68445786     0.018801593
      4192.72      0.68896518     0.018734240
      4196.92      0.68847399     0.018667982
      4201.11      0.67535842     0.018621346
      4205.31      0.67055719     0.018552679
      4209.52      0.66347798     0.018484660
      4213.73      0.66709624     0.018417274
      4217.94      0.67668837     0.018350832
      4222.16      0.67896587     0.018285678
      4226.38      0.69054942     0.018068410
      4230.61      0.68130652     0.018005154
      4234.84      0.67129479     0.017942339
      4239.08      0.66982669     0.018043459
      4243.32      0.68227770     0.017977917
      4247.56      0.68633255     0.017913503
      4251.81      0.68879930     0.017700003
      4256.06      0.68791782     0.017637318
      4260.32      0.68546550     0.017574889
      4264.58      0.68009304     0.017513161
      4268.84      0.67336511     0.017452251
      4273.11      0.66924743     0.017391586
      4277.38      0.65897835     0.017331509
      4281.66      0.64669323     0.017271619
      4285.94      0.64174316     0.017067110
      4290.23      0.63748622     0.017006764
      4294.52      0.63636537     0.017097317
      4298.81      0.64289637     0.017036833
      4303.11      0.65371248     0.016976881
      4307.42      0.65492805     0.016917460
      4311.72      0.64506252     0.016858450
      4316.04      0.64222835     0.016799921
      4320.35      0.64709466     0.016741514
      4324.67      0.65227185     0.016550720
      4329.00      0.65578042     0.016492012
      4333.33      0.65831808     0.016433640
      4337.66      0.66978934     0.016375385
      4342.00      0.67580562     0.016317609
      4346.34      0.66963140     0.016260303
      4350.69      0.66894592     0.016203052
      4355.04      0.67312375     0.016146571
      4359.39      0.67201200     0.016090498
      4363.75      0.67273020     0.016034448
      4368.12      0.67649014     0.015978504
      4372.48      0.67677467     0.015923235
      4376.86      0.68338612     0.015868109
      4381.23      0.69284091     0.015685212
      4385.61      0.70806206     0.015631007
      4390.00      0.70503640     0.015577141
      4394.39      0.71633632     0.015523070
      4398.79      0.72742511     0.015469804
      4403.18      0.73920953     0.015416848
      4407.59      0.75494975     0.015363663
      4412.00      0.77204813     0.015310712
      4416.41      0.78677337     0.015258637
      4420.82      0.80408786     0.015206313
      4425.25      0.80617120     0.015154243
      4429.67      0.82129400     0.015102487
      4434.10      0.83246651     0.015051048
      4438.54      0.84878458     0.014999579
      4442.97      0.86187265     0.014948593
      4447.42      0.88731811     0.014897939
      4451.86      0.90473524     0.014847138
      4456.32      0.91405464     0.014796598
      4460.77      0.93646273     0.014621142
      4465.24      0.96175675     0.014571883
      4469.70      0.97737111     0.014522741
      4474.17       1.0032664     0.014473931
      4478.65       1.0354200     0.014425698
      4483.12       1.0542798     0.014377202
      4487.61       1.0663160     0.014329269
      4492.09       1.0927435     0.014281693
      4496.59       1.1088426     0.014234278
      4501.08       1.1183702     0.014187123
      4505.58       1.1220749     0.014140514
      4510.09       1.1375703     0.014094123
      4514.60       1.1421419     0.014047870
      4519.12       1.1437532     0.013879732
      4523.63       1.1447193     0.013833519
      4528.16       1.1522897     0.013787724
      4532.69       1.1474021     0.013742057
      4537.22       1.1463820     0.013696802
      4541.76       1.1450558     0.013652013
      4546.30       1.1496485     0.013607265
      4550.85       1.1567782     0.013670103
      4555.40       1.1512797     0.013626035
      4559.95       1.1453507     0.013468839
      4564.51       1.1330536     0.013423883
      4569.08       1.1228426     0.013379546
      4573.65       1.1096566     0.013335481
      4578.22       1.1049593     0.013291949
      4582.80       1.0870842     0.013248662
      4587.38       1.0634091     0.013206041
      4591.97       1.0412350     0.013055392
      4596.56       1.0220682     0.013014203
      4601.16      0.99641490     0.012973321
      4605.76      0.98151590     0.012933002
      4610.37      0.96295463     0.012989456
      4614.98      0.94419428     0.012947501
      4619.59      0.92570704     0.012906125
      4624.21      0.91964655     0.012759397
      4628.84      0.90744527     0.012719482
      4633.47      0.89700608     0.012680140
      4638.10      0.89181863     0.012641252
      4642.74      0.87248870     0.012603313
      4647.38      0.86365563     0.012457843
      4652.03      0.85755754     0.012513722
      4656.68      0.85049171     0.012474849
      4661.34      0.82997278     0.012436735
      4666.00      0.81643327     0.012399407
      4670.67      0.79892635     0.012259685
      4675.33      0.78618975     0.012221031
      4680.01      0.77777907     0.012183339
      4684.69      0.77242871     0.012239377
      4689.38      0.76781106     0.012202840
      4694.07      0.76222968     0.012067143
      4698.76      0.76340278     0.012029492
      4703.46      0.75991098     0.011992660
      4708.16      0.76038926     0.011956397
      4712.87      0.76804505     0.011921019
      4717.58      0.77499792     0.011880019
      4722.30      0.78455030     0.011843365
      4727.03      0.78920350     0.011807244
      4731.75      0.79564747     0.011772259
      4736.48      0.80574737     0.011644780
      4741.22      0.80461537     0.011698212
      4745.96      0.79791121     0.011662521
      4750.71      0.78316333     0.011628038
      4755.46      0.78098969     0.011502159
      4760.22      0.78046504     0.011469830
      4764.97      0.78533969     0.011438357
      4769.74      0.78043653     0.011487449
      4774.51      0.78220821     0.011363415
      4779.29      0.78170383     0.011331781
      4784.07      0.78418447     0.011301091
      4788.85      0.79309515     0.011260209
      4793.64      0.80533858     0.011228376
      4798.43      0.81882362     0.011197688
      4803.23      0.84028185     0.011168010
      4808.03      0.86047519     0.011045794
      4812.84      0.87808152     0.011097338
      4817.66      0.89691012     0.011067781
      4822.48      0.91305945     0.010948883
      4827.30      0.92638814     0.010918118
      4832.12      0.92997094     0.010969933
      4836.96      0.94453839     0.010854336
      4841.79      0.94788297     0.010823530
      4846.63      0.95585449     0.010794025
      4851.48      0.96118964     0.010761695
      4856.33      0.96196773     0.010731185
      4861.19      0.95687908     0.010701848
      4866.05      0.94593975     0.010591908
      4870.92      0.93496289     0.010640857
      4875.79      0.91803920     0.010611988
      4880.66      0.90201328     0.010503004
      4885.55      0.88840532     0.010552616
      4890.43      0.87020699     0.010523863
      4895.32      0.85907897     0.010416215
      4900.22      0.83898627     0.010390702
      4905.12      0.82166479     0.010437842
      4910.02      0.81059339     0.010331320
      4914.94      0.79180299     0.010306443
      4919.85      0.77597680     0.010353781
      4924.77      0.76544279     0.010248491
      4929.70      0.76551758     0.010224453
      4934.62      0.76744583     0.010192927
      4939.56      0.76121683     0.010167985
      4944.50      0.75728308     0.010144636
      4949.44      0.75481685     0.010113312
      4954.39      0.76099047     0.010089256
      4959.35      0.75714376    0.0099879977
      4964.31      0.75262286     0.010035781
      4969.27      0.74982908     0.010012594
      4974.24      0.75039835    0.0099117631
      4979.22      0.75583018    0.0099602186
      4984.20      0.74598143    0.0098619913
      4989.18      0.75230615    0.0098376001
      4994.17      0.75175931    0.0098867852
      4999.16      0.75620835    0.0097887046
      5004.16      0.75729185    0.0097657640
      5009.17      0.75216339    0.0097409830
      5014.18      0.75223326    0.0097173322
      5019.19      0.75636873    0.0096239649
      5024.21      0.76151783    0.0096704849
      5029.23      0.76290469    0.0095771130
      5034.26      0.76414076    0.0096246138
      5039.30      0.77661050    0.0096022567
      5044.34      0.79050987    0.0095112607
      5049.39      0.80151665    0.0095574087
      5054.43      0.80897431    0.0094663709
      5059.49      0.81738753    0.0095132843
      5064.55      0.83501422    0.0094223870
      5069.61      0.84260285    0.0094040380
      5074.68      0.84840903    0.0093794955
      5079.76      0.86147287    0.0093609540
      5084.84      0.87535781    0.0093375486
      5089.92      0.88744216    0.0093189272
      5095.01      0.89689129    0.0092308862
      5100.11      0.90395475    0.0092779330
      5105.21      0.90823887    0.0091911144
      5110.31      0.91822410    0.0092379326
      5115.42      0.92239768    0.0091520541
      5120.54      0.93550439    0.0091986199
      5125.66      0.94845865    0.0091138342
      5130.79      0.96991170    0.0090955311
      5135.92      0.99076833    0.0090763095
      5141.05       1.0001826    0.0090580736
      5146.20       1.0106269    0.0090393848
      5151.34       1.0253303    0.0090216356
      5156.49       1.0440165    0.0090034663
      5161.65       1.0620343    0.0089858878
      5166.81       1.0745513    0.0089681363
      5171.98       1.0929329    0.0089510432
      5177.15       1.1184046    0.0089336284
      5182.33       1.1310447    0.0088533198
      5187.51       1.1480553    0.0088997916
      5192.70       1.1613191    0.0088203038
      5197.89       1.1685928    0.0088666072
      5203.09       1.1798043    0.0087879343
      5208.29       1.1955777    0.0088342313
      5213.50       1.2099917    0.0087565284
      5218.72       1.2287370    0.0088025954
      5223.93       1.2461405    0.0087258594
      5229.16       1.2497252    0.0087092992
      5234.39       1.2516876    0.0086962018
      5239.62       1.2473434    0.0086796746
      5244.86       1.2483155    0.0086673513
      5250.11       1.2530938    0.0086507775
      5255.36       1.2592813    0.0085762989
      5260.61       1.2618328    0.0086227902
      5265.87       1.2611027    0.0085482699
      5271.14       1.2637194    0.0085956831
      5276.41       1.2642988    0.0085211343
      5281.69       1.2634947    0.0085080124
      5286.97       1.2640020    0.0084949614
      5292.26       1.2715262    0.0084815770
      5297.55       1.2771468    0.0084699050
      5302.85       1.2947037    0.0084560668
      5308.15       1.3090038    0.0084439855
      5313.46       1.3253698    0.0084317304
      5318.77       1.3323389    0.0084193907
      5324.09       1.3449951    0.0083506421
      5329.42       1.3467632    0.0083956472
      5334.75       1.3617124    0.0083843470
      5340.08       1.3767638    0.0083155438
      5345.42       1.3950845    0.0083613356
      5350.77       1.4176249    0.0082943296
      5356.12       1.4309184    0.0082823615
      5361.48       1.4436649    0.0083287434
      5366.83       1.4648459    0.0082619723
      5372.20       1.4832128    0.0082507052
      5377.58       1.5026285    0.0082430547
      5382.95       1.5225697    0.0082313991
      5388.34       1.5477917    0.0082209042
      5393.72       1.5710396    0.0081557578
      5399.12       1.5917711    0.0082023893
      5404.52       1.6144474    0.0081925150
      5409.92       1.6273937    0.0081278959
      5415.33       1.6357295    0.0081748600
      5420.75       1.6439075    0.0081099179
      5426.17       1.6537382    0.0081016019
      5431.60       1.6545998    0.0080942211
      5437.03       1.6550630    0.0080845562
      5442.47       1.6523593    0.0080766564
      5447.91       1.6453062    0.0080696350
      5453.36       1.6321234    0.0080608830
      5458.81       1.6218677    0.0080531398
      5464.27       1.6111802    0.0080463905
      5469.73       1.6040460    0.0079853553
      5475.20       1.5872837    0.0080312039
      5480.68       1.5731777    0.0080244837
      5486.16       1.5591827    0.0079649404
      5491.65       1.5477617    0.0079577183
      5497.14       1.5343345    0.0080041502
      5502.64       1.5213005    0.0079984210
      5508.14       1.5072168    0.0079391114
      5513.65       1.4943480    0.0079327022
      5519.16       1.4814301    0.0079269392
      5524.68       1.4686260    0.0079221908
      5530.20       1.4468994    0.0079158734
      5535.73       1.4296573    0.0079101543
      5541.27       1.4082667    0.0078521918
      5546.81       1.3919641    0.0078476306
      5552.36       1.3731940    0.0078952685
      5557.91       1.3539536    0.0078901100
      5563.47       1.3420645    0.0078326468
      5569.04       1.3282491    0.0078285807
      5574.60       1.3093430    0.0078250461
      5580.18       1.2903797    0.0078724706
      5585.76       1.2750026    0.0078155051
      5591.35       1.2599450    0.0078117467
      5596.94       1.2413277    0.0078084922
      5602.53       1.2276211    0.0078056354
      5608.14       1.2120245    0.0077508063
      5613.75       1.1939135    0.0077973537
      5619.36       1.1816497    0.0077943336
      5624.98       1.1684340    0.0077916797
      5630.60       1.1522189    0.0077894050
      5636.23       1.1359889    0.0077356757
      5641.87       1.1255817    0.0077328716
      5647.51       1.1175673    0.0077303995
      5653.16       1.1180387    0.0077282910
      5658.82       1.1115107    0.0077761963
      5664.47       1.1095384    0.0077242289
      5670.14       1.1089812    0.0077220406
      5675.81       1.1164321    0.0077200769
      5681.48       1.1196192    0.0077184188
      5687.17       1.1331630    0.0077170170
      5692.85       1.1412720    0.0076651503
      5698.55       1.1459504    0.0076641959
      5704.25       1.1554658    0.0076635847
      5709.95       1.1670120    0.0077122090
      5715.66       1.1710072    0.0077118954
      5721.38       1.1821613    0.0077122660
      5727.10       1.1891915    0.0076615659
      5732.83       1.1937037    0.0076618349
      5738.56       1.1930626    0.0076627439
      5744.30       1.1889543    0.0076653517
      5750.04       1.1891399    0.0076705960
      5755.79       1.1931134    0.0076778464
      5761.55       1.1887068    0.0076853579
      5767.31       1.1815173    0.0076421866
      5773.08       1.1840509    0.0076509707
      5778.85       1.1827529    0.0076595946
      5784.63       1.1869791    0.0076656065
      5790.41       1.1939763    0.0076695459
      5796.21       1.1939844    0.0076725155
      5802.00       1.1900319    0.0076744150
      5807.81       1.1893498    0.0076750421
      5813.61       1.1879081    0.0076747372
      5819.43       1.1809096    0.0076743825
      5825.25       1.1814793    0.0076250601
      5831.07       1.1803245    0.0076256268
      5836.90       1.1736230    0.0076256503
      5842.74       1.1687896    0.0076245709
      5848.58       1.1554652    0.0076227133
      5854.43       1.1502832    0.0076203858
      5860.29       1.1451992    0.0076184343
      5866.15       1.1454233    0.0076160951
      5872.01       1.1388550    0.0076126630
      5877.89       1.1287986    0.0076096682
      5883.76       1.1271574    0.0076085796
      5889.65       1.1196017    0.0076082854
      5895.54       1.1139936    0.0076070128
      5901.43       1.1098157    0.0076059010
      5907.34       1.0969320    0.0076060605
      5913.24       1.0911682    0.0076072355
      5919.16       1.0789356    0.0076088596
      5925.08       1.0735596    0.0076108307
      5931.00       1.0690899    0.0076133115
      5936.93       1.0683014    0.0076161451
      5942.87       1.0615210    0.0076190369
      5948.81       1.0610481    0.0076219625
      5954.76       1.0590061    0.0076250973
      5960.72       1.0549713    0.0076284045
      5966.68       1.0611522    0.0075862586
      5972.64       1.0620088    0.0075897648
      5978.62       1.0624243    0.0075933852
      5984.60       1.0650273    0.0075971482
      5990.58       1.0649284    0.0076009333
      5996.57       1.0686773    0.0076048459
      6002.57       1.0745392    0.0076089078
      6008.57       1.0864182    0.0076130090
      6014.58       1.0995650    0.0076172389
      6020.60       1.1039633    0.0075762795
      6026.62       1.1140453    0.0075802243
      6032.65       1.1241965    0.0075842129
      6038.68       1.1413549    0.0075882467
      6044.72       1.1469516    0.0075924544
      6050.76       1.1499781    0.0075967899
      6056.81       1.1554263    0.0076011947
      6062.87       1.1614416    0.0075615518
      6068.93       1.1602940    0.0075662429
      6075.00       1.1573997    0.0075711026
      6081.08       1.1529714    0.0075760881
      6087.16       1.1445474    0.0076276958
      6093.25       1.1384164    0.0076331378
      6099.34       1.1346840    0.0075979303
      6105.44       1.1217070    0.0076057960
      6111.54       1.1132902    0.0076099791
      6117.66       1.1085057    0.0076158904
      6123.78       1.1001811    0.0076264045
      6129.90       1.0884214    0.0075978402
      6136.03       1.0698010    0.0076162366
      6142.17       1.0529985    0.0076863887
      6148.31       1.0372771    0.0077096694
      6154.46       1.0155722    0.0077327390
      6160.61      0.99156333    0.0077099445
      6166.77      0.97195990    0.0077253031
      6172.94      0.95875450    0.0077359178
      6179.11      0.94780568    0.0077410582
      6185.29      0.93103948    0.0077427453
      6191.48      0.92600626    0.0077359222
      6197.67      0.92237733    0.0077265503
      6203.87      0.92741039    0.0077169874
      6210.07      0.93453444    0.0076657187
      6216.28      0.94394018    0.0076638788
      6222.50      0.95269724    0.0077097192
      6228.72      0.97110088    0.0077056446
      6234.95      0.98700122    0.0076594502
      6241.19       1.0019490    0.0076600760
      6247.42       1.0193896    0.0076613249
      6253.67       1.0331253    0.0077082216
      6259.93       1.0433019    0.0076660342
      6266.19       1.0666058    0.0076687739
      6272.46       1.0797469    0.0076723916
      6278.73       1.0980915    0.0076320576
      6285.01       1.1165954    0.0076828771
      6291.29       1.1372141    0.0076883289
      6297.58       1.1553883    0.0076504760
      6303.88       1.1708154    0.0076555926
      6310.19       1.1932174    0.0077086458
      6316.50       1.2088616    0.0076737993
      6322.81       1.2300261    0.0076824886
      6329.14       1.2458242    0.0076937690
      6335.47       1.2597796    0.0077121356
      6341.80       1.2718663    0.0077220878
      6348.14       1.2809045    0.0077317524
      6354.49       1.2929423    0.0076989782
      6360.85       1.3015645    0.0077551659
      6367.21       1.3151714    0.0077622591
      6373.57       1.3208272    0.0077247970
      6379.95       1.3250288    0.0077294666
      6386.33       1.3404615    0.0077772090
      6392.72       1.3430448    0.0077363297
      6399.11       1.3522134    0.0077396968
      6405.51       1.3517446    0.0077450213
      6411.92       1.3551870    0.0077495757
      6418.32       1.3546586    0.0077548916
      6424.74       1.3481830    0.0077600979
      6431.17       1.3489903    0.0077629297
      6437.60       1.3424573    0.0077212775
      6444.04       1.3382388    0.0077685749
      6450.48       1.3339340    0.0077719747
      6456.94       1.3262341    0.0077309024
      6463.39       1.3219504    0.0077777484
      6469.85       1.3178092    0.0077358577
      6476.33       1.3131332    0.0077378167
      6482.80       1.3067974    0.0077447480
      6489.28       1.3001197    0.0077479884
      6495.77       1.2878259    0.0077101288
      6502.27       1.2709972    0.0077597745
      6508.77       1.2655732    0.0077640478
      6515.28       1.2503093    0.0077270350
      6521.80       1.2406805    0.0077759462
      6528.32       1.2217283    0.0077384277
      6534.85       1.2121913    0.0077878929
      6541.38       1.1994983    0.0077500700
      6547.92       1.1847969    0.0077555683
      6554.47       1.1819110    0.0077618233
      6561.03       1.1694861    0.0077669202
      6567.59       1.1634222    0.0077732909
      6574.16       1.1610832    0.0077781180
      6580.73       1.1507135    0.0077396061
      6587.31       1.1456546    0.0077890592
      6593.90       1.1385092    0.0077506406
      6600.50       1.1288217    0.0077998257
      6607.10       1.1258635    0.0077611972
      6613.70       1.1186413    0.0078103143
      6620.32       1.1167651    0.0077715856
      6626.94       1.1046139    0.0077340824
      6633.57       1.1018124    0.0077815839
      6640.20       1.0946143    0.0077439419
      6646.84       1.0858737    0.0077913887
      6653.49       1.0818001    0.0077535176
      6660.14       1.0765812    0.0078009511
      6666.80       1.0707216    0.0077678390
      6673.47       1.0652043    0.0078319161
      6680.14       1.0601808    0.0078265586
      6686.82       1.0464401    0.0078296186
      6693.51       1.0379285    0.0078276258
      6700.20       1.0278106    0.0078605088
      6706.90       1.0124004    0.0079130112
      6713.61      0.99904351    0.0080070287
      6720.32      0.98151173    0.0080781114
      6727.05      0.97114353    0.0082421699
      6733.77      0.96399558    0.0083302597
      6740.51      0.95256146    0.0084965401
      6747.25      0.94884900    0.0085463808
      6754.00      0.93684892    0.0086129631
      6760.75      0.93036608    0.0086267545
      6767.51      0.92993269    0.0085978383
      6774.28      0.92887607    0.0085236197
      6781.05      0.93261675    0.0084406167
      6787.84      0.93721046    0.0083325546
      6794.62      0.95061433    0.0082061292
      6801.42      0.95842606    0.0081906934
      6808.22      0.96480602    0.0081095170
      6815.03      0.97280250    0.0080500065
      6821.85      0.97981044    0.0080411451
      6828.67      0.98949105    0.0079689067
      6835.50      0.99985859    0.0079429152
      6842.33       1.0093612    0.0079238074
      6849.17       1.0160471    0.0079055285
      6856.02       1.0241337    0.0078950302
      6862.88       1.0272491    0.0078905334
      6869.74       1.0289236    0.0078886960
      6876.61       1.0314308    0.0078463123
      6883.49       1.0251943    0.0078454849
      6890.37       1.0223793    0.0078827857
      6897.27       1.0258693    0.0078331716
      6904.16       1.0156749    0.0078231640
      6911.07       1.0101682    0.0078557811
      6917.98      0.99893790    0.0078053759
      6924.89      0.98965998    0.0077990412
      6931.82      0.97110322    0.0077510416
      6938.75      0.95729632    0.0077841508
      6945.69      0.94330251    0.0077780687
      6952.64      0.93057951    0.0077328099
      6959.59      0.92503385    0.0077298967
      6966.55      0.91924970    0.0077708488
      6973.52      0.91454264    0.0077774440
      6980.49      0.91024203    0.0077449172
      6987.47      0.90695042    0.0077536062
      6994.46      0.90588694    0.0077665086
      7001.46      0.90707462    0.0077844829
      7008.46      0.90916448    0.0078196684
      7015.46      0.91317403    0.0078760852
      7022.48      0.92219957    0.0079097013
      7029.51      0.93618485    0.0080015663
      7036.53      0.93866364    0.0080033700
      7043.57      0.94359122    0.0079313341
      7050.62      0.94927384    0.0079290747
      7057.66      0.95727415    0.0078762956
      7064.72      0.97051549    0.0078144756
      7071.79      0.97434341    0.0077787765
      7078.86      0.98609211    0.0076980895
      7085.94      0.99361261    0.0075803466
      7093.03      0.99630766    0.0074976261
      7100.12      0.99742925    0.0074145554
      7107.22       1.0042770    0.0073678449
      7114.33       1.0089790    0.0072943406
      7121.44       1.0124234    0.0072276635
      7128.56       1.0154815    0.0071621710
      7135.69       1.0154800    0.0070644478
      7142.83       1.0170169    0.0070199900
      7149.97       1.0171194    0.0069365755
      7157.12       1.0172958    0.0068474113
      7164.28       1.0200315    0.0067544701
      7171.44       1.0196463    0.0066600334
      7178.62       1.0220625    0.0065695945
      7185.80       1.0232854    0.0064863762
      7192.98       1.0232600    0.0063884959
      7200.17       1.0241598    0.0063416227
      7207.38       1.0191320    0.0062696053
      7214.58       1.0188267    0.0061982542
      7221.80       1.0220733    0.0061293528
      7229.02       1.0248393    0.0060639516
      7236.25       1.0282765    0.0060020961
      7243.49       1.0311411    0.0059436896
      7250.73       1.0363078    0.0058709606
      7257.98       1.0362789    0.0058170197
      7265.24       1.0331258    0.0057647144
      7272.51       1.0350106    0.0057149063
      7279.78       1.0299060    0.0056665058
      7287.06       1.0246973    0.0057330609
      7294.35       1.0192909    0.0058134085
      7301.64       1.0145461    0.0059104067
      7308.94       1.0110079    0.0060290564
      7316.25       1.0024515    0.0061777412
      7323.57      0.99239505    0.0063816374
      7330.89      0.98071475    0.0066375169
      7338.22      0.97162737    0.0069717174
      7345.56      0.95928957    0.0074124039
      7352.91      0.94067637    0.0079926969
      7360.26      0.92641391    0.0087526448
      7367.62      0.90867753    0.0097427308
      7374.99      0.88846852     0.011018500
      7382.37      0.86574836     0.012653410
      7389.75      0.84158657     0.014723607
      7397.14      0.81272789     0.017331849
