# starting wavelength =        3651.3700
# ending wavelength =        7401.3800
# O2 telluric scale =        0
# O2 telluric shift =        0
# H2O telluric scale =        0
# H2O telluric shift =        0
      3652.50      0.81402910      0.22907999
      3656.16      0.78460968      0.19406258
      3659.81      0.79189318      0.16616637
      3663.47      0.81117386      0.14777937
      3667.14      0.82949883      0.12986749
      3670.80      0.83933452      0.11580136
      3674.48      0.85207217      0.10304905
      3678.15      0.83790740     0.094990773
      3681.83      0.81664297     0.088787388
      3685.51      0.78306470     0.083978708
      3689.20      0.74656026     0.080666184
      3692.88      0.72928450     0.077520390
      3696.58      0.72190050     0.075012858
      3700.27      0.72788866     0.072464984
      3703.98      0.66934241     0.070846594
      3707.68      0.65415648     0.069497891
      3711.39      0.63192934     0.068039123
      3715.10      0.64561602     0.067006692
      3718.81      0.66521121     0.066120326
      3722.53      0.65352300     0.065863312
      3726.26      0.63095968     0.066002520
      3729.98      0.65744476     0.066146354
      3733.71      0.64605856     0.065561072
      3737.45      0.60370844     0.065702350
      3741.18      0.57732189     0.065852313
      3744.93      0.55369136     0.065592090
      3748.67      0.56644637     0.065412033
      3752.42      0.57648044     0.065557240
      3756.17      0.53599428     0.065305299
      3759.93      0.49608476     0.065454887
      3763.69      0.50870943     0.065280032
      3767.45      0.53414838     0.065015815
      3771.22      0.51495894     0.065173265
      3774.99      0.55081620     0.065336994
      3778.77      0.57381544     0.064732856
      3782.54      0.61681888     0.064899226
      3786.33      0.60710003     0.065059376
      3790.11      0.61951772     0.064809085
      3793.90      0.61723772     0.064975643
      3797.70      0.62652173     0.064803968
      3801.50      0.62628536     0.064538930
      3805.30      0.61338007     0.064710480
      3809.10      0.61213311     0.064895238
      3812.91      0.62455443     0.064635170
      3816.73      0.63501784     0.064462000
      3820.54      0.68621221     0.064199027
      3824.36      0.69779463     0.064379596
      3828.19      0.69369927     0.064572116
      3832.02      0.75397095     0.064314183
      3835.85      0.84823614     0.064508583
      3839.68      0.89918460     0.064321620
      3843.52      0.93099197     0.064068333
      3847.37      0.98385165     0.064271274
      3851.22       1.0256054     0.064013760
      3855.07       1.0297365     0.064216612
      3858.92       1.0803005     0.064425790
      3862.78       1.0994074     0.063778098
      3866.64       1.1115910     0.063994670
      3870.51       1.1208924     0.063735386
      3874.38       1.1679653     0.063945878
      3878.26       1.2073472     0.064169175
      3882.13       1.2054983     0.063912637
      3886.02       1.2110329     0.064138101
      3889.90       1.2236598     0.063480892
      3893.79       1.2247314     0.063697879
      3897.69       1.2159050     0.063940587
      3901.59       1.2047206     0.063680388
      3905.49       1.1946951     0.063910968
      3909.39       1.1672434     0.063667190
      3913.30       1.1255138     0.063905023
      3917.22       1.0924564     0.064150449
      3921.13       1.0654370     0.063907407
      3925.06       1.0570657     0.064158789
      3928.98       1.0538590     0.063463629
      3932.91       1.0632907     0.063729267
      3936.84       1.1115432     0.063469772
      3940.78       1.1665490     0.063726887
      3944.72       1.1770219     0.064011175
      3948.67       1.1656686     0.063750008
      3952.61       1.1642109     0.064021159
      3956.57       1.1651992     0.063778179
      3960.52       1.1237797     0.064060874
      3964.48       1.0877737     0.063807201
      3968.45       1.0879240     0.064101479
      3972.42       1.0835937     0.064408460
      3976.39       1.0587548     0.064150418
      3980.37       1.0608371     0.064460328
      3984.35       1.0983967     0.064221379
      3988.33       1.1058479     0.064530447
      3992.32       1.0763242     0.063765539
      3996.31       1.0530420     0.064101450
      4000.31       1.0018339     0.063839540
      4004.31      0.95665105     0.064157548
      4008.31      0.91139019     0.064527258
      4012.32      0.88801169     0.064258065
      4016.33      0.88043916     0.064592359
      4020.35      0.91401223     0.064341036
      4024.37      0.90896052     0.064724344
      4028.40      0.91881411     0.064457152
      4032.42      0.86866574     0.064200820
      4036.46      0.85856309     0.064563130
      4040.50      0.85193005     0.063775093
      4044.54      0.80781015     0.063514686
      4048.58      0.84407578     0.063261643
      4052.63      0.88280709     0.063016702
      4056.68      0.94631425     0.062840879
      4060.74       1.0020612     0.062585325
      4064.80       1.0587341     0.062337559
      4068.86       1.0529068     0.061558504
      4072.93       1.0283118     0.061924136
      4077.01      0.99970188     0.061671783
      4081.08      0.95588765     0.061425259
      4085.17      0.95522448     0.060657069
      4089.25      0.94515706     0.060426132
      4093.34      0.98636328     0.060772031
      4097.43      0.96793282     0.060527898
      4101.53      0.97059812     0.059769011
      4105.63      0.96498479     0.059538526
      4109.74      0.92186187     0.059313883
      4113.85      0.93041047     0.059094809
      4117.96      0.91459112     0.058897364
      4122.08      0.91638893     0.058668393
      4126.20      0.93802642     0.058442160
      4130.33      0.93377851     0.058220938
      4134.46      0.91958564     0.058004497
      4138.59      0.90946160     0.057282266
      4142.73      0.90045274     0.057586407
      4146.88      0.88612243     0.057365295
      4151.02      0.88022997     0.057146248
      4155.18      0.85071428     0.056454411
      4159.33      0.86458372     0.056228830
      4163.49      0.95207248     0.056008089
      4167.65      0.95780641     0.056307480
      4171.82      0.95215934     0.056093022
      4175.99      0.94120081     0.055423918
      4180.17      0.93947433     0.055201354
      4184.35      0.93193443     0.054983349
      4188.54      0.90673190     0.054767651
      4192.72      0.86873986     0.054555159
      4196.92      0.84988293     0.054345991
      4201.11      0.86376389     0.054199470
      4205.31      0.85061567     0.053983532
      4209.52      0.85516381     0.053769625
      4213.73      0.88889432     0.053557699
      4217.94      0.94983616     0.053348653
      4222.16      0.99355098     0.053143514
      4226.38       1.0199281     0.052499075
      4230.61       1.0433878     0.052299818
      4234.84       1.0486054     0.052101991
      4239.08       1.0976664     0.052382824
      4243.32       1.0632203     0.052177191
      4247.56       1.0155927     0.051974990
      4251.81      0.99057401     0.051342934
      4256.06      0.95945967     0.051146126
      4260.32      0.91082438     0.050950194
      4264.58      0.88746992     0.050756440
      4268.84      0.84600701     0.050565190
      4273.11      0.78511329     0.050374787
      4277.38      0.75092549     0.050186216
      4281.66      0.73016456     0.049998317
      4285.94      0.73043142     0.049394372
      4290.23      0.71856216     0.049205538
      4294.52      0.73240371     0.049455710
      4298.81      0.75402286     0.049266618
      4303.11      0.78970755     0.049079183
      4307.42      0.81508366     0.048893423
      4311.72      0.78996576     0.048708991
      4316.04      0.77800578     0.048526082
      4320.35      0.74478233     0.048343652
      4324.67      0.70673092     0.047781394
      4329.00      0.73000887     0.047598486
      4333.33      0.72327176     0.047416656
      4337.66      0.74069558     0.047235300
      4342.00      0.74978096     0.047055464
      4346.34      0.76850710     0.046877113
      4350.69      0.79973172     0.046699073
      4355.04      0.80710097     0.046523377
      4359.39      0.79045127     0.046348993
      4363.75      0.81558139     0.046174793
      4368.12      0.82303798     0.046001043
      4372.48      0.80985809     0.045829377
      4376.86      0.81342632     0.045658244
      4381.23      0.83523352     0.045121718
      4385.61      0.84182526     0.044953576
      4390.00      0.82156299     0.044786557
      4394.39      0.78806201     0.044619080
      4398.79      0.79662175     0.044454044
      4403.18      0.79508708     0.044290028
      4407.59      0.81416151     0.044125484
      4412.00      0.84130089     0.043961751
      4416.41      0.85668308     0.043800655
      4420.82      0.87347224     0.043638906
      4425.25      0.87926524     0.043478145
      4429.67      0.89591013     0.043318348
      4434.10      0.92975139     0.043159611
      4438.54      0.93564279     0.043000882
      4442.97      0.92055618     0.042843703
      4447.42      0.96515286     0.042687586
      4451.86      0.99268979     0.042531189
      4456.32       1.0201277     0.042375654
      4460.77       1.0283342     0.041860827
      4465.24       1.0647299     0.041709332
      4469.70       1.0893122     0.041558283
      4474.17       1.1017623     0.041408326
      4478.65       1.1129464     0.041260152
      4483.12       1.1339650     0.041111347
      4487.61       1.1661492     0.040964272
      4492.09       1.1646467     0.040818343
      4496.59       1.1621360     0.040673007
      4501.08       1.1622019     0.040528534
      4505.58       1.1425458     0.040385746
      4510.09       1.1705914     0.040243708
      4514.60       1.1816946     0.040102185
      4519.12       1.2243420     0.039611364
      4523.63       1.2405669     0.039470307
      4528.16       1.2624737     0.039330565
      4532.69       1.3026822     0.039191303
      4537.22       1.3374471     0.039053339
      4541.76       1.3544483     0.038916836
      4546.30       1.3731135     0.038780563
      4550.85       1.3674900     0.038949546
      4555.40       1.3936378     0.038815401
      4559.95       1.4168696     0.038357794
      4564.51       1.4029832     0.038221447
      4569.08       1.4302707     0.038086998
      4573.65       1.4441168     0.037953441
      4578.22       1.4476805     0.037821527
      4582.80       1.4457783     0.037690425
      4587.38       1.4423297     0.037561342
      4591.97       1.4375213     0.037123899
      4596.56       1.4442991     0.036999195
      4601.16       1.4312072     0.036875504
      4605.76       1.4217935     0.036753520
      4610.37       1.3976000     0.036905398
      4614.98       1.3871400     0.036778955
      4619.59       1.3468563     0.036654279
      4624.21       1.3259835     0.036229409
      4628.84       1.2733578     0.036109220
      4633.47       1.2234973     0.035990719
      4638.10       1.1729799     0.035873650
      4642.74       1.1530744     0.035759386
      4647.38       1.1598351     0.035339132
      4652.03       1.1366313     0.035490194
      4656.68       1.1425090     0.035373663
      4661.34       1.1294715     0.035259388
      4666.00       1.0903097     0.035147476
      4670.67       1.0446427     0.034744470
      4675.33       1.0113221     0.034629093
      4680.01      0.98700176     0.034516540
      4684.69      0.93625233     0.034668665
      4689.38      0.90956694     0.034559582
      4694.07      0.88094796     0.034168932
      4698.76      0.88595838     0.034056983
      4703.46      0.89243164     0.033947460
      4708.16      0.88550553     0.033839663
      4712.87      0.90149049     0.033734479
      4717.58      0.89732446     0.033611856
      4722.30      0.90031614     0.033503315
      4727.03      0.92604862     0.033396391
      4731.75      0.94769957     0.033292795
      4736.48      0.97785748     0.032927014
      4741.22      0.99126647     0.033072920
      4745.96      0.99210455     0.032967685
      4750.71      0.99448761     0.032865973
      4755.46      0.99889073     0.032505398
      4760.22       1.0004004     0.032410032
      4764.97       1.0195233     0.032317186
      4769.74       1.0295630     0.032451402
      4774.51       1.0426261     0.032096699
      4779.29       1.0313941     0.032003753
      4784.07       1.0447318     0.031913585
      4788.85       1.0935454     0.031793593
      4793.64       1.0891404     0.031700424
      4798.43       1.1027184     0.031610586
      4803.23       1.0825224     0.031523702
      4808.03       1.0660710     0.031175311
      4812.84       1.0630925     0.031317354
      4817.66       1.0621668     0.031231149
      4822.48       1.0241735     0.030892536
      4827.30       1.0063638     0.030803162
      4832.12      0.98796414     0.030946421
      4836.96      0.96544704     0.030617582
      4841.79      0.95786389     0.030528416
      4846.63      0.96243589     0.030443020
      4851.48      0.95072253     0.030349081
      4856.33      0.99203327     0.030261077
      4861.19       1.0022315     0.030176478
      4866.05       1.0355735     0.029864444
      4870.92       1.0358734     0.030000498
      4875.79       1.0610989     0.029917536
      4880.66       1.0844423     0.029608598
      4885.55       1.0850199     0.029746852
      4890.43       1.0918143     0.029664541
      4895.32       1.0846914     0.029359763
      4900.22       1.1015413     0.029286785
      4905.12       1.1060474     0.029418498
      4910.02       1.0969454     0.029117284
      4914.94       1.0631860     0.029046404
      4919.85       1.0623495     0.029179007
      4924.77       1.0390998     0.028881638
      4929.70       1.0058988     0.028813426
      4934.62      0.97339164     0.028724088
      4939.56      0.95753919     0.028653535
      4944.50      0.93260531     0.028587555
      4949.44      0.93834617     0.028499188
      4954.39      0.90771876     0.028431452
      4959.35      0.89064961     0.028146237
      4964.31      0.87481287     0.028281124
      4969.27      0.85738584     0.028216094
      4974.24      0.87635521     0.027932441
      4979.22      0.87246410     0.028069565
      4984.20      0.87535271     0.027793467
      4989.18      0.89173743     0.027725422
      4994.17      0.92728245     0.027864939
      4999.16      0.91670181     0.027589552
      5004.16      0.92208347     0.027525939
      5009.17      0.91796144     0.027457467
      5014.18      0.95078907     0.027391971
      5019.19      0.95343895     0.027130265
      5024.21      0.96585847     0.027262966
      5029.23      0.97901417     0.027001440
      5034.26      0.99080163     0.027137143
      5039.30      0.97110817     0.027075743
      5044.34      0.97062340     0.026821186
      5049.39      0.97087947     0.026953528
      5054.43      0.95128259     0.026698922
      5059.49      0.96225244     0.026833559
      5064.55      0.95989310     0.026579630
      5069.61      0.97460406     0.026530050
      5074.68      0.97362374     0.026463830
      5079.76      0.98458101     0.026413875
      5084.84      0.99067916     0.026351094
      5089.92       1.0109449     0.026301083
      5095.01      0.99591116     0.026055671
      5100.11       1.0172137     0.026191641
      5105.21       1.0394476     0.025949792
      5110.31       1.0735369     0.026085320
      5115.42       1.0978137     0.025846309
      5120.54       1.1338095     0.025981367
      5125.66       1.1573554     0.025745581
      5130.79       1.1670744     0.025697087
      5135.92       1.1688760     0.025647185
      5141.05       1.1736307     0.025599035
      5146.20       1.1904471     0.025550851
      5151.34       1.1732211     0.025504238
      5156.49       1.1914575     0.025457728
      5161.65       1.1994164     0.025411754
      5166.81       1.2225110     0.025366621
      5171.98       1.2412819     0.025322176
      5177.15       1.2475181     0.025278191
      5182.33       1.2806806     0.025055682
      5187.51       1.3164689     0.025192002
      5192.70       1.3373785     0.024971920
      5197.89       1.3725528     0.025108005
      5203.09       1.3916433     0.024890321
      5208.29       1.4184684     0.025026626
      5213.50       1.4409857     0.024811775
      5218.72       1.4610657     0.024947664
      5223.93       1.4744251     0.024735643
      5229.16       1.4778581     0.024695015
      5234.39       1.4497331     0.024662693
      5239.62       1.4285166     0.024622344
      5244.86       1.4193951     0.024592340
      5250.11       1.4033996     0.024552028
      5255.36       1.4065723     0.024346599
      5260.61       1.4241467     0.024484603
      5265.87       1.4291990     0.024279123
      5271.14       1.4334489     0.024419975
      5276.41       1.4540779     0.024214486
      5281.69       1.4730251     0.024184425
      5286.97       1.4858528     0.024152828
      5292.26       1.4817547     0.024122201
      5297.55       1.4709954     0.024096540
      5302.85       1.4678817     0.024062886
      5308.15       1.4719675     0.024036210
      5313.46       1.4902696     0.024007167
      5318.77       1.4974958     0.023979915
      5324.09       1.5109943     0.023791061
      5329.42       1.4980022     0.023926288
      5334.75       1.4781273     0.023902247
      5340.08       1.4941952     0.023713287
      5345.42       1.4941578     0.023851109
      5350.77       1.5029540     0.023667300
      5356.12       1.4887041     0.023641567
      5361.48       1.4988395     0.023781444
      5366.83       1.4887974     0.023598316
      5372.20       1.5136324     0.023574799
      5377.58       1.5326975     0.023559503
      5382.95       1.5349341     0.023534986
      5388.34       1.5339528     0.023513892
      5393.72       1.5304134     0.023335382
      5399.12       1.5286992     0.023476704
      5404.52       1.5544142     0.023457567
      5409.92       1.5794921     0.023280563
      5415.33       1.6046862     0.023423169
      5420.75       1.6277847     0.023245223
      5426.17       1.6593302     0.023230734
      5431.60       1.6535621     0.023218994
      5437.03       1.6658504     0.023198374
      5442.47       1.6396897     0.023185254
      5447.91       1.6073780     0.023174720
      5453.36       1.5787625     0.023156843
      5458.81       1.5356962     0.023144335
      5464.27       1.5135081     0.023134741
      5469.73       1.4818150     0.022967856
      5475.20       1.4671609     0.023108396
      5480.68       1.4411904     0.023099045
      5486.16       1.4240807     0.022936402
      5491.65       1.3956408     0.022925638
      5497.14       1.3719552     0.023068284
      5502.64       1.3617332     0.023061990
      5508.14       1.3559637     0.022899927
      5513.65       1.3370677     0.022891701
      5519.16       1.3189204     0.022885386
      5524.68       1.3063891     0.022879451
      5530.20       1.3085388     0.022871617
      5535.73       1.2772208     0.022865555
      5541.27       1.2512422     0.022707144
      5546.81       1.2156066     0.022704443
      5552.36       1.2025471     0.022851537
      5557.91       1.1837410     0.022847262
      5563.47       1.1565908     0.022690176
      5569.04       1.1406600     0.022689057
      5574.60       1.1225119     0.022689518
      5580.18       1.1114934     0.022836493
      5585.76       1.0759515     0.022680699
      5591.35       1.0674595     0.022680617
      5596.94       1.0406785     0.022682020
      5602.53       1.0238070     0.022684633
      5608.14       1.0113341     0.022534796
      5613.75      0.99110269     0.022679714
      5619.36      0.95526217     0.022681935
      5624.98      0.92839122     0.022685247
      5630.60      0.89968063     0.022689695
      5636.23      0.89511833     0.022542835
      5641.87      0.86792398     0.022545716
      5647.51      0.86880480     0.022549591
      5653.16      0.88128938     0.022554548
      5658.82      0.88593735     0.022704163
      5664.47      0.87347150     0.022562198
      5670.14      0.85732591     0.022566984
      5675.81      0.86797911     0.022572447
      5681.48      0.87274143     0.022578827
      5687.17      0.86213147     0.022585973
      5692.85      0.87449821     0.022443966
      5698.55      0.91519425     0.022452384
      5704.25      0.93445709     0.022461841
      5709.95      0.95170257     0.022614230
      5715.66      0.96102441     0.022624615
      5721.38      0.96734489     0.022637024
      5727.10      0.94495285     0.022498062
      5732.83      0.95678878     0.022510141
      5738.56      0.95405218     0.022524111
      5744.30      0.96342134     0.022543077
      5750.04      0.95961800     0.022569787
      5755.79      0.96389828     0.022602413
      5761.55      0.97194603     0.022635884
      5767.31      0.97072029     0.022518632
      5773.08      0.95703138     0.022555848
      5778.85      0.95013555     0.022592628
      5784.63      0.95801742     0.022621815
      5790.41      0.95926054     0.022644884
      5796.21      0.95870515     0.022665089
      5802.00      0.99056114     0.022682106
      5807.81       1.0092119     0.022695343
      5813.61       1.0315941     0.022705817
      5819.43       1.0376642     0.022716133
      5825.25       1.0485227     0.022580024
      5831.07       1.0838244     0.022593020
      5836.90       1.0961476     0.022604375
      5842.74       1.1480286     0.022612472
      5848.58       1.1599995     0.022618211
      5854.43       1.1597208     0.022622526
      5860.29       1.1715172     0.022627952
      5866.15       1.1765187     0.022632205
      5872.01       1.1777092     0.022633143
      5877.89       1.1765412     0.022635368
      5883.76       1.1518123     0.022643250
      5889.65       1.1291314     0.022653501
      5895.54       1.1030076     0.022660763
      5901.43       1.0750595     0.022668463
      5907.34       1.0414478     0.022679942
      5913.24       1.0112193     0.022694456
      5919.16      0.98794360     0.022710273
      5925.08      0.97406961     0.022727104
      5931.00      0.94849606     0.022745447
      5936.93      0.94592440     0.022764830
      5942.87      0.95299996     0.022784357
      5948.81      0.98068195     0.022803969
      5954.76       1.0089419     0.022824186
      5960.72      0.98339664     0.022844900
      5966.68      0.97617621     0.022730733
      5972.64      0.98055120     0.022751928
      5978.62      0.97201265     0.022773439
      5984.60      0.96803809     0.022795358
      5990.58      0.98203218     0.022817316
      5996.57      0.97086638     0.022839629
      6002.57      0.97794948     0.022862369
      6008.57      0.97717029     0.022885178
      6014.58      0.96320362     0.022908366
      6020.60      0.95933904     0.022796842
      6026.62      0.94997346     0.022819043
      6032.65      0.97165305     0.022841335
      6038.68      0.97184152     0.022863736
      6044.72      0.98342825     0.022886629
      6050.76      0.99371640     0.022909875
      6056.81       1.0055588     0.022933289
      6062.87       1.0131463     0.022824955
      6068.93      0.99788816     0.022849106
      6075.00      0.97258425     0.022873729
      6081.08      0.98823784     0.022898696
      6087.16      0.98581354     0.023065854
      6093.25       1.0001835     0.023092158
      6099.34       1.0188141     0.022996504
      6105.44       1.0431210     0.023029966
      6111.54       1.0544520     0.023052338
      6117.66       1.0621308     0.023079885
      6123.78       1.0609040     0.023121279
      6129.90       1.0669786     0.023045242
      6136.03       1.0699226     0.023110404
      6142.17       1.0653628     0.023333880
      6148.31       1.0665587     0.023413980
      6154.46       1.0479746     0.023493521
      6160.61       1.0412352     0.023434847
      6166.77       1.0212303     0.023490975
      6172.94      0.99847712     0.023532679
      6179.11      0.98187842     0.023557682
      6185.29       1.0015572     0.023574394
      6191.48       1.0047209     0.023562731
      6197.67       1.0126358     0.023543161
      6203.87       1.0240461     0.023522884
      6210.07       1.0345278     0.023376415
      6216.28       1.0524425     0.023379540
      6222.50       1.0625267     0.023529199
      6228.72       1.0839666     0.023525299
      6234.95       1.0696651     0.023393737
      6241.19       1.0693188     0.023404034
      6247.42       1.0680124     0.023416138
      6253.67       1.0611363     0.023568855
      6259.93       1.0630050     0.023449051
      6266.19       1.0591140     0.023465546
      6272.46       1.0658376     0.023484673
      6278.73       1.0664244     0.023370120
      6285.01       1.0898944     0.023534649
      6291.29       1.1006726     0.023559192
      6297.58       1.1264877     0.023451867
      6303.88       1.1530071     0.023475210
      6310.19       1.1582028     0.023646511
      6316.50       1.1703721     0.023548069
      6322.81       1.1814289     0.023582271
      6329.14       1.1907961     0.023624173
      6335.47       1.2246389     0.023689711
      6341.80       1.2437807     0.023727562
      6348.14       1.2617049     0.023764497
      6354.49       1.2509058     0.023671755
      6360.85       1.2753766     0.023852518
      6367.21       1.2709637     0.023881348
      6373.57       1.2816787     0.023773836
      6379.95       1.2833225     0.023795024
      6386.33       1.2784692     0.023949636
      6392.72       1.2756975     0.023831192
      6399.11       1.2857480     0.023848116
      6405.51       1.3030598     0.023872612
      6411.92       1.2947762     0.023893046
      6418.32       1.2959945     0.023915755
      6424.74       1.2621705     0.023939593
      6431.17       1.2467309     0.023954463
      6437.60       1.2356800     0.023832681
      6444.04       1.2114119     0.023985396
      6450.48       1.1952612     0.024001799
      6456.94       1.1761746     0.023881445
      6463.39       1.1642719     0.024032581
      6469.85       1.1338304     0.023909384
      6476.33       1.1139058     0.023920934
      6482.80       1.0921011     0.023949115
      6489.28       1.0487052     0.023964457
      6495.77       1.0390035     0.023853190
      6502.27       1.0179093     0.024012591
      6508.77       1.0056046     0.024030877
      6515.28      0.99426822     0.023921870
      6521.80      0.99398329     0.024078798
      6528.32      0.99510990     0.023967968
      6534.85      0.99809185     0.024126486
      6541.38      0.99375966     0.024014459
      6547.92      0.97592173     0.024035992
      6554.47      0.99778265     0.024060889
      6561.03      0.99506483     0.024081004
      6567.59      0.99216483     0.024106032
      6574.16      0.98072456     0.024125120
      6580.73      0.96840141     0.024010176
      6587.31      0.96896773     0.024168053
      6593.90      0.94163352     0.024052772
      6600.50      0.92117681     0.024209996
      6607.10      0.89470636     0.024094175
      6613.70      0.85312067     0.024250660
      6620.32      0.82951676     0.024134259
      6626.94      0.81369717     0.024021510
      6633.57      0.79474855     0.024172708
      6640.20      0.78307983     0.024059274
      6646.84      0.76740514     0.024210106
      6653.49      0.76783709     0.024095727
      6660.14      0.75564053     0.024246357
      6666.80      0.75383833     0.024146475
      6673.47      0.75331703     0.024348511
      6680.14      0.74842734     0.024334472
      6686.82      0.73432858     0.024347062
      6693.51      0.72271991     0.024343279
      6700.20      0.69568345     0.024448293
      6706.90      0.68514388     0.024613633
      6713.61      0.67954609     0.024908516
      6720.32      0.64326844     0.025131733
      6727.05      0.62719797     0.025644227
      6733.77      0.62543079     0.025920305
      6740.51      0.61406065     0.026439748
      6747.25      0.60180691     0.026596798
      6754.00      0.60627587     0.026806127
      6760.75      0.59799805     0.026850640
      6767.51      0.62175749     0.026762420
      6774.28      0.61829264     0.026532916
      6781.05      0.63154857     0.026275536
      6787.84      0.63282264     0.025940182
      6794.62      0.65195632     0.025547346
      6801.42      0.64444975     0.025499970
      6808.22      0.64196913     0.025247757
      6815.03      0.63682488     0.025062884
      6821.85      0.65244476     0.025035529
      6828.67      0.66564925     0.024810717
      6835.50      0.66867122     0.024729775
      6842.33      0.67423078     0.024670161
      6849.17      0.68288953     0.024612959
      6856.02      0.72204389     0.024579818
      6862.88      0.74132135     0.024565340
      6869.74      0.74353250     0.024558867
      6876.61      0.73638307     0.024426087
      6883.49      0.74945838     0.024422447
      6890.37      0.76031527     0.024537490
      6897.27      0.77171678     0.024381810
      6904.16      0.77077964     0.024349153
      6911.07      0.78640294     0.024449192
      6917.98      0.78427073     0.024290657
      6924.89      0.79426311     0.024268962
      6931.82      0.77694283     0.024117586
      6938.75      0.79228916     0.024218659
      6945.69      0.78715790     0.024197300
      6952.64      0.79272831     0.024054153
      6959.59      0.78477684     0.024042364
      6966.55      0.77227034     0.024167181
      6973.52      0.78215583     0.024184682
      6980.49      0.76374324     0.024080673
      6987.47      0.76636516     0.024104351
      6994.46      0.74641642     0.024140945
      7001.46      0.73224536     0.024193880
      7008.46      0.72757119     0.024299397
      7015.46      0.72308746     0.024470687
      7022.48      0.70980163     0.024571371
      7029.51      0.69375193     0.024852338
      7036.53      0.70063964     0.024853131
      7043.57      0.70875316     0.024624720
      7050.62      0.71097306     0.024612770
      7057.66      0.74195333     0.024443297
      7064.72      0.74788931     0.024245740
      7071.79      0.74727340     0.024129743
      7078.86      0.78405165     0.023873618
      7085.94      0.81493805     0.023503165
      7093.03      0.84424300     0.023240757
      7100.12      0.87604163     0.022977174
      7107.22      0.90570909     0.022826789
      7114.33      0.93350875     0.022592559
      7121.44      0.96597235     0.022379283
      7128.56      0.99074025     0.022169528
      7135.69       1.0021570     0.021860604
      7142.83       1.0264297     0.021716546
      7149.97       1.0385845     0.021451219
      7157.12       1.0479438     0.021168223
      7164.28       1.0608600     0.020873658
      7171.44       1.0721967     0.020574578
      7178.62       1.0738507     0.020287855
      7185.80       1.0646048     0.020023333
      7192.98       1.0604435     0.019714204
      7200.17       1.0621971     0.019562558
      7207.38       1.0602448     0.019332561
      7214.58       1.0553539     0.019104705
      7221.80       1.0422402     0.018884436
      7229.02       1.0442356     0.018674909
      7236.25       1.0468560     0.018476254
      7243.49       1.0317930     0.018288147
      7250.73       1.0200803     0.018056714
      7257.98       1.0132692     0.017882308
      7265.24       1.0185161     0.017712907
      7272.51       1.0239301     0.017551081
      7279.78       1.0231703     0.017393532
      7287.06       1.0112018     0.017594523
      7294.35       1.0053272     0.017837719
      7301.64      0.99334490     0.018131861
      7308.94      0.98242721     0.018492235
      7316.25      0.96740712     0.018944456
      7323.57      0.95888601     0.019566852
      7330.89      0.95071213     0.020347145
      7338.22      0.93513255     0.021367029
      7345.56      0.91339072     0.022712647
      7352.91      0.89465110     0.024485239
      7360.26      0.87298477     0.026807162
      7367.62      0.84541397     0.029832668
      7374.99      0.81743649     0.033731326
      7382.37      0.78255037     0.038727448
      7389.75      0.74573644     0.045053282
      7397.14      0.70160406     0.053022350
