# starting wavelength =        3681.3480
# ending wavelength =        7401.3800
# O2 telluric scale =        0
# O2 telluric shift =        0
# H2O telluric scale =        0
# H2O telluric shift =        0
      3681.83      0.51247836     0.079995884
      3685.51      0.48578552     0.075687376
      3689.20      0.50704214     0.072739831
      3692.88      0.53326982     0.069924427
      3696.58      0.52342871     0.067683242
      3700.27      0.49106518     0.065412852
      3703.98      0.51877014     0.063972185
      3707.68      0.55204920     0.062774041
      3711.39      0.55032755     0.061485009
      3715.10      0.56651237     0.060570669
      3718.81      0.59391237     0.059787813
      3722.53      0.60497526     0.059608432
      3726.26      0.65768298     0.059778489
      3729.98      0.66755317     0.059953041
      3733.71      0.68210444     0.059467130
      3737.45      0.67455200     0.059639438
      3741.18      0.67971860     0.059819926
      3744.93      0.70752220     0.059637046
      3748.67      0.70511623     0.059508987
      3752.42      0.70416956     0.059685566
      3756.17      0.71479263     0.059509798
      3759.93      0.73154866     0.059690688
      3763.69      0.72890653     0.059567104
      3767.45      0.70938836     0.059379732
      3771.22      0.71212926     0.059568226
      3774.99      0.72233369     0.059762753
      3778.77      0.70692073     0.059255301
      3782.54      0.68735582     0.059452359
      3786.33      0.69418748     0.059644043
      3790.11      0.67394206     0.059468802
      3793.90      0.64677158     0.059666765
      3797.70      0.62151910     0.059545396
      3801.50      0.65299108     0.059356220
      3805.30      0.65019751     0.059559210
      3809.10      0.68934196     0.059774697
      3812.91      0.75245915     0.059589902
      3816.73      0.77829320     0.059466742
      3820.54      0.78648646     0.059278751
      3824.36      0.82810672     0.059490942
      3828.19      0.89186934     0.059714537
      3832.02      0.88783588     0.059531023
      3835.85      0.93738146     0.059756799
      3839.68      0.97996788     0.059620469
      3843.52       1.0096966     0.059440853
      3847.37       1.0316208     0.059675070
      3851.22       1.0246302     0.059491298
      3855.07       1.0530427     0.059725908
      3858.92       1.0681285     0.059966787
      3862.78       1.0989390     0.059410408
      3866.64       1.0954918     0.059658327
      3870.51       1.1194458     0.059472263
      3874.38       1.1322600     0.059715038
      3878.26       1.1230568     0.059970145
      3882.13       1.1216949     0.059786499
      3886.02       1.1017394     0.060044187
      3889.90       1.0454126     0.059475794
      3893.79       1.0451690     0.059725691
      3897.69       1.0009758     0.060000139
      3901.59      0.94091102     0.059812387
      3905.49      0.93168732     0.060076017
      3909.39      0.98787883     0.059903498
      3913.30      0.99721187     0.060174467
      3917.22       1.0085548     0.060453067
      3921.13      0.96386162     0.060281193
      3925.06      0.97514833     0.060565965
      3928.98      0.99691162     0.059957433
      3932.91      0.99189798     0.060255919
      3936.84       1.0127789     0.060067715
      3940.78       1.0527750     0.060358740
      3944.72       1.0594645     0.060675961
      3948.67       1.0663344     0.060486115
      3952.61       1.0665131     0.060791539
      3956.57       1.0611169     0.060618761
      3960.52       1.0769845     0.060935816
      3964.48       1.1048169     0.060752672
      3968.45       1.0991946     0.061081454
      3972.42       1.0884890     0.061422820
      3976.39       1.1188284     0.061235484
      3980.37       1.1376240     0.061580409
      3984.35       1.1483562     0.061411170
      3988.33       1.1702003     0.061756001
      3992.32       1.1860225     0.061073138
      3996.31       1.2003203     0.061444015
      4000.31       1.2303680     0.061251956
      4004.31       1.2687690     0.061606403
      4008.31       1.2726898     0.062011077
      4012.32       1.2567229     0.061812039
      4016.33       1.3151346     0.062183496
      4020.35       1.3416070     0.062001484
      4024.37       1.3341570     0.062420960
      4028.40       1.3215286     0.062223507
      4032.42       1.2757074     0.062036139
      4036.46       1.1940736     0.062436479
      4040.50       1.1588976     0.061724416
      4044.54       1.1574840     0.061532087
      4048.58       1.1507952     0.061346467
      4052.63       1.1119530     0.061168302
      4056.68       1.1104007     0.061037168
      4060.74       1.0911185     0.060848060
      4064.80       1.0423005     0.060666138
      4068.86       1.0774119     0.059956756
      4072.93       1.1139314     0.060361598
      4077.01       1.1369391     0.060174173
      4081.08       1.1681020     0.059992008
      4085.17       1.2193388     0.059290044
      4089.25       1.2014728     0.059121885
      4093.34       1.2257374     0.059508424
      4097.43       1.2095271     0.059327171
      4101.53       1.2071805     0.058631130
      4105.63       1.1933680     0.058462015
      4109.74       1.1422646     0.058298269
      4113.85       1.1291180     0.058139629
      4117.96       1.1468416     0.057983054
      4122.08       1.1415311     0.057814010
      4126.20       1.1114805     0.057647288
      4130.33       1.0561020     0.057485143
      4134.46       1.0016037     0.057327343
      4138.59      0.96770841     0.056659727
      4142.73      0.96968339     0.057006735
      4146.88       1.0407439     0.056843280
      4151.02       1.0454831     0.056681499
      4155.18       1.0515075     0.056040977
      4159.33      0.99325729     0.055871505
      4163.49      0.97468514     0.055706439
      4167.65      0.93064095     0.056049587
      4171.82      0.89262874     0.055890563
      4175.99      0.87738478     0.055268888
      4180.17      0.92188511     0.055100608
      4184.35      0.91746485     0.054936455
      4188.54      0.90927631     0.054774240
      4192.72      0.94529831     0.054614855
      4196.92      0.95307948     0.054458414
      4201.11      0.95618682     0.054346796
      4205.31      0.96133548     0.054182917
      4209.52      0.93756689     0.054020670
      4213.73      0.92595312     0.053860035
      4217.94      0.91806352     0.053701906
      4222.16      0.94368112     0.053547287
      4226.38       1.0025258     0.052940868
      4230.61       1.0256269     0.052791078
      4234.84       1.0556169     0.052642322
      4239.08       1.0412150     0.052968589
      4243.32       1.0862619     0.052811691
      4247.56       1.0838781     0.052657845
      4251.81       1.1063057     0.052059509
      4256.06       1.1311798     0.051910004
      4260.32       1.1803690     0.051761001
      4264.58       1.1660774     0.051613815
      4268.84       1.1634917     0.051468816
      4273.11       1.1541252     0.051324289
      4277.38       1.1170633     0.051181259
      4281.66       1.1071618     0.051038558
      4285.94       1.0757439     0.050462427
      4290.23       1.0349847     0.050317612
      4294.52       1.0074882     0.050613610
      4298.81      0.96731870     0.050468231
      4303.11      0.96553011     0.050324160
      4307.42      0.97981977     0.050181462
      4311.72      0.96447297     0.050039718
      4316.04      0.96424983     0.049899161
      4320.35      0.93769698     0.049758734
      4324.67      0.94980159     0.049218959
      4329.00      0.96852015     0.049076902
      4333.33       1.0089220     0.048935605
      4337.66       1.0187589     0.048794405
      4342.00       1.0362138     0.048654388
      4346.34       1.0335527     0.048515514
      4350.69       1.0281190     0.048376587
      4355.04       1.0407318     0.048239703
      4359.39       1.0297901     0.048103801
      4363.75       1.0249638     0.047967720
      4368.12       1.0224155     0.047831718
      4372.48       1.0290429     0.047697476
      4376.86       1.0292504     0.047563444
      4381.23       1.0060749     0.047040896
      4385.61       1.0039578     0.046908897
      4390.00       1.0151884     0.046777691
      4394.39      0.98689447     0.046645613
      4398.79      0.93877874     0.046515720
      4403.18      0.97742175     0.046386518
      4407.59      0.99379253     0.046256384
      4412.00       1.0153061     0.046126720
      4416.41       1.0073403     0.045999447
      4420.82       1.0170928     0.045871181
      4425.25       1.0280980     0.045743449
      4429.67       1.0379256     0.045616432
      4434.10       1.0571845     0.045490126
      4438.54       1.0664578     0.045363468
      4442.97       1.0760060     0.045238056
      4447.42       1.0731175     0.045113440
      4451.86       1.0760711     0.044988051
      4456.32       1.0867594     0.044863258
      4460.77       1.1070641     0.044363920
      4465.24       1.1215620     0.044242502
      4469.70       1.1345394     0.044120766
      4474.17       1.1451716     0.044000005
      4478.65       1.1522957     0.043880759
      4483.12       1.1666419     0.043760471
      4487.61       1.2037347     0.043641666
      4492.09       1.1903828     0.043523713
      4496.59       1.1913750     0.043406007
      4501.08       1.1925711     0.043288849
      4505.58       1.1704901     0.043173136
      4510.09       1.1755890     0.043057839
      4514.60       1.1800678     0.042942738
      4519.12       1.2003715     0.042458945
      4523.63       1.1911331     0.042343234
      4528.16       1.2034621     0.042228573
      4532.69       1.2043032     0.042114072
      4537.22       1.2265085     0.042000597
      4541.76       1.2266584     0.041888303
      4546.30       1.2374275     0.041775907
      4550.85       1.2730827     0.041997884
      4555.40       1.2936539     0.041887284
      4559.95       1.3174571     0.041432587
      4564.51       1.3557417     0.041318542
      4569.08       1.3809641     0.041206179
      4573.65       1.3800877     0.041094407
      4578.22       1.3796179     0.040984045
      4582.80       1.3684174     0.040874203
      4587.38       1.3521538     0.040766170
      4591.97       1.3137662     0.040328130
      4596.56       1.3423374     0.040223838
      4601.16       1.3247600     0.040120298
      4605.76       1.3376484     0.040018242
      4610.37       1.3258063     0.040219294
      4614.98       1.3102918     0.040111869
      4619.59       1.3112904     0.040006006
      4624.21       1.2634684     0.039576823
      4628.84       1.2042702     0.039474843
      4633.47       1.1714929     0.039374354
      4638.10       1.1493543     0.039275070
      4642.74       1.1199127     0.039178499
      4647.38       1.1038625     0.038750786
      4652.03       1.0818122     0.038949011
      4656.68       1.0777102     0.038848791
      4661.34       1.0476597     0.038750705
      4666.00      0.99048593     0.038654852
      4670.67      0.95579832     0.038242762
      4675.33      0.91765873     0.038142113
      4680.01      0.90044851     0.038044244
      4684.69      0.90524797     0.038242245
      4689.38      0.89212756     0.038147658
      4694.07      0.88441877     0.037745923
      4698.76      0.87943297     0.037647219
      4703.46      0.89805638     0.037550847
      4708.16      0.91256321     0.037456027
      4712.87      0.91189998     0.037363757
      4717.58      0.91974487     0.037259746
      4722.30      0.94396964     0.037162965
      4727.03      0.98031765     0.037067635
      4731.75      0.99986511     0.036975646
      4736.48       1.0285995     0.036595703
      4741.22       1.0604709     0.036783985
      4745.96       1.0790816     0.036689048
      4750.71       1.0594872     0.036597682
      4755.46       1.0455699     0.036221107
      4760.22       1.0373080     0.036135920
      4764.97       1.0262974     0.036053227
      4769.74       1.0230033     0.036227071
      4774.51       1.0071961     0.035854673
      4779.29      0.99704426     0.035770749
      4784.07      0.97877280     0.035689599
      4788.85      0.98841435     0.035581180
      4793.64      0.99260143     0.035495919
      4798.43      0.97114307     0.035414052
      4803.23      0.98549426     0.035335181
      4808.03       1.0133379     0.034965687
      4812.84       1.0065548     0.035145827
      4817.66      0.99852578     0.035066631
      4822.48       1.0180124     0.034706386
      4827.30       1.0479515     0.034622805
      4832.12       1.0520927     0.034799380
      4836.96       1.0389665     0.034452344
      4841.79       1.0370761     0.034367923
      4846.63       1.0824296     0.034287430
      4851.48       1.1082675     0.034202057
      4856.33       1.1376726     0.034117887
      4861.19       1.1663523     0.034037231
      4866.05       1.1587028     0.033701959
      4870.92       1.1640766     0.033871992
      4875.79       1.1855969     0.033792144
      4880.66       1.1880004     0.033458816
      4885.55       1.1597018     0.033630478
      4890.43       1.1595993     0.033550331
      4895.32       1.1509676     0.033220191
      4900.22       1.1286999     0.033149833
      4905.12       1.0775000     0.033312961
      4910.02       1.0583504     0.032985377
      4914.94       1.0591758     0.032916395
      4919.85       1.0265942     0.033079647
      4924.77      0.98932552     0.032754961
      4929.70      0.98387759     0.032688003
      4934.62      0.96778221     0.032600100
      4939.56      0.99019598     0.032529800
      4944.50      0.97955033     0.032464386
      4949.44      0.97908675     0.032376265
      4954.39      0.97942554     0.032308182
      4959.35      0.97254158     0.031993956
      4964.31      0.97891185     0.032156960
      4969.27      0.98939433     0.032090979
      4974.24      0.96854101     0.031777200
      4979.22      0.94149127     0.031941827
      4984.20      0.93751499     0.031635738
      4989.18      0.91200287     0.031564978
      4994.17      0.90168401     0.031731398
      4999.16      0.90110653     0.031424865
      5004.16      0.90396664     0.031358146
      5009.17      0.90756406     0.031287525
      5014.18      0.92084436     0.031218075
      5019.19      0.94171256     0.030925430
      5024.21      0.94670738     0.031082101
      5029.23      0.94549508     0.030788839
      5034.26      0.96233786     0.030948278
      5039.30      0.97602331     0.030881935
      5044.34      0.99413909     0.030595475
      5049.39       1.0153072     0.030749987
      5054.43       1.0191926     0.030462812
      5059.49       1.0218952     0.030619389
      5064.55       1.0069490     0.030332099
      5069.61       1.0208382     0.030277403
      5074.68       1.0255212     0.030203947
      5079.76       1.0267359     0.030148218
      5084.84       1.0594191     0.030077874
      5089.92       1.0744801     0.030021483
      5095.01       1.0889381     0.029741765
      5100.11       1.0977145     0.029897179
      5105.21       1.1105107     0.029620834
      5110.31       1.1295730     0.029775061
      5115.42       1.1215759     0.029501282
      5120.54       1.1161661     0.029654278
      5125.66       1.1073553     0.029383520
      5130.79       1.1048063     0.029326574
      5135.92       1.0964504     0.029267087
      5141.05       1.0967741     0.029209970
      5146.20       1.0967992     0.029151696
      5151.34       1.0983534     0.029095768
      5156.49       1.1130986     0.029038655
      5161.65       1.1151529     0.028982907
      5166.81       1.1282767     0.028926631
      5171.98       1.1259366     0.028872077
      5177.15       1.1516233     0.028816393
      5182.33       1.1772111     0.028557506
      5187.51       1.1749623     0.028707438
      5192.70       1.1883425     0.028450775
      5197.89       1.1964104     0.028599736
      5203.09       1.2166989     0.028345282
      5208.29       1.2379688     0.028493802
      5213.50       1.2448845     0.028242059
      5218.72       1.2691102     0.028389398
      5223.93       1.2656495     0.028140388
      5229.16       1.2767078     0.028085027
      5234.39       1.2786157     0.028041149
      5239.62       1.3206313     0.027985435
      5244.86       1.3296569     0.027943699
      5250.11       1.3419471     0.027887377
      5255.36       1.3733711     0.027644498
      5260.61       1.3817132     0.027791451
      5265.87       1.4054463     0.027548090
      5271.14       1.4139926     0.027697580
      5276.41       1.4312089     0.027453782
      5281.69       1.4096742     0.027407218
      5286.97       1.4070137     0.027361803
      5292.26       1.4122186     0.027313957
      5297.55       1.4096158     0.027271380
      5302.85       1.3955035     0.027222925
      5308.15       1.3902652     0.027178598
      5313.46       1.3813400     0.027134934
      5318.77       1.3826339     0.027089336
      5324.09       1.3573948     0.026862790
      5329.42       1.3580622     0.027002079
      5334.75       1.3463599     0.026959190
      5340.08       1.3582931     0.026732039
      5345.42       1.3327454     0.026873157
      5350.77       1.3261434     0.026651493
      5356.12       1.3405885     0.026605659
      5361.48       1.3557372     0.026747998
      5366.83       1.3440830     0.026526686
      5372.20       1.3381230     0.026482486
      5377.58       1.3514464     0.026451757
      5382.95       1.3518306     0.026405910
      5388.34       1.3686944     0.026363580
      5393.72       1.3872883     0.026146894
      5399.12       1.3999916     0.026288502
      5404.52       1.4116051     0.026247564
      5409.92       1.4219426     0.026032226
      5415.33       1.4533412     0.026174211
      5420.75       1.4780620     0.025957637
      5426.17       1.4950006     0.025920991
      5431.60       1.5217789     0.025887130
      5437.03       1.5245777     0.025848406
      5442.47       1.5323244     0.025812532
      5447.91       1.5218950     0.025779257
      5453.36       1.5137335     0.025743044
      5458.81       1.5043888     0.025707121
      5464.27       1.4726613     0.025674176
      5469.73       1.4327804     0.025469311
      5475.20       1.4052821     0.025605292
      5480.68       1.3963854     0.025571900
      5486.16       1.3427046     0.025371565
      5491.65       1.3139924     0.025336303
      5497.14       1.2851618     0.025473228
      5502.64       1.2658889     0.025442293
      5508.14       1.2390689     0.025242404
      5513.65       1.2098858     0.025209056
      5519.16       1.2128471     0.025177580
      5524.68       1.2045690     0.025152511
      5530.20       1.2132089     0.025118976
      5535.73       1.2083192     0.025087163
      5541.27       1.1868854     0.024891251
      5546.81       1.1860371     0.024862882
      5552.36       1.1891689     0.025001468
      5557.91       1.1960859     0.024970800
      5563.47       1.1681141     0.024776303
      5569.04       1.1585354     0.024748885
      5574.60       1.1455140     0.024722980
      5580.18       1.1261170     0.024859750
      5585.76       1.1155553     0.024666680
      5591.35       1.0732076     0.024639646
      5596.94       1.0544740     0.024614029
      5602.53       1.0287311     0.024589519
      5608.14       1.0189168     0.024403164
      5613.75      0.98823834     0.024535926
      5619.36      0.96206083     0.024510515
      5624.98      0.92971445     0.024486086
      5630.60      0.90632380     0.024462708
      5636.23      0.89651912     0.024279712
      5641.87      0.87544615     0.024254513
      5647.51      0.85397778     0.024230221
      5653.16      0.85241769     0.024206933
      5658.82      0.86246419     0.024342207
      5664.47      0.86755742     0.024164683
      5670.14      0.84483415     0.024140781
      5675.81      0.85744288     0.024117452
      5681.48      0.85362996     0.024094946
      5687.17      0.86021252     0.024073122
      5692.85      0.87177081     0.023896006
      5698.55      0.85613130     0.023875453
      5704.25      0.85871533     0.023855907
      5709.95      0.85719870     0.023991569
      5715.66      0.86141079     0.023972577
      5721.38      0.84720707     0.023955618
      5727.10      0.85566664     0.023782252
      5732.83      0.86416860     0.023764845
      5738.56      0.88331107     0.023749310
      5744.30      0.90289143     0.023738930
      5750.04      0.90346759     0.023736643
      5755.79      0.91023296     0.023740452
      5761.55      0.92458206     0.023744844
      5767.31      0.92897894     0.023594945
      5773.08      0.93899106     0.023603115
      5778.85      0.95246862     0.023610628
      5784.63      0.96761278     0.023609853
      5790.41      0.98843062     0.023602508
      5796.21      0.99458037     0.023592139
      5802.00      0.99681453     0.023578436
      5807.81      0.98288937     0.023560765
      5813.61      0.99235289     0.023540147
      5819.43      0.96103122     0.023519299
      5825.25      0.97912728     0.023350852
      5831.07      0.98294574     0.023332738
      5836.90       1.0049190     0.023312889
      5842.74       1.0209570     0.023289636
      5848.58       1.0329248     0.023263956
      5854.43       1.0465202     0.023236816
      5860.29       1.0407564     0.023210731
      5866.15       1.0511153     0.023183413
      5872.01       1.0794353     0.023152801
      5877.89       1.1018116     0.023123490
      5883.76       1.1005170     0.023099831
      5889.65       1.0988582     0.023078532
      5895.54       1.0704571     0.023054294
      5901.43       1.0597590     0.023030522
      5907.34       1.0459243     0.023010519
      5913.24       1.0140111     0.022993535
      5919.16      0.99141548     0.022977841
      5925.08      0.96294803     0.022963151
      5931.00      0.92296362     0.022949933
      5936.93      0.92644278     0.022937713
      5942.87      0.90469094     0.022925622
      5948.81      0.89214110     0.022913580
      5954.76      0.90884523     0.022902108
      5960.72      0.91761511     0.022891099
      5966.68      0.92618152     0.022741161
      5972.64      0.93837208     0.022730777
      5978.62      0.95177809     0.022720681
      5984.60      0.97886330     0.022710974
      5990.58      0.96933965     0.022701291
      5996.57      0.95588739     0.022691939
      6002.57      0.96471154     0.022683004
      6008.57      0.95752632     0.022674140
      6014.58      0.97622249     0.022665613
      6020.60      0.96400702     0.022520083
      6026.62      0.95316957     0.022510768
      6032.65      0.97103007     0.022501551
      6038.68      0.97025332     0.022492443
      6044.72      0.96265592     0.022483816
      6050.76      0.95516458     0.022475540
      6056.81      0.94795613     0.022467442
      6062.87      0.93920976     0.022326621
      6068.93      0.94238985     0.022319435
      6075.00      0.93077349     0.022312727
      6081.08      0.94059625     0.022306371
      6087.16      0.95987828     0.022434478
      6093.25      0.96326480     0.022429341
      6099.34      0.96062310     0.022302413
      6105.44      0.98593370     0.022304560
      6111.54       1.0229156     0.022295658
      6117.66       1.0351088     0.022291869
      6123.78       1.0359478     0.022301663
      6129.90       1.0447779     0.022194725
      6136.03       1.0473794     0.022227633
      6142.17       1.0625871     0.022408669
      6148.31       1.0681159     0.022455323
      6154.46       1.0584351     0.022501138
      6160.61       1.0487812     0.022410657
      6166.77       1.0265566     0.022433700
      6172.94       1.0417534     0.022442865
      6179.11       1.0338242     0.022436134
      6185.29       1.0185160     0.022414115
      6191.48       1.0369512     0.022373061
      6197.67       1.0713990     0.022324847
      6203.87       1.0827719     0.022276265
      6210.07       1.0893326     0.022104877
      6216.28       1.0898892     0.022078681
      6222.50       1.1192067     0.022187128
      6228.72       1.1168761     0.022154729
      6234.95       1.1001065     0.021998798
      6241.19       1.0947908     0.021980020
      6247.42       1.0987705     0.021963075
      6253.67       1.0941007     0.022074339
      6259.93       1.0911078     0.021930499
      6266.19       1.0916986     0.021917905
      6272.46       1.0926079     0.021907859
      6278.73       1.0901282     0.021769931
      6285.01       1.0865289     0.021892036
      6291.29       1.1142633     0.021887326
      6297.58       1.0996987     0.021756947
      6303.88       1.1146058     0.021751396
      6310.19       1.1542566     0.021879423
      6316.50       1.1618819     0.021757996
      6322.81       1.1602213     0.021762666
      6329.14       1.1631518     0.021774724
      6335.47       1.1675191     0.021801826
      6341.80       1.1708890     0.021809976
      6348.14       1.1706779     0.021817259
      6354.49       1.1662419     0.021702450
      6360.85       1.1690885     0.021838393
      6367.21       1.1726082     0.021838485
      6373.57       1.1685490     0.021710914
      6379.95       1.1811481     0.021704382
      6386.33       1.1807707     0.021816296
      6392.72       1.1692069     0.021679727
      6399.11       1.1603613     0.021669760
      6405.51       1.1611247     0.021660475
      6411.92       1.1589062     0.021653899
      6418.32       1.1426413     0.021649492
      6424.74       1.1389407     0.021640068
      6431.17       1.1284837     0.021628883
      6437.60       1.1080423     0.021491573
      6444.04       1.0912396     0.021601897
      6450.48       1.0802565     0.021592411
      6456.94       1.0662424     0.021457203
      6463.39       1.0471442     0.021566161
      6469.85       1.0186760     0.021429208
      6476.33       1.0009920     0.021416188
      6482.80      0.99429466     0.021412371
      6489.28      0.97932114     0.021402998
      6495.77      0.97324319     0.021277995
      6502.27      0.96146439     0.021394518
      6508.77      0.93448794     0.021388175
      6515.28      0.92217543     0.021266023
      6521.80      0.92405302     0.021380368
      6528.32      0.92427474     0.021257177
      6534.85      0.90485599     0.021372958
      6541.38      0.90064688     0.021249282
      6547.92      0.89778344     0.021246748
      6554.47      0.89313478     0.021241959
      6561.03      0.88760058     0.021238446
      6567.59      0.88054693     0.021234139
      6574.16      0.88135080     0.021230017
      6580.73      0.87595113     0.021105646
      6587.31      0.86390879     0.021221200
      6593.90      0.86234160     0.021097137
      6600.50      0.86443684     0.021212195
      6607.10      0.85816444     0.021088217
      6613.70      0.85894375     0.021202756
      6620.32      0.85842351     0.021078902
      6626.94      0.84017114     0.020958666
      6633.57      0.83883814     0.021068826
      6640.20      0.84025800     0.020948580
      6646.84      0.83268737     0.021058537
      6653.49      0.83261874     0.020938060
      6660.14      0.81812551     0.021047989
      6666.80      0.81846471     0.020940912
      6673.47      0.80250408     0.021096453
      6680.14      0.80342231     0.021065620
      6686.82      0.79053815     0.021053935
      6693.51      0.78079869     0.021032449
      6700.20      0.75672586     0.021101792
      6706.90      0.74214991     0.021227972
      6713.61      0.72707333     0.021461744
      6720.32      0.71771349     0.021635561
      6727.05      0.70077873     0.022057529
      6733.77      0.68118572     0.022275232
      6740.51      0.66359247     0.022700682
      6747.25      0.65419026     0.022813914
      6754.00      0.63820817     0.022968668
      6760.75      0.63785441     0.022987006
      6767.51      0.61515732     0.022887521
      6774.28      0.60718684     0.022668794
      6781.05      0.59197976     0.022432267
      6787.84      0.59223674     0.022126578
      6794.62      0.59957034     0.021774698
      6801.42      0.61683452     0.021716919
      6808.22      0.64126378     0.021484745
      6815.03      0.64447215     0.021309848
      6821.85      0.66622677     0.021271451
      6828.67      0.67678429     0.021064971
      6835.50      0.69809753     0.020979456
      6842.33      0.70723159     0.020915796
      6849.17      0.71309684     0.020851220
      6856.02      0.71371637     0.020807241
      6862.88      0.71768141     0.020782324
      6869.74      0.73499502     0.020761123
      6876.61      0.75899975     0.020634960
      6883.49      0.75159764     0.020616661
      6890.37      0.75212899     0.020700231
      6897.27      0.73780404     0.020555761
      6904.16      0.73573179     0.020513967
      6911.07      0.72971214     0.020585551
      6917.98      0.73630305     0.020439684
      6924.89      0.73713868     0.020407912
      6931.82      0.76101241     0.020268847
      6938.75      0.76719987     0.020342171
      6945.69      0.76698676     0.020311635
      6952.64      0.78073350     0.020180483
      6959.59      0.78310863     0.020158673
      6966.55      0.78255269     0.020252874
      6973.52      0.78690174     0.020256322
      6980.49      0.79230555     0.020159406
      6987.47      0.79782861     0.020168469
      6994.46      0.81931208     0.020188557
      7001.46      0.83399729     0.020224623
      7008.46      0.83469504     0.020302782
      7015.46      0.82912227     0.020436158
      7022.48      0.83591633     0.020511878
      7029.51      0.82579757     0.020737221
      7036.53      0.83239552     0.020728791
      7043.57      0.84023766     0.020530076
      7050.62      0.84518408     0.020511880
      7057.66      0.85464719     0.020361913
      7064.72      0.87227047     0.020189149
      7071.79      0.88729915     0.020085496
      7078.86      0.89390528     0.019865052
      7085.94      0.90381317     0.019550833
      7093.03      0.89088779     0.019326322
      7100.12      0.89105177     0.019101256
      7107.22      0.89274007     0.018971200
      7114.33      0.90581340     0.018771266
      7121.44      0.90568324     0.018589076
      7128.56      0.91877896     0.018410172
      7135.69      0.93159314     0.018149806
      7142.83      0.94934344     0.018026553
      7149.97      0.96322451     0.017802676
      7157.12      0.95946542     0.017564601
      7164.28      0.97945031     0.017317369
      7171.44      0.97753283     0.017066811
      7178.62      0.98043943     0.016826865
      7185.80      0.97514931     0.016605649
      7192.98      0.97868810     0.016347971
      7200.17      0.96936656     0.016221045
      7207.38      0.96372667     0.016029390
      7214.58      0.95630293     0.015839848
      7221.80      0.94858607     0.015656906
      7229.02      0.95619533     0.015483162
      7236.25      0.96606419     0.015318719
      7243.49      0.94994443     0.015163304
      7250.73      0.95036926     0.014972224
      7257.98      0.94642887     0.014828691
      7265.24      0.93777345     0.014689576
      7272.51      0.93462980     0.014557003
      7279.78      0.93668290     0.014428244
      7287.06      0.92404995     0.014595477
      7294.35      0.91143304     0.014797840
      7301.64      0.90758857     0.015042595
      7308.94      0.90909012     0.015342442
      7316.25      0.90412091     0.015718678
      7323.57      0.89873224     0.016236176
      7330.89      0.89887793     0.016885068
      7338.22      0.89514305     0.017733066
      7345.56      0.89733573     0.018851718
      7352.91      0.89698131     0.020325134
      7360.26      0.89571325     0.022254946
      7367.62      0.89088451     0.024769311
      7374.99      0.88569185     0.028009131
      7382.37      0.87739014     0.032160804
      7389.75      0.86680152     0.037417409
      7397.14      0.83291125     0.044039597
