# starting wavelength =        3430.9206
# ending wavelength =        7178.2700
# O2 telluric scale =        0
# O2 telluric shift =        0
# H2O telluric scale =        0
# H2O telluric shift =        0
      3433.02       1.2870325     0.027215417
      3436.45       1.2930090     0.026715778
      3439.89       1.3048194     0.026153848
      3443.33       1.3155036     0.025763144
      3446.78       1.3251936     0.025551691
      3450.22       1.3098200     0.025603276
      3453.67       1.2927228     0.025369405
      3457.13       1.2895835     0.025421644
      3460.58       1.2665415     0.025476901
      3464.04       1.2731893     0.025404405
      3467.51       1.2719420     0.025295444
      3470.98       1.2711321     0.025353650
      3474.45       1.2606234     0.025275931
      3477.92       1.2583929     0.025335479
      3481.40       1.2722970     0.025096024
      3484.88       1.2584247     0.025154361
      3488.37       1.2546069     0.025213279
      3491.86       1.2400670     0.025137473
      3495.35       1.2332092     0.025033815
      3498.84       1.2260693     0.025093602
      3502.34       1.2166337     0.025021406
      3505.84       1.2139371     0.025080681
      3509.35       1.2137766     0.024978901
      3512.86       1.2131298     0.024901452
      3516.37       1.2414608     0.024967278
      3519.89       1.2497804     0.024861661
      3523.41       1.2607323     0.024788109
      3526.93       1.2429658     0.024852245
      3530.46       1.2495165     0.024920485
      3533.99       1.2481686     0.024674245
      3537.53       1.2499886     0.024741646
      3541.06       1.2562327     0.024810078
      3544.60       1.2712090     0.024563935
      3548.15       1.2623385     0.024631893
      3551.70       1.2647305     0.024702880
      3555.25       1.2675693     0.024454935
      3558.80       1.2721736     0.024525348
      3562.36       1.2587568     0.024597149
      3565.92       1.2508989     0.024522409
      3569.49       1.2575094     0.024420275
      3573.06       1.2615954     0.024494735
      3576.64       1.2597560     0.024570592
      3580.21       1.2740708     0.024318728
      3583.79       1.2722442     0.024393500
      3587.38       1.2750407     0.024472895
      3590.96       1.2777143     0.024217436
      3594.55       1.2661113     0.024296888
      3598.15       1.2553467     0.024374854
      3601.75       1.2480191     0.024277149
      3605.35       1.2431696     0.024198794
      3608.96       1.2424634     0.024283549
      3612.56       1.2380583     0.024180136
      3616.18       1.2473617     0.024265827
      3619.79       1.2474131     0.024189202
      3623.41       1.2404473     0.024089673
      3627.04       1.2295822     0.024176049
      3630.66       1.2160251     0.024264257
      3634.29       1.2126616     0.024001679
      3637.93       1.2088746     0.024088015
      3641.57       1.2098504     0.024182731
      3645.21       1.2072014     0.024079457
      3648.86       1.2056687     0.024009196
      3652.50       1.2030450     0.024097495
      3656.16       1.2201659     0.023998748
      3659.81       1.2179152     0.024095282
      3663.47       1.2191772     0.024193535
      3667.14       1.2103263     0.023921826
      3670.80       1.2172705     0.024017328
      3674.48       1.2277770     0.023920200
      3678.15       1.2329430     0.024020520
      3681.83       1.2324715     0.024125222
      3685.51       1.2348602     0.023847095
      3689.20       1.2328024     0.023948609
      3692.88       1.2289299     0.024061802
      3696.58       1.2211005     0.023957574
      3700.27       1.2220341     0.024069203
      3703.98       1.2241089     0.023784322
      3707.68       1.2124515     0.023892294
      3711.39       1.1952452     0.024011732
      3715.10       1.2038318     0.023907786
      3718.81       1.1968301     0.024024964
      3722.53       1.2013687     0.024149043
      3726.26       1.2102540     0.023848140
      3729.98       1.2122885     0.023977052
      3733.71       1.2295188     0.023871927
      3737.45       1.2235713     0.023994378
      3741.18       1.2343773     0.024128286
      3744.93       1.2281046     0.024024586
      3748.67       1.2350343     0.024157740
      3752.42       1.2434385     0.023851439
      3756.17       1.2365668     0.023978841
      3759.93       1.2372064     0.024126029
      3763.69       1.2518475     0.024019342
      3767.45       1.2453961     0.023919190
      3771.22       1.2341469     0.023849023
      3774.99       1.2223299     0.023744661
      3778.77       1.2178046     0.023645960
      3782.54       1.2011255     0.023575356
      3786.33       1.1865897     0.023472874
      3790.11       1.1947323     0.023166789
      3793.90       1.1991065     0.023306223
      3797.70       1.1944681     0.023204830
      3801.50       1.1977261     0.022902195
      3805.30       1.2034114     0.023039834
      3809.10       1.2063433     0.022939530
      3812.91       1.2094196     0.022639963
      3816.73       1.2149225     0.022550168
      3820.54       1.2244291     0.022677605
      3824.36       1.2274345     0.022380856
      3828.19       1.2211339     0.022291598
      3832.02       1.2381356     0.022419873
      3835.85       1.2451771     0.022125452
      3839.68       1.2490718     0.022036031
      3843.52       1.2516713     0.021950652
      3847.37       1.2526052     0.021872760
      3851.22       1.2345220     0.021783430
      3855.07       1.2317341     0.021697355
      3858.92       1.2373527     0.021418105
      3862.78       1.2484428     0.021533717
      3866.64       1.2479873     0.021446914
      3870.51       1.2484634     0.021175343
      3874.38       1.2645448     0.021085315
      3878.26       1.2721753     0.021200678
      3882.13       1.2739094     0.020937003
      3886.02       1.2879751     0.020846351
      3889.90       1.2980814     0.020759817
      3893.79       1.3123823     0.020874297
      3897.69       1.3193844     0.020612651
      3901.59       1.3236585     0.020524482
      3905.49       1.3297815     0.020438581
      3909.39       1.3253482     0.020382860
      3913.30       1.3285944     0.020293331
      3917.22       1.3070352     0.020207485
      3921.13       1.2867302     0.020123580
      3925.06       1.2581300     0.019869160
      3928.98       1.2415310     0.019981055
      3932.91       1.2241389     0.019895679
      3936.84       1.2296058     0.019813679
      3940.78       1.2118332     0.019563255
      3944.72       1.2104131     0.019485368
      3948.67       1.1944941     0.019591142
      3952.61       1.1806046     0.019509230
      3956.57       1.1871610     0.019262558
      3960.52       1.2041190     0.019185169
      3964.48       1.2214760     0.019109567
      3968.45       1.2244706     0.019210851
      3972.42       1.2245053     0.018966527
      3976.39       1.2214080     0.018890279
      3980.37       1.2190920     0.018814889
      3984.35       1.2162449     0.018741118
      3988.33       1.2176016     0.018677512
      3992.32       1.2078659     0.018600614
      3996.31       1.1964896     0.018526067
      4000.31       1.1906147     0.018452196
      4004.31       1.1852884     0.018379742
      4008.31       1.1957811     0.018150252
      4012.32       1.2075936     0.018075465
      4016.33       1.2014662     0.018169951
      4020.35       1.2048123     0.018097245
      4024.37       1.2002181     0.017878394
      4028.40       1.2163598     0.017803843
      4032.42       1.2294869     0.017730132
      4036.46       1.2324199     0.017658311
      4040.50       1.2344148     0.017587272
      4044.54       1.2218590     0.017679562
      4048.58       1.2181589     0.017466761
      4052.63       1.2166954     0.017394204
      4056.68       1.2209444     0.017323363
      4060.74       1.2150546     0.017253204
      4064.80       1.2015172     0.017183714
      4068.86       1.1942803     0.016973367
      4072.93       1.1907619     0.016906517
      4077.01       1.1901718     0.016999051
      4081.08       1.1847845     0.016929541
      4085.17       1.1792930     0.016860483
      4089.25       1.1799960     0.016792847
      4093.34       1.1684272     0.016586806
      4097.43       1.1608180     0.016521136
      4101.53       1.1542099     0.016455825
      4105.63       1.1458723     0.016391702
      4109.74       1.1366448     0.016328134
      4113.85       1.1260864     0.016265226
      4117.96       1.1201431     0.016202819
      4122.08       1.1119112     0.016284660
      4126.20       1.1145278     0.016085214
      4130.33       1.1311207     0.016021939
      4134.46       1.1283361     0.015959324
      4138.59       1.1311510     0.015897137
      4142.73       1.1314275     0.015835711
      4146.88       1.1481204     0.015774436
      4151.02       1.1716675     0.015713608
      4155.18       1.1780615     0.015653500
      4159.33       1.1823555     0.015467901
      4163.49       1.1917945     0.015407359
      4167.65       1.2139237     0.015346985
      4171.82       1.2105706     0.015287425
      4175.99       1.2171954     0.015228220
      4180.17       1.2071003     0.015169517
      4184.35       1.2011119     0.015111340
      4188.54       1.1949649     0.015053448
      4192.72       1.1836817     0.014996249
      4196.92       1.1783099     0.014939337
      4201.11       1.1695161     0.014882689
      4205.31       1.1753457     0.014707418
      4209.52       1.1752120     0.014651584
      4213.73       1.1645256     0.014596359
      4217.94       1.1649608     0.014541681
      4222.16       1.1666300     0.014486923
      4226.38       1.1761317     0.014432780
      4230.61       1.1914238     0.014378991
      4234.84       1.2081402     0.014325149
      4239.08       1.2212859     0.014272176
      4243.32       1.2324337     0.014219103
      4247.56       1.2416898     0.014166379
      4251.81       1.2417919     0.014114291
      4256.06       1.2540314     0.014062102
      4260.32       1.2637999     0.014010447
      4264.58       1.2704395     0.013959050
      4268.84       1.2683035     0.013907573
      4273.11       1.2690828     0.013856634
      4277.38       1.2635782     0.013806165
      4281.66       1.2652929     0.013755611
      4285.94       1.2630223     0.013705661
      4290.23       1.2559384     0.013655942
      4294.52       1.2583944     0.013606189
      4298.81       1.2563231     0.013557250
      4303.11       1.2724049     0.013508199
      4307.42       1.2820694     0.013459485
      4311.72       1.2877657     0.013411354
      4316.04       1.2928406     0.013363152
      4320.35       1.2788671     0.013315509
      4324.67       1.2639718     0.013268344
      4329.00       1.2578430     0.013221167
      4333.33       1.2646250     0.013174326
      4337.66       1.2683227     0.013015898
      4342.00       1.2671109     0.012969999
      4346.34       1.2586509     0.012924655
      4350.69       1.2441978     0.012879999
      4355.04       1.2416881     0.012835173
      4359.39       1.2370271     0.012791104
      4363.75       1.2368526     0.012747384
      4368.12       1.2206152     0.012703843
      4372.48       1.2137810     0.012660918
      4376.86       1.2227172     0.012618333
      4381.23       1.2215737     0.012468828
      4385.61       1.2293815     0.012426077
      4390.00       1.2311095     0.012383751
      4394.39       1.2311508     0.012341532
      4398.79       1.2341345     0.012300086
      4403.18       1.2321384     0.012258771
      4407.59       1.2434989     0.012217869
      4412.00       1.2620290     0.012177651
      4416.41       1.2758440     0.012037782
      4420.82       1.2766501     0.011998728
      4425.25       1.2761400     0.012052555
      4429.67       1.2692331     0.012012389
      4434.10       1.2606301     0.011972467
      4438.54       1.2583107     0.011933439
      4442.97       1.2536916     0.011894655
      4447.42       1.2383492     0.011758911
      4451.86       1.2307936     0.011721619
      4456.32       1.2268009     0.011684899
      4460.77       1.2269128     0.011648694
      4465.24       1.2131445     0.011613032
      4469.70       1.2067239     0.011578224
      4474.17       1.2028414     0.011531061
      4478.65       1.2040882     0.011495229
      4483.12       1.2113034     0.011460023
      4487.61       1.2191422     0.011425360
      4492.09       1.2305788     0.011391305
      4496.59       1.2383402     0.011357888
      4501.08       1.2315327     0.011227997
      4505.58       1.2346900     0.011193776
      4510.09       1.2230225     0.011245769
      4514.60       1.2167824     0.011212776
      4519.12       1.2148925     0.011180492
      4523.63       1.2159509     0.011055468
      4528.16       1.2188917     0.011022372
      4532.69       1.2159109     0.010989846
      4537.22       1.2219492     0.010958234
      4541.76       1.2231263     0.010923061
      4546.30       1.2190952     0.010890314
      4550.85       1.2058589     0.010858179
      4555.40       1.1991390     0.010827024
      4559.95       1.2030015     0.010796670
      4564.51       1.1996546     0.010681559
      4569.08       1.1965472     0.010731368
      4573.65       1.1906186     0.010700827
      4578.22       1.1824787     0.010670982
      4582.80       1.1773570     0.010557785
      4587.38       1.1648958     0.010530212
      4591.97       1.1587670     0.010579357
      4596.56       1.1499891     0.010550236
      4601.16       1.1486266     0.010438938
      4605.76       1.1406633     0.010411925
      4610.37       1.1399584     0.010385906
      4614.98       1.1383025     0.010351418
      4619.59       1.1326343     0.010324561
      4624.21       1.1362991     0.010298524
      4628.84       1.1375766     0.010273674
      4633.47       1.1281536     0.010240688
      4638.10       1.1289385     0.010214683
      4642.74       1.1335957     0.010189897
      4647.38       1.1376177     0.010084241
      4652.03       1.1357916     0.010058492
      4656.68       1.1395622     0.010109248
      4661.34       1.1496075     0.010085844
      4666.00       1.1568713    0.0099812350
      4670.67       1.1613434    0.0099566614
      4675.33       1.1620698     0.010008160
      4680.01       1.1716492    0.0099065206
      4684.69       1.1737482    0.0098823149
      4689.38       1.1691570    0.0098594668
      4694.07       1.1557835    0.0098343965
      4698.76       1.1486904    0.0098104855
      4703.46       1.1361980    0.0097878265
      4708.16       1.1184905    0.0096923022
      4712.87       1.1037575    0.0097409933
      4717.58       1.0914140    0.0097187777
      4722.30       1.0748990    0.0096242664
      4727.03       1.0632495    0.0096737333
      4731.75       1.0547353    0.0096520739
      4736.48       1.0506576    0.0095588172
      4741.22       1.0584695    0.0096088565
      4745.96       1.0590376    0.0095150216
      4750.71       1.0613622    0.0094957960
      4755.46       1.0698297    0.0094781478
      4760.22       1.0716107    0.0094537486
      4764.97       1.0806851    0.0094351978
      4769.74       1.0843439    0.0094183063
      4774.51       1.0843148    0.0093943256
      4779.29       1.0809127    0.0093767585
      4784.07       1.0747750    0.0092871670
      4788.85       1.0736531    0.0093372430
      4793.64       1.0687734    0.0093206445
      4798.43       1.0650691    0.0092316096
      4803.23       1.0689851    0.0092824619
      4808.03       1.0715127    0.0091959977
      4812.84       1.0800571    0.0091783852
      4817.66       1.0842935    0.0092302228
      4822.48       1.0920295    0.0091438119
      4827.30       1.1007294    0.0091275562
      4832.12       1.1085618    0.0091106486
      4836.96       1.1088857    0.0090939999
      4841.79       1.1137208    0.0090789812
      4846.63       1.1252368    0.0090617209
      4851.48       1.1229023    0.0090465452
      4856.33       1.1257509    0.0090309239
      4861.19       1.1236025    0.0090153216
      4866.05       1.1268888    0.0089360948
      4870.92       1.1218034    0.0089854649
      4875.79       1.1231840    0.0089061612
      4880.66       1.1271133    0.0089565874
      4885.55       1.1285440    0.0088773744
      4890.43       1.1350121    0.0088655398
      4895.32       1.1358111    0.0088497072
      4900.22       1.1358806    0.0088375985
      4905.12       1.1440827    0.0088230960
      4910.02       1.1360085    0.0088110855
      4914.94       1.1322465    0.0087344082
      4919.85       1.1377186    0.0087853507
      4924.77       1.1388011    0.0087099874
      4929.70       1.1350440    0.0087609392
      4934.62       1.1313679    0.0086864124
      4939.56       1.1339304    0.0087372906
      4944.50       1.1376742    0.0086636968
      4949.44       1.1354909    0.0086520095
      4954.39       1.1336339    0.0086417346
      4959.35       1.1329090    0.0086300690
      4964.31       1.1274030    0.0086206669
      4969.27       1.1266487    0.0086093900
      4974.24       1.1253237    0.0086003412
      4979.22       1.1226418    0.0085891541
      4984.20       1.1163057    0.0085807197
      4989.18       1.1136087    0.0085700705
      4994.17       1.1066819    0.0085618272
      4999.16       1.0988818    0.0085514516
      5004.16       1.0962847    0.0085437966
      5009.17       1.1001472    0.0085340519
      5014.18       1.1031628    0.0085264333
      5019.19       1.1092190    0.0084574935
      5024.21       1.1129806    0.0085099386
      5029.23       1.1161078    0.0084418344
      5034.26       1.1230015    0.0084940771
      5039.30       1.1329099    0.0084267643
      5044.34       1.1388427    0.0084790835
      5049.39       1.1437555    0.0084127183
      5054.43       1.1411368    0.0084056905
      5059.49       1.1416361    0.0083992810
      5064.55       1.1353471    0.0083923148
      5069.61       1.1324562    0.0083870056
      5074.68       1.1317676    0.0083799813
      5079.76       1.1220090    0.0083155546
      5084.84       1.1173918    0.0083683533
      5089.92       1.1028880    0.0083040103
      5095.01       1.0894255    0.0083577457
      5100.11       1.0884056    0.0082930741
      5105.21       1.0796581    0.0082893462
      5110.31       1.0729048    0.0082833390
      5115.42       1.0734425    0.0082792101
      5120.54       1.0684652    0.0082768240
      5125.66       1.0631074    0.0082700524
      5130.79       1.0623897    0.0082672739
      5135.92       1.0610138    0.0082618624
      5141.05       1.0651927    0.0082588153
      5146.20       1.0650449    0.0081992430
      5151.34       1.0661434    0.0082513251
      5156.49       1.0726315    0.0082492722
      5161.65       1.0714628    0.0081894282
      5166.81       1.0760862    0.0082424159
      5171.98       1.0737878    0.0081844199
      5177.15       1.0749943    0.0081814051
      5182.33       1.0669730    0.0082350105
      5187.51       1.0574178    0.0081770118
      5192.70       1.0569132    0.0081748268
      5197.89       1.0582818    0.0081170997
      5203.09       1.0516241    0.0081711673
      5208.29       1.0512858    0.0081696256
      5213.50       1.0518867    0.0081125005
      5218.72       1.0476060    0.0081669901
      5223.93       1.0464116    0.0081660101
      5229.16       1.0433265    0.0081093009
      5234.39       1.0409187    0.0081642103
      5239.62       1.0444363    0.0081069135
      5244.86       1.0493779    0.0081073130
      5250.11       1.0554071    0.0081085984
      5255.36       1.0539137    0.0081058332
      5260.61       1.0496661    0.0081064454
      5265.87       1.0490589    0.0081080309
      5271.14       1.0455704    0.0080533631
      5276.41       1.0424107    0.0081068601
      5281.69       1.0292744    0.0081084663
      5286.97       1.0220876    0.0080549213
      5292.26       1.0215567    0.0080559142
      5297.55       1.0153193    0.0081103055
      5302.85       1.0068185    0.0080578872
      5308.15       1.0073291    0.0080589381
      5313.46       1.0032867    0.0080606938
      5318.77      0.99445953    0.0081158140
      5324.09      0.99099960    0.0080634870
      5329.42      0.98203886    0.0080651932
      5334.75      0.97691622    0.0080675448
      5340.08      0.97694211    0.0080695701
      5345.42      0.96953255    0.0080713097
      5350.77      0.97885432    0.0080735164
      5356.12      0.97669219    0.0080761578
      5361.48      0.98265997    0.0080244711
      5366.83      0.98721997    0.0080809337
      5372.20      0.99316571    0.0080836923
      5377.58       1.0022436    0.0080316384
      5382.95       1.0000749    0.0080351200
      5388.34       1.0022532    0.0080391378
      5393.72       1.0028871    0.0080436183
      5399.12       1.0015371    0.0080436568
      5404.52       1.0038542    0.0080474207
      5409.92      0.99693766    0.0080515988
      5415.33      0.99039678    0.0080561640
      5420.75      0.98785251    0.0080610863
      5426.17      0.98015205    0.0080109274
      5431.60      0.97544704    0.0080658463
      5437.03      0.97603744    0.0080704721
      5442.47      0.97500659    0.0080752924
      5447.91      0.96160284    0.0080269546
      5453.36      0.96676471    0.0080312238
      5458.81      0.96017154    0.0080357142
      5464.27      0.96137980    0.0080404601
      5469.73      0.95930855    0.0080455317
      5475.20      0.95864796    0.0080493401
      5480.68      0.95789957    0.0080538171
      5486.16      0.94413145    0.0080585643
      5491.65      0.93847051    0.0080635413
      5497.14      0.93342837    0.0080687457
      5502.64      0.92943539    0.0080741638
      5508.14      0.92402995    0.0080258090
      5513.65      0.92012561    0.0080315677
      5519.16      0.90922471    0.0080374921
      5524.68      0.90519428    0.0080435189
      5530.20      0.90037810    0.0080497548
      5535.73      0.90732262    0.0081055035
      5541.27      0.91139783    0.0080570472
      5546.81      0.90783411    0.0080628728
      5552.36      0.91089675    0.0080687703
      5557.91      0.91716986    0.0080747858
      5563.47      0.92001014    0.0080810197
      5569.04      0.92210734    0.0080873504
      5574.60      0.92271252    0.0080937318
      5580.18      0.92455504    0.0081002067
      5585.76      0.92349386    0.0080536402
      5591.35      0.91776670    0.0080596815
      5596.94      0.91445210    0.0080657935
      5602.53      0.91564485    0.0080720800
      5608.14      0.91786424    0.0080784401
      5613.75      0.92200717    0.0080848232
      5619.36      0.91789433    0.0080912054
      5624.98      0.91408050    0.0080977048
      5630.60      0.91925398    0.0081046595
      5636.23      0.92357038    0.0081121752
      5641.87      0.92528669    0.0080667666
      5647.51      0.93143223    0.0080740001
      5653.16      0.93283185    0.0080812829
      5658.82      0.93703370    0.0080894265
      5664.47      0.92802955    0.0080995780
      5670.14      0.92305005    0.0081122223
      5675.81      0.92182436    0.0081260428
      5681.48      0.90964902    0.0081399988
      5687.17      0.89610245    0.0081547926
      5692.85      0.88621723    0.0081704520
      5698.55      0.87161131    0.0081848574
      5704.25      0.87137856    0.0081963292
      5709.95      0.87327799    0.0082058948
      5715.66      0.87061257    0.0082143152
      5721.38      0.86454406    0.0082214306
      5727.10      0.86233690    0.0082271055
      5732.83      0.86666290    0.0082317550
      5738.56      0.86368776    0.0082366802
      5744.30      0.86741232    0.0081930104
      5750.04      0.86930831    0.0081981981
      5755.79      0.87398676    0.0082023574
      5761.55      0.86934469    0.0082054957
      5767.31      0.86587532    0.0082077595
      5773.08      0.86172095    0.0082099756
      5778.85      0.85863247    0.0082122419
      5784.63      0.85228509    0.0082135892
      5790.41      0.84648104    0.0082139149
      5796.21      0.84369565    0.0082153133
      5802.00      0.83770961    0.0081690156
      5807.81      0.83344359    0.0081718536
      5813.61      0.83155007    0.0081735267
      5819.43      0.82376422    0.0081758565
      5825.25      0.81658776    0.0081795267
      5831.07      0.80965793    0.0081840108
      5836.90      0.80929865    0.0081887954
      5842.74      0.80939631    0.0081939008
      5848.58      0.80496051    0.0081517511
      5854.43      0.80010463    0.0081576075
      5860.29      0.79097217    0.0082141897
      5866.15      0.78030438    0.0082193606
      5872.01      0.77494857    0.0082247004
      5877.89      0.76881044    0.0082300787
      5883.76      0.76823919    0.0081877240
      5889.65      0.76430311    0.0081932836
      5895.54      0.76596549    0.0081989121
      5901.43      0.77749784    0.0082045143
      5907.34      0.77819758    0.0082102802
      5913.24      0.77618767    0.0081666683
      5919.16      0.78395048    0.0082224722
      5925.08      0.78940488    0.0082274818
      5931.00      0.79666736    0.0082326593
      5936.93      0.80123437    0.0082378461
      5942.87      0.80016736    0.0081945779
      5948.81      0.79987530    0.0081988287
      5954.76      0.79946171    0.0082032497
      5960.72      0.79414823    0.0082077021
      5966.68      0.78739559    0.0082163482
      5972.64      0.78164300    0.0082199702
      5978.62      0.77533326    0.0082236184
      5984.60      0.77101078    0.0082274930
      5990.58      0.76774340    0.0082316064
      5996.57      0.76466377    0.0081889099
      6002.57      0.75813054    0.0082429899
      6008.57      0.75903797    0.0082479186
      6014.58      0.75630181    0.0082099220
      6020.60      0.75457857    0.0082149045
      6026.62      0.74969231    0.0082175844
      6032.65      0.74712357    0.0082727010
      6038.68      0.74417334    0.0082371404
      6044.72      0.74426745    0.0082520111
      6050.76      0.74280577    0.0082709251
      6056.81      0.74132084    0.0082471842
      6062.87      0.73739901    0.0083197810
      6068.93      0.74230322    0.0083400137
      6075.00      0.74375951    0.0083576125
      6081.08      0.74418808    0.0083215958
      6087.16      0.74510698    0.0083269920
      6093.25      0.74485073    0.0083776763
      6099.34      0.74553499    0.0083205443
      6105.44      0.75037003    0.0083085518
      6111.54      0.74705796    0.0082947013
      6117.66      0.74297011    0.0082802941
      6123.78      0.74232918    0.0082700931
      6129.90      0.74028154    0.0082647207
      6136.03      0.74264762    0.0082116790
      6142.17      0.74399551    0.0082498020
      6148.31      0.74210239    0.0082435944
      6154.46      0.74884547    0.0081922065
      6160.61      0.75948050    0.0082349714
      6166.77      0.75838634    0.0081838387
      6172.94      0.76203723    0.0081806589
      6179.11      0.76404216    0.0081784449
      6185.29      0.76890961    0.0081753199
      6191.48      0.77401893    0.0081736691
      6197.67      0.77733543    0.0081256595
      6203.87      0.77768107    0.0081718779
      6210.07      0.77668234    0.0081711762
      6216.28      0.77670867    0.0081232238
      6222.50      0.77144290    0.0081705261
      6228.72      0.76553463    0.0081260080
      6234.95      0.76235758    0.0081283568
      6241.19      0.76020631    0.0081812741
      6247.42      0.75923601    0.0081403258
      6253.67      0.75839407    0.0081427335
      6259.93      0.76244196    0.0081472223
      6266.19      0.76027281    0.0081478241
      6272.46      0.76045935    0.0081031364
      6278.73      0.76024969    0.0081474888
      6285.01      0.75583798    0.0080976758
      6291.29      0.76143448    0.0081377242
      6297.58      0.76331112    0.0080846548
      6303.88      0.76469383    0.0080778177
      6310.19      0.77000385    0.0081157054
      6316.50      0.76692899    0.0080642084
      6322.81      0.76398327    0.0081041526
      6329.14      0.76299936    0.0080521783
      6335.47      0.75919775    0.0080456981
      6341.80      0.75507614    0.0080354833
      6348.14      0.75475628    0.0080268438
      6354.49      0.75384171    0.0080162048
      6360.85      0.74968463    0.0080084298
      6367.21      0.75322627    0.0079531542
      6373.57      0.75542800    0.0079870189
      6379.95      0.75362426    0.0079308242
      6386.33      0.74973561    0.0079214202
      6392.72      0.74213119    0.0079117789
      6399.11      0.73456076    0.0079036315
      6405.51      0.73158071    0.0078940679
      6411.92      0.73330888    0.0078858260
      6418.32      0.73380106    0.0078761635
      6424.74      0.73409226    0.0078240114
      6431.17      0.73654451    0.0078570764
      6437.60      0.73424692    0.0078046091
      6444.04      0.73323271    0.0077935066
      6450.48      0.72936327    0.0077843296
      6456.94      0.72416654    0.0077725730
      6463.39      0.72064083    0.0077630216
      6469.85      0.72258191    0.0077502950
      6476.33      0.72048638    0.0077403664
      6482.80      0.71860468    0.0077267710
      6489.28      0.72639152    0.0076720888
      6495.77      0.72618151    0.0077020177
      6502.27      0.72747871    0.0076465523
      6508.77      0.73641204    0.0076331028
      6515.28      0.74002777    0.0076197729
      6521.80      0.74477992    0.0076052611
      6528.32      0.76102482    0.0076327701
      6534.85      0.77194431    0.0075761481
      6541.38      0.78499566    0.0075608916
      6547.92      0.79028812    0.0075458283
      6554.47      0.80074918    0.0075293652
      6561.03      0.79842841    0.0074728654
      6567.59      0.79376832    0.0074973924
      6574.16      0.78320506    0.0074506284
      6580.73      0.76868849    0.0074625022
      6587.31      0.75742814    0.0075002133
      6593.90      0.74215721    0.0074359772
      6600.50      0.72669477    0.0074210947
      6607.10      0.71581640    0.0074361786
      6613.70      0.70414169    0.0074818174
      6620.32      0.69489616    0.0075553034
      6626.94      0.68864590    0.0076298078
      6633.57      0.68182407    0.0077337903
      6640.20      0.67791408    0.0077858141
      6646.84      0.68047780    0.0078689840
      6653.49      0.68309208    0.0079608059
      6660.14      0.68055848    0.0079231617
      6666.80      0.68253512    0.0078892300
      6673.47      0.68171145    0.0078680627
      6680.14      0.68319458    0.0077216884
      6686.82      0.67487610    0.0075975350
      6693.51      0.66754884    0.0074744348
      6700.20      0.66095821    0.0073877113
      6706.90      0.65481976    0.0073116559
      6713.61      0.65053355    0.0072395304
      6720.32      0.64931818    0.0071234707
      6727.05      0.65236568    0.0070521596
      6733.77      0.64550525    0.0070394393
      6740.51      0.64254932    0.0069540559
      6747.25      0.63738917    0.0069040669
      6754.00      0.63490572    0.0068597724
      6760.75      0.63435677    0.0068280582
      6767.51      0.63208279    0.0067913851
      6774.28      0.63038688    0.0067571123
      6781.05      0.62163695    0.0067229231
      6787.84      0.62146942    0.0066543998
      6794.62      0.61587153    0.0066156558
      6801.42      0.61148957    0.0065431595
      6808.22      0.61097367    0.0064695837
      6815.03      0.60948150    0.0063616238
      6821.85      0.61025369    0.0062575880
      6828.67      0.61098669    0.0061908151
      6835.50      0.61570124    0.0060909992
      6842.33      0.61446308    0.0059935648
      6849.17      0.62158934    0.0058996164
      6856.02      0.62188399    0.0058191592
      6862.88      0.62107312    0.0057381024
      6869.74      0.62148577    0.0056579653
      6876.61      0.61999245    0.0055772369
      6883.49      0.61816835    0.0055228292
      6890.37      0.61635668    0.0054475382
      6897.27      0.61588476    0.0053819284
      6904.16      0.61658552    0.0053336592
      6911.07      0.61453586    0.0052978693
      6917.98      0.60623064    0.0052801336
      6924.89      0.60611662    0.0052180221
      6931.82      0.60594872    0.0051703328
      6938.75      0.60286155    0.0051195623
      6945.69      0.59983430    0.0050660227
      6952.64      0.59654417    0.0050065358
      6959.59      0.59402490    0.0049651279
      6966.55      0.58891851    0.0048986364
      6973.52      0.58729971    0.0048283522
      6980.49      0.58550716    0.0047532540
      6987.47      0.58401157    0.0046746009
      6994.46      0.58254501    0.0045950512
      7001.46      0.58268061    0.0045148153
      7008.46      0.58486295    0.0044339415
      7015.46      0.58090089    0.0043520215
      7022.48      0.57958367    0.0042796847
      7029.51      0.58234873    0.0041957737
      7036.53      0.57994875    0.0041123791
      7043.57      0.58073555    0.0040297384
      7050.62      0.58251994    0.0039473139
      7057.66      0.58369910    0.0038646812
      7064.72      0.58600074    0.0038567159
      7071.79      0.58552497    0.0038928356
      7078.86      0.58423989    0.0039381803
      7085.94      0.58464641    0.0039956927
      7093.03      0.58421276    0.0040694422
      7100.12      0.58411103    0.0041658421
      7107.22      0.58208715    0.0042961867
      7114.33      0.58143433    0.0044741146
      7121.44      0.57934616    0.0047165195
      7128.56      0.57771262    0.0050394943
      7135.69      0.57493825    0.0054624811
      7142.83      0.57365208    0.0060110908
      7149.97      0.56922615    0.0067194599
      7157.12      0.56274625    0.0076310085
      7164.28      0.55588843    0.0087891782
      7171.44      0.54738514     0.010250880
