# starting wavelength =        3651.3700
# ending wavelength =        7401.3800
# O2 telluric scale =        0
# O2 telluric shift =        0
# H2O telluric scale =        0
# H2O telluric shift =        0
      3652.50      0.41314344      0.17003716
      3656.16      0.43788744      0.14405342
      3659.81      0.46416004      0.12335300
      3663.47      0.45683759      0.10971586
      3667.14      0.46653318     0.096423189
      3670.80      0.45932986     0.085984502
      3674.48      0.46497477     0.076520616
      3678.15      0.44181999     0.070541176
      3681.83      0.46148177     0.065938625
      3685.51      0.47334013     0.062371357
      3689.20      0.45513114     0.059917295
      3692.88      0.45396968     0.057584143
      3696.58      0.44208644     0.055724864
      3700.27      0.45244936     0.053836761
      3703.98      0.46466134     0.052637702
      3707.68      0.45289861     0.051638845
      3711.39      0.45865342     0.050559571
      3715.10      0.43522613     0.049795400
      3718.81      0.42770298     0.049139680
      3722.53      0.39699215     0.048957226
      3726.26      0.38273501     0.049067801
      3729.98      0.38333486     0.049181858
      3733.71      0.38114246     0.048753855
      3737.45      0.36088865     0.048866007
      3741.18      0.34836733     0.048984656
      3744.93      0.34957461     0.048799660
      3748.67      0.35586017     0.048671406
      3752.42      0.33577172     0.048786561
      3756.17      0.34783178     0.048607635
      3759.93      0.36761417     0.048726084
      3763.69      0.38393079     0.048601637
      3767.45      0.38383326     0.048413473
      3771.22      0.41410836     0.048537820
      3774.99      0.43251873     0.048666880
      3778.77      0.43794491     0.048224052
      3782.54      0.43315000     0.048355081
      3786.33      0.42781579     0.048481519
      3790.11      0.43605285     0.048303572
      3793.90      0.45410537     0.048434834
      3797.70      0.46222972     0.048312582
      3801.50      0.46400505     0.048123551
      3805.30      0.48173250     0.048258578
      3809.10      0.51755599     0.048403501
      3812.91      0.52111415     0.048218116
      3816.73      0.52573915     0.048093906
      3820.54      0.53042624     0.047906998
      3824.36      0.57002215     0.048048846
      3828.19      0.57087557     0.048199646
      3832.02      0.56764652     0.048015707
      3835.85      0.56484994     0.048167964
      3839.68      0.57912087     0.048034111
      3843.52      0.59823416     0.047853529
      3847.37      0.64079902     0.048012233
      3851.22      0.66893249     0.047828437
      3855.07      0.65752099     0.047987131
      3858.92      0.66427693     0.048150603
      3862.78      0.69067067     0.047673709
      3866.64      0.71476953     0.047842741
      3870.51      0.76238905     0.047657436
      3874.38      0.78829877     0.047821956
      3878.26      0.83901795     0.047996103
      3882.13      0.85069744     0.047812824
      3886.02      0.88165874     0.047988650
      3889.90      0.87197095     0.047504090
      3893.79      0.85208484     0.047673583
      3897.69      0.85491702     0.047862383
      3901.59      0.83611578     0.047676204
      3905.49      0.81337187     0.047855993
      3909.39      0.79812369     0.047682056
      3913.30      0.78297140     0.047867330
      3917.22      0.75690887     0.048058355
      3921.13      0.72545948     0.047884932
      3925.06      0.70576870     0.048080485
      3928.98      0.72073801     0.047566717
      3932.91      0.68450633     0.047772983
      3936.84      0.63966534     0.047587054
      3940.78      0.61958319     0.047786990
      3944.72      0.62119255     0.048007366
      3948.67      0.64435988     0.047820137
      3952.61      0.63417448     0.048030732
      3956.57      0.62833863     0.047857098
      3960.52      0.64167718     0.048076433
      3964.48      0.66274268     0.047894703
      3968.45      0.69113424     0.048122825
      3972.42      0.68747628     0.048360538
      3976.39      0.70867533     0.048175492
      3980.37      0.72876717     0.048415488
      3984.35      0.72782220     0.048244744
      3988.33      0.72447331     0.048484194
      3992.32      0.73797016     0.047916729
      3996.31      0.71216745     0.048176374
      4000.31      0.75606523     0.047988197
      4004.31      0.75853597     0.048234478
      4008.31      0.72612056     0.048519700
      4012.32      0.75362597     0.048326013
      4016.33      0.70212215     0.048584700
      4020.35      0.66534960     0.048404420
      4024.37      0.61481489     0.048700043
      4028.40      0.62707802     0.048507754
      4032.42      0.60796870     0.048323565
      4036.46      0.60129910     0.048603547
      4040.50      0.59597328     0.048017539
      4044.54      0.56134137     0.047830089
      4048.58      0.52615093     0.047648104
      4052.63      0.54460537     0.047472147
      4056.68      0.55110238     0.047345370
      4060.74      0.54206054     0.047161305
      4064.80      0.55100441     0.046983038
      4068.86      0.55579185     0.046402841
      4072.93      0.57115584     0.046685396
      4077.01      0.60051363     0.046503481
      4081.08      0.63595277     0.046325883
      4085.17      0.64879420     0.045753378
      4089.25      0.64815574     0.045587324
      4093.34      0.68253325     0.045855084
      4097.43      0.68430340     0.045679025
      4101.53      0.70298867     0.045113041
      4105.63      0.71932983     0.044947080
      4109.74      0.70250270     0.044785460
      4113.85      0.67144148     0.044627978
      4117.96      0.67341705     0.044484136
      4122.08      0.66516106     0.044319070
      4126.20      0.68971927     0.044155988
      4130.33      0.69817401     0.043996635
      4134.46      0.69549148     0.043840821
      4138.59      0.65085730     0.043301337
      4142.73      0.65942048     0.043537585
      4146.88      0.63974388     0.043378101
      4151.02      0.65612730     0.043220065
      4155.18      0.66421642     0.042703101
      4159.33      0.64291441     0.042539928
      4163.49      0.62831185     0.042380353
      4167.65      0.61687084     0.042613089
      4171.82      0.59168407     0.042458198
      4175.99      0.58963483     0.041957852
      4180.17      0.60212461     0.041796644
      4184.35      0.57687458     0.041638812
      4188.54      0.55628009     0.041482659
      4192.72      0.55685360     0.041328867
      4196.92      0.59682800     0.041177531
      4201.11      0.61436152     0.041071233
      4205.31      0.64550149     0.040914650
      4209.52      0.63920829     0.040759533
      4213.73      0.64305948     0.040605854
      4217.94      0.65529206     0.040454285
      4222.16      0.69024624     0.040305609
      4226.38      0.68981732     0.039822528
      4230.61      0.72800348     0.039678135
      4234.84      0.69997936     0.039534759
      4239.08      0.67449374     0.039753440
      4243.32      0.64436025     0.039604077
      4247.56      0.61549600     0.039457245
      4251.81      0.57944302     0.038982902
      4256.06      0.57061849     0.038839987
      4260.32      0.53421239     0.038697674
      4264.58      0.49354765     0.038556943
      4268.84      0.51972704     0.038418046
      4273.11      0.51661067     0.038279732
      4277.38      0.51035769     0.038142745
      4281.66      0.50792362     0.038006207
      4285.94      0.51541099     0.037552279
      4290.23      0.51905124     0.037414855
      4294.52      0.52651132     0.037610186
      4298.81      0.55940810     0.037472490
      4303.11      0.58222343     0.037335988
      4307.42      0.57560503     0.037200704
      4311.72      0.59269239     0.037066358
      4316.04      0.54902036     0.036933108
      4320.35      0.55029173     0.036800165
      4324.67      0.53118325     0.036377015
      4329.00      0.51636840     0.036243527
      4333.33      0.50874590     0.036110800
      4337.66      0.51229366     0.035978368
      4342.00      0.49754873     0.035847027
      4346.34      0.51181340     0.035716755
      4350.69      0.55000930     0.035586657
      4355.04      0.53054681     0.035458278
      4359.39      0.54073288     0.035330834
      4363.75      0.55341387     0.035203471
      4368.12      0.57780967     0.035076387
      4372.48      0.61461951     0.034950822
      4376.86      0.63189624     0.034825605
      4381.23      0.63482275     0.034420724
      4385.61      0.64987947     0.034297630
      4390.00      0.63906251     0.034175320
      4394.39      0.63739219     0.034052606
      4398.79      0.64711453     0.033931691
      4403.18      0.65660806     0.033811491
      4407.59      0.65780627     0.033690826
      4412.00      0.67565067     0.033570717
      4416.41      0.70059657     0.033452562
      4420.82      0.71785428     0.033333894
      4425.25      0.73626571     0.033215822
      4429.67      0.78086771     0.033098475
      4434.10      0.82004585     0.032981905
      4438.54      0.83392743     0.032865224
      4442.97      0.86544980     0.032749677
      4447.42      0.90960842     0.032634896
      4451.86      0.94661429     0.032519832
      4456.32      0.98304385     0.032405377
      4460.77      0.99357134     0.032016792
      4465.24      0.99788272     0.031905250
      4469.70       1.0352652     0.031794002
      4474.17       1.0384195     0.031683517
      4478.65       1.0480473     0.031574343
      4483.12       1.0698871     0.031464620
      4487.61       1.0886146     0.031356167
      4492.09       1.1032617     0.031248531
      4496.59       1.1318339     0.031141287
      4501.08       1.1565510     0.031034645
      4505.58       1.1521435     0.030929234
      4510.09       1.1605378     0.030824340
      4514.60       1.1521383     0.030719782
      4519.12       1.1641748     0.030348187
      4523.63       1.1508371     0.030243826
      4528.16       1.1318028     0.030140421
      4532.69       1.1230606     0.030037311
      4537.22       1.1263916     0.029935161
      4541.76       1.1181947     0.029834061
      4546.30       1.1192739     0.029733078
      4550.85       1.1065359     0.029866677
      4555.40       1.1078362     0.029767235
      4559.95       1.0667763     0.029420199
      4564.51       1.0510926     0.029318920
      4569.08       1.0410187     0.029219034
      4573.65       1.0408421     0.029119778
      4578.22       1.0216707     0.029021724
      4582.80       1.0138691     0.028924238
      4587.38      0.97635605     0.028828243
      4591.97      0.95840098     0.028496003
      4596.56      0.92759022     0.028403225
      4601.16      0.91117799     0.028311174
      4605.76      0.91633441     0.028220378
      4610.37      0.88410761     0.028340293
      4614.98      0.85309044     0.028245981
      4619.59      0.85821093     0.028152966
      4624.21      0.86877393     0.027829743
      4628.84      0.85190452     0.027740018
      4633.47      0.85296597     0.027651576
      4638.10      0.82611492     0.027564162
      4642.74      0.80467129     0.027478845
      4647.38      0.79093833     0.027158719
      4652.03      0.78195027     0.027277592
      4656.68      0.77309681     0.027190364
      4661.34      0.75622827     0.027104813
      4666.00      0.72936175     0.027021025
      4670.67      0.70898793     0.026713743
      4675.33      0.69529284     0.026627155
      4680.01      0.69491289     0.026542696
      4684.69      0.67621997     0.026662075
      4689.38      0.68669573     0.026580187
      4694.07      0.67883412     0.026281994
      4698.76      0.68237045     0.026197775
      4703.46      0.67947323     0.026115373
      4708.16      0.69350961     0.026034248
      4712.87      0.69173624     0.025955082
      4717.58      0.70231440     0.025863012
      4722.30      0.70895775     0.025781148
      4727.03      0.71788273     0.025700480
      4731.75      0.71139837     0.025622327
      4736.48      0.73385456     0.025342572
      4741.22      0.71727383     0.025456586
      4745.96      0.70321047     0.025377001
      4750.71      0.70546649     0.025300083
      4755.46      0.69550528     0.025024047
      4760.22      0.68972515     0.024951899
      4764.97      0.68848801     0.024881648
      4769.74      0.68777586     0.024986375
      4774.51      0.70057947     0.024714582
      4779.29      0.70286576     0.024644090
      4784.07      0.70664061     0.024575687
      4788.85      0.72341595     0.024484611
      4793.64      0.73982696     0.024413801
      4798.43      0.75591459     0.024345504
      4803.23      0.76775479     0.024279445
      4808.03      0.79463189     0.024012039
      4812.84      0.80522022     0.024122332
      4817.66      0.82301107     0.024056642
      4822.48      0.82631859     0.023796578
      4827.30      0.85775612     0.023728345
      4832.12      0.86992212     0.023839374
      4836.96      0.88643326     0.023586649
      4841.79      0.92088952     0.023518432
      4846.63      0.92464406     0.023453074
      4851.48      0.91828118     0.023381214
      4856.33      0.91603092     0.023313749
      4861.19      0.90792543     0.023248864
      4866.05      0.88938466     0.023008737
      4870.92      0.87457787     0.023113801
      4875.79      0.84518627     0.023050037
      4880.66      0.82394958     0.022812133
      4885.55      0.80356179     0.022918738
      4890.43      0.77564398     0.022855338
      4895.32      0.75221962     0.022620476
      4900.22      0.72510748     0.022564182
      4905.12      0.70325335     0.022665538
      4910.02      0.69321685     0.022433272
      4914.94      0.68815835     0.022378459
      4919.85      0.68830377     0.022480345
      4924.77      0.68465544     0.022250893
      4929.70      0.69462358     0.022198006
      4934.62      0.70473205     0.022128676
      4939.56      0.69749982     0.022073895
      4944.50      0.69375018     0.022022605
      4949.44      0.69493387     0.021953847
      4954.39      0.69862992     0.021901131
      4959.35      0.69529273     0.021680714
      4964.31      0.68904399     0.021783880
      4969.27      0.68448690     0.021733111
      4974.24      0.69607048     0.021513782
      4979.22      0.71108643     0.021618516
      4984.20      0.72041675     0.021404926
      4989.18      0.71782661     0.021351675
      4994.17      0.73083876     0.021458091
      4999.16      0.74479284     0.021244939
      5004.16      0.75710787     0.021194941
      5009.17      0.75290796     0.021140915
      5014.18      0.75778998     0.021089439
      5019.19      0.75873048     0.020886673
      5024.21      0.77725084     0.020987530
      5029.23      0.77989042     0.020784839
      5034.26      0.78670249     0.020887893
      5039.30      0.79188710     0.020839385
      5044.34      0.78308632     0.020641958
      5049.39      0.78779747     0.020742192
      5054.43      0.79586393     0.020544744
      5059.49      0.80669767     0.020646719
      5064.55      0.82683091     0.020449649
      5069.61      0.84300655     0.020410029
      5074.68      0.84466153     0.020357072
      5079.76      0.84885737     0.020317099
      5084.84      0.87377437     0.020266702
      5089.92      0.89561519     0.020226606
      5095.01      0.89630681     0.020035940
      5100.11      0.90109134     0.020138532
      5105.21      0.91037403     0.019950557
      5110.31      0.93385720     0.020052704
      5115.42      0.95305549     0.019866864
      5120.54      0.97807562     0.019968541
      5125.66      0.98765332     0.019785132
      5130.79       1.0025935     0.019745975
      5135.92       1.0111364     0.019705054
      5141.05       1.0235404     0.019666097
      5146.20       1.0368786     0.019626417
      5151.34       1.0550654     0.019588577
      5156.49       1.0667250     0.019550099
      5161.65       1.0775015     0.019512699
      5166.81       1.0820227     0.019475199
      5171.98       1.0773574     0.019438914
      5177.15       1.0840960     0.019402221
      5182.33       1.0983284     0.019228839
      5187.51       1.1164642     0.019330833
      5192.70       1.1201571     0.019159285
      5197.89       1.1484089     0.019260996
      5203.09       1.1700129     0.019091268
      5208.29       1.2006154     0.019193048
      5213.50       1.2209204     0.019025459
      5218.72       1.2482666     0.019126830
      5223.93       1.2629142     0.018961404
      5229.16       1.2977159     0.018926953
      5234.39       1.3182104     0.018899665
      5239.62       1.3460010     0.018865359
      5244.86       1.3568536     0.018839807
      5250.11       1.3774176     0.018805466
      5255.36       1.3778283     0.018645072
      5260.61       1.3835130     0.018747679
      5265.87       1.3674855     0.018587236
      5271.14       1.3545213     0.018691929
      5276.41       1.3383215     0.018531460
      5281.69       1.3384795     0.018504828
      5286.97       1.3486848     0.018477898
      5292.26       1.3484819     0.018450763
      5297.55       1.3712064     0.018427394
      5302.85       1.3755243     0.018398829
      5308.15       1.3814459     0.018374635
      5313.46       1.3935113     0.018349562
      5318.77       1.4174304     0.018324872
      5324.09       1.4342202     0.018177165
      5329.42       1.4655263     0.018277095
      5334.75       1.4843599     0.018254745
      5340.08       1.5143345     0.018106972
      5345.42       1.5410556     0.018208729
      5350.77       1.5629422     0.018064888
      5356.12       1.5768304     0.018041223
      5361.48       1.5955263     0.018144397
      5366.83       1.6005118     0.018001110
      5372.20       1.6119003     0.017979068
      5377.58       1.6295910     0.017964307
      5382.95       1.6500752     0.017941478
      5388.34       1.6798231     0.017921219
      5393.72       1.6907590     0.017781514
      5399.12       1.7105574     0.017885521
      5404.52       1.7193756     0.017866705
      5409.92       1.7204304     0.017728181
      5415.33       1.7413198     0.017833040
      5420.75       1.7468512     0.017693826
      5426.17       1.7471068     0.017678513
      5431.60       1.7476056     0.017665271
      5437.03       1.7466113     0.017646348
      5442.47       1.7371107     0.017632029
      5447.91       1.7246288     0.017619662
      5453.36       1.7185059     0.017602793
      5458.81       1.6972946     0.017588903
      5464.27       1.6770388     0.017577221
      5469.73       1.6608989     0.017446579
      5475.20       1.6433521     0.017549463
      5480.68       1.6396323     0.017537918
      5486.16       1.6216173     0.017410557
      5491.65       1.6108464     0.017397953
      5497.14       1.6003617     0.017502285
      5502.64       1.5963573     0.017493028
      5508.14       1.5875366     0.017366185
      5513.65       1.5600734     0.017355470
      5519.16       1.5537758     0.017346192
      5524.68       1.5334624     0.017338322
      5530.20       1.5160085     0.017327888
      5535.73       1.5024836     0.017318782
      5541.27       1.4925326     0.017194872
      5546.81       1.4609408     0.017188329
      5552.36       1.4454279     0.017295727
      5557.91       1.4191988     0.017287956
      5563.47       1.3976827     0.017165147
      5569.04       1.3751586     0.017159789
      5574.60       1.3429185     0.017155626
      5580.18       1.3157366     0.017262772
      5585.76       1.3067292     0.017140996
      5591.35       1.2926485     0.017136463
      5596.94       1.2672547     0.017133005
      5602.53       1.2461916     0.017130457
      5608.14       1.2159072     0.017013368
      5613.75       1.1932474     0.017118826
      5619.36       1.1705005     0.017115978
      5624.98       1.1464645     0.017113958
      5630.60       1.1368643     0.017112795
      5636.23       1.1265737     0.016998109
      5641.87       1.1283474     0.016995800
      5647.51       1.1244595     0.016994244
      5653.16       1.1073798     0.016993507
      5658.82       1.0976694     0.017102295
      5664.47       1.0939128     0.016991456
      5670.14       1.0934142     0.016990604
      5675.81       1.0983453     0.016990268
      5681.48       1.0955893     0.016990628
      5687.17       1.1138696     0.016991575
      5692.85       1.1182102     0.016880894
      5698.55       1.1163871     0.016882836
      5704.25       1.1155917     0.016885571
      5709.95       1.1249086     0.016996281
      5715.66       1.1418081     0.016999707
      5721.38       1.1664822     0.017004665
      5727.10       1.2020638     0.016896497
      5732.83       1.2032424     0.016901246
      5738.56       1.2047455     0.016907427
      5744.30       1.2034563     0.016917370
      5750.04       1.1932040     0.016933144
      5755.79       1.1877147     0.016953371
      5761.55       1.1707820     0.016974209
      5767.31       1.1476731     0.016882591
      5773.08       1.1350478     0.016906274
      5778.85       1.1331218     0.016929633
      5784.63       1.1493351     0.016947283
      5790.41       1.1507678     0.016960352
      5796.21       1.1587794     0.016971302
      5802.00       1.1539846     0.016979888
      5807.81       1.1626619     0.016985669
      5813.61       1.1765252     0.016989401
      5819.43       1.1797580     0.016993041
      5825.25       1.1983938     0.016887688
      5831.07       1.2270603     0.016893378
      5836.90       1.2430856     0.016897875
      5842.74       1.2302057     0.016899936
      5848.58       1.2275236     0.016900277
      5854.43       1.2138822     0.016899581
      5860.29       1.2017968     0.016899734
      5866.15       1.1835857     0.016899039
      5872.01       1.1571201     0.016895906
      5877.89       1.1358277     0.016893764
      5883.76       1.1340624     0.016895856
      5889.65       1.1417939     0.016899733
      5895.54       1.1422768     0.016901434
      5901.43       1.1315059     0.016903488
      5907.34       1.1263323     0.016908378
      5913.24       1.1128551     0.016915556
      5919.16       1.1094544     0.016923731
      5925.08       1.0989178     0.016932690
      5931.00       1.0794567     0.016942726
      5936.93       1.0781119     0.016953705
      5942.87       1.0678789     0.016964749
      5948.81       1.0440290     0.016975879
      5954.76       1.0295081     0.016987488
      5960.72       1.0255995     0.016999495
      5966.68      0.99895240     0.016910770
      5972.64       1.0057369     0.016923215
      5978.62      0.99646565     0.016935925
      5984.60      0.99923515     0.016948960
      5990.58       1.0151657     0.016962057
      5996.57       1.0318413     0.016975450
      6002.57       1.0568605     0.016989184
      6008.57       1.0822655     0.017003017
      6014.58       1.1004032     0.017017141
      6020.60       1.1235373     0.016930884
      6026.62       1.1444357     0.016944371
      6032.65       1.1608689     0.016957955
      6038.68       1.1676818     0.016971654
      6044.72       1.1794205     0.016985750
      6050.76       1.1814102     0.017000142
      6056.81       1.1759124     0.017014693
      6062.87       1.1837008     0.016931212
      6068.93       1.1910509     0.016946396
      6075.00       1.2046937     0.016961966
      6081.08       1.1973081     0.016977825
      6087.16       1.2018476     0.017098792
      6093.25       1.1716863     0.017115708
      6099.34       1.1684645     0.017041998
      6105.44       1.1659643     0.017064319
      6111.54       1.1504007     0.017078433
      6117.66       1.1318374     0.017096423
      6123.78       1.1116574     0.017124722
      6129.90       1.0873924     0.017065820
      6136.03       1.0651870     0.017111817
      6142.17       1.0492419     0.017274753
      6148.31       1.0270871     0.017331840
      6154.46       1.0137598     0.017388524
      6160.61       1.0010640     0.017342685
      6166.77      0.97207340     0.017382099
      6172.94      0.96456913     0.017410870
      6179.11      0.95374784     0.017427327
      6185.29      0.94332429     0.017437209
      6191.48      0.93036336     0.017426667
      6197.67      0.92012736     0.017410340
      6203.87      0.92516081     0.017393546
      6210.07      0.92073190     0.017283302
      6216.28      0.95074561     0.017283910
      6222.50      0.95644635     0.017392672
      6228.72      0.95721820     0.017388197
      6234.95      0.95183806     0.017289239
      6241.19      0.96759369     0.017295357
      6247.42      0.98691544     0.017302879
      6253.67       1.0071450     0.017414119
      6259.93       1.0440888     0.017324099
      6266.19       1.0749925     0.017334996
      6272.46       1.1010468     0.017347880
      6278.73       1.1170082     0.017261932
      6285.01       1.1430454     0.017382164
      6291.29       1.1710001     0.017399199
      6297.58       1.1767969     0.017318785
      6303.88       1.2111750     0.017335039
      6310.19       1.2303835     0.017460468
      6316.50       1.2547815     0.017386800
      6322.81       1.2854347     0.017411158
      6329.14       1.2986771     0.017441390
      6335.47       1.3255802     0.017488873
      6341.80       1.3331085     0.017516148
      6348.14       1.3394970     0.017542792
      6354.49       1.3319590     0.017473709
      6360.85       1.3367160     0.017606557
      6367.21       1.3493172     0.017627381
      6373.57       1.3656427     0.017547605
      6379.95       1.3892453     0.017562886
      6386.33       1.3976776     0.017676668
      6392.72       1.4117024     0.017589004
      6399.11       1.4170525     0.017601326
      6405.51       1.4252973     0.017619265
      6411.92       1.4238862     0.017634298
      6418.32       1.4325971     0.017651062
      6424.74       1.4312910     0.017668732
      6431.17       1.4165154     0.017679832
      6437.60       1.4071225     0.017590165
      6444.04       1.4032602     0.017703141
      6450.48       1.3784792     0.017715550
      6456.94       1.3729417     0.017627132
      6463.39       1.3529540     0.017739030
      6469.85       1.3307616     0.017648765
      6476.33       1.3113027     0.017657824
      6482.80       1.3035276     0.017679384
      6489.28       1.2982804     0.017691374
      6495.77       1.3022961     0.017610054
      6502.27       1.2924713     0.017728612
      6508.77       1.2884719     0.017742961
      6515.28       1.2883672     0.017663523
      6521.80       1.2839027     0.017780465
      6528.32       1.2881670     0.017699799
      6534.85       1.2817285     0.017818099
      6541.38       1.2793352     0.017736683
      6547.92       1.2603431     0.017753819
      6554.47       1.2489755     0.017773829
      6561.03       1.2391516     0.017790049
      6567.59       1.2229115     0.017810325
      6574.16       1.2055395     0.017825925
      6580.73       1.1961551     0.017742752
      6587.31       1.1726582     0.017861244
      6593.90       1.1565594     0.017777956
      6600.50       1.1422375     0.017896141
      6607.10       1.1314207     0.017812593
      6613.70       1.1161571     0.017930415
      6620.32       1.1003679     0.017846572
      6626.94       1.0792202     0.017765487
      6633.57       1.0737707     0.017879669
      6640.20       1.0640273     0.017798216
      6646.84       1.0569279     0.017912317
      6653.49       1.0523243     0.017830300
      6660.14       1.0361895     0.017944447
      6666.80       1.0349780     0.017873249
      6673.47       1.0360074     0.018025530
      6680.14       1.0424640     0.018017841
      6686.82       1.0458944     0.018030551
      6693.51       1.0522814     0.018030576
      6700.20       1.0622074     0.018111789
      6706.90       1.0597640     0.018237021
      6713.61       1.0525320     0.018459063
      6720.32       1.0477313     0.018627832
      6727.05       1.0378249     0.019011269
      6733.77       1.0199989     0.019219798
      6740.51       1.0023155     0.019609158
      6747.25      0.97592517     0.019730161
      6754.00      0.96842427     0.019890806
      6760.75      0.95964666     0.019928256
      6767.51      0.94713222     0.019868321
      6774.28      0.94483479     0.019703334
      6781.05      0.93880487     0.019516358
      6787.84      0.94460011     0.019272280
      6794.62      0.95240281     0.018984966
      6801.42      0.96586412     0.018954587
      6808.22      0.96863080     0.018772145
      6815.03      0.97842998     0.018639941
      6821.85       1.0025137     0.018624259
      6828.67       1.0139022     0.018461971
      6835.50       1.0256413     0.018407293
      6842.33       1.0352669     0.018367388
      6849.17       1.0402774     0.018330475
      6856.02       1.0501038     0.018311622
      6862.88       1.0478652     0.018305629
      6869.74       1.0524111     0.018306970
      6876.61       1.0454549     0.018213669
      6883.49       1.0392257     0.018217368
      6890.37       1.0423636     0.018309054
      6897.27       1.0368827     0.018198857
      6904.16       1.0320880     0.018181163
      6911.07       1.0186031     0.018262003
      6917.98       1.0040736     0.018149858
      6924.89      0.97566779     0.018140719
      6931.82      0.94972464     0.018034002
      6938.75      0.92242376     0.018116092
      6945.69      0.89615018     0.018107492
      6952.64      0.88247758     0.018007101
      6959.59      0.87357899     0.018005821
      6966.55      0.86793654     0.018106137
      6973.52      0.86010652     0.018126940
      6980.49      0.86450774     0.018056017
      6987.47      0.86821251     0.018081752
      6994.46      0.86446935     0.018117353
      7001.46      0.86636557     0.018163688
      7008.46      0.86376761     0.018251326
      7015.46      0.87187486     0.018388552
      7022.48      0.88083673     0.018471976
      7029.51      0.90848051     0.018692110
      7036.53      0.92719851     0.018702133
      7043.57      0.94423820     0.018539226
      7050.62      0.95446051     0.018539530
      7057.66      0.96250186     0.018422288
      7064.72      0.97011969     0.018283720
      7071.79      0.98281113     0.018205567
      7078.86      0.98728074     0.018022538
      7085.94      0.99917065     0.017751940
      7093.03       1.0121090     0.017563752
      7100.12       1.0165145     0.017374643
      7107.22       1.0192083     0.017270143
      7114.33       1.0212635     0.017103393
      7121.44       1.0210615     0.016952656
      7128.56       1.0248931     0.016804665
      7135.69       1.0255910     0.016580408
      7142.83       1.0206753     0.016481080
      7149.97       1.0128986     0.016290715
      7157.12       1.0094193     0.016086651
      7164.28       1.0098397     0.015873487
      7171.44      0.99352934     0.015656618
      7178.62      0.99922760     0.015449029
      7185.80       1.0062892     0.015258371
      7192.98       1.0106318     0.015032662
      7200.17       1.0235263     0.014926890
      7207.38       1.0168999     0.014762317
      7214.58       1.0165484     0.014599144
      7221.80       1.0152912     0.014441642
      7229.02       1.0149889     0.014292295
      7236.25       1.0236314     0.014151253
      7243.49       1.0363111     0.014018291
      7250.73       1.0488660     0.013851024
      7257.98       1.0521531     0.013728450
      7265.24       1.0488791     0.013609672
      7272.51       1.0573182     0.013496758
      7279.78       1.0548669     0.013387113
      7287.06       1.0537331     0.013546154
      7294.35       1.0498231     0.013737825
      7301.64       1.0414383     0.013968886
      7308.94       1.0399967     0.014251190
      7316.25       1.0328698     0.014604596
      7323.57       1.0264950     0.015087995
      7330.89       1.0182155     0.015695062
      7338.22       1.0018767     0.016487538
      7345.56      0.98987726     0.017532113
      7352.91      0.97668731     0.018907249
      7360.26      0.95671480     0.020707850
      7367.62      0.93639519     0.023053546
      7374.99      0.91291209     0.026076037
      7382.37      0.88641653     0.029949451
      7389.75      0.85728093     0.034854440
      7397.14      0.82087168     0.041034708
