# starting wavelength =        3157.1800
# ending wavelength =        8270.9500
# O2 telluric scale =        0
# O2 telluric shift =        0
# H2O telluric scale =        0
# H2O telluric shift =        0
      3159.70      0.23003058     0.013424387
      3162.86      0.22092997     0.012010872
      3166.03      0.21270432     0.010311219
      3169.19      0.20607989    0.0086703953
      3172.36      0.20084089    0.0077092057
      3175.54      0.19594520    0.0069661882
      3178.71      0.19140592    0.0065441671
      3181.89      0.18837929    0.0060577933
      3185.07      0.18586067    0.0055843052
      3188.26      0.18162900    0.0053046544
      3191.45      0.17843336    0.0051451904
      3194.64      0.17744463    0.0049474274
      3197.83      0.17590147    0.0047816818
      3201.03      0.17407941    0.0046468022
      3204.23      0.17313639    0.0045302898
      3207.44      0.17173159    0.0044680957
      3210.64      0.17177102    0.0043723915
      3213.85      0.17252539    0.0042856464
      3217.07      0.17239444    0.0042425595
      3220.28      0.17366861    0.0042286100
      3223.51      0.17644904    0.0042516421
      3226.73      0.17786429    0.0042079619
      3229.96      0.17762392    0.0041941143
      3233.19      0.18035211    0.0042169015
      3236.42      0.18167115    0.0042042217
      3239.66      0.18201381    0.0041957997
      3242.90      0.18344966    0.0041825153
      3246.14      0.18139621    0.0041698459
      3249.39      0.18195461    0.0041934762
      3252.64      0.18298212    0.0041484837
      3255.89      0.18305012    0.0041358066
      3259.14      0.18477496    0.0041596032
      3262.40      0.18256597    0.0041462517
      3265.67      0.18176338    0.0041701576
      3268.93      0.18143097    0.0041261641
      3272.20      0.18275407    0.0041126819
      3275.47      0.18485253    0.0041360774
      3278.75      0.18786682    0.0041235228
      3282.03      0.18985523    0.0041115672
      3285.31      0.19323541    0.0041021285
      3288.60      0.19735512    0.0040895262
      3291.88      0.19905075    0.0041143009
      3295.18      0.20180054    0.0041009522
      3298.47      0.20647960    0.0040560455
      3301.77      0.20909915    0.0040812864
      3305.07      0.21070344    0.0040678358
      3308.38      0.21366850    0.0040549391
      3311.69      0.21669658    0.0040794540
      3315.00      0.22135122    0.0040352892
      3318.31      0.22475567    0.0040222602
      3321.63      0.22815836    0.0040463272
      3324.95      0.23181358    0.0040342739
      3328.28      0.23452431    0.0040597267
      3331.61      0.23711961    0.0040467296
      3334.94      0.23829894    0.0040012395
      3338.27      0.24077517    0.0040274394
      3341.61      0.24184344    0.0040141821
      3344.95      0.24281029    0.0040012998
      3348.30      0.24413142    0.0040264739
      3351.65      0.24424556    0.0039820086
      3355.00      0.24373842    0.0039689570
      3358.35      0.24438983    0.0039935633
      3361.71      0.24606048    0.0039813855
      3365.07      0.24832193    0.0039696952
      3368.44      0.24828044    0.0039955141
      3371.81      0.25132426    0.0039829873
      3375.18      0.25447034    0.0039371159
      3378.56      0.25833105    0.0039641568
      3381.94      0.26345211    0.0039513614
      3385.32      0.26531776    0.0039390519
      3388.70      0.26825184    0.0039651718
      3392.09      0.27347737    0.0039535261
      3395.48      0.27715372    0.0039077843
      3398.88      0.28060954    0.0039331534
      3402.28      0.28477580    0.0039210783
      3405.68      0.28773221    0.0039094079
      3409.09      0.29044032    0.0039370099
      3412.49      0.29377879    0.0039242659
      3415.91      0.29809072    0.0039119986
      3419.32      0.30176759    0.0039392742
      3422.74      0.30486180    0.0038934434
      3426.17      0.30632975    0.0038808497
      3429.59      0.30798978    0.0038686861
      3433.02      0.30895925    0.0038955460
      3436.45      0.30980615    0.0038841176
      3439.89      0.31362544    0.0038731116
      3443.33      0.31538723    0.0039010065
      3446.78      0.31652118    0.0038890467
      3450.22      0.31914253    0.0038414286
      3453.67      0.32106500    0.0038713714
      3457.13      0.32748111    0.0038588133
      3460.58      0.33200426    0.0038466106
      3464.04      0.33607945    0.0038347619
      3467.51      0.33753053    0.0038628481
      3470.98      0.33976218    0.0038515715
      3474.45      0.34101123    0.0038406294
      3477.92      0.34118476    0.0038695694
      3481.40      0.34073332    0.0038575045
      3484.88      0.34213588    0.0038085548
      3488.37      0.34383510    0.0037973882
      3491.86      0.34537859    0.0038278103
      3495.35      0.34604711    0.0038157275
      3498.84      0.34604385    0.0038040247
      3502.34      0.34706719    0.0038333610
      3505.84      0.34691963    0.0038223124
      3509.35      0.34967628    0.0038114378
      3512.86      0.35232649    0.0038008534
      3516.37      0.35073814    0.0038313395
      3519.89      0.35190441    0.0038196902
      3523.41      0.35279060    0.0038083402
      3526.93      0.35709932    0.0037972638
      3530.46      0.36083846    0.0038286513
      3533.99      0.36333946    0.0037791607
      3537.53      0.36639455    0.0037673990
      3541.06      0.37152703    0.0037976730
      3544.60      0.37673801    0.0037861898
      3548.15      0.38254506    0.0037750693
      3551.70      0.38458866    0.0037642915
      3555.25      0.38902699    0.0037981015
      3558.80      0.39134949    0.0037863890
      3562.36      0.39351667    0.0037750292
      3565.92      0.39302503    0.0037640164
      3569.49      0.39623791    0.0037965216
      3573.06      0.39736942    0.0037857555
      3576.64      0.39885039    0.0037752159
      3580.21      0.40180901    0.0037648886
      3583.79      0.40359213    0.0037995070
      3587.38      0.40428952    0.0037880481
      3590.96      0.40503723    0.0037768172
      3594.55      0.40858922    0.0037658006
      3598.15      0.40957481    0.0038002088
      3601.75      0.41344899    0.0037895055
      3605.35      0.41606271    0.0037790110
      3608.96      0.42061024    0.0037686564
      3612.56      0.42398425    0.0037585333
      3616.18      0.42629458    0.0037936902
      3619.79      0.42688276    0.0037826998
      3623.41      0.42822729    0.0037720754
      3627.04      0.42960193    0.0037615204
      3630.66      0.42833989    0.0037983248
      3634.29      0.42963716    0.0037880681
      3637.93      0.42541132    0.0037779768
      3641.57      0.42106780    0.0037680352
      3645.21      0.41794845    0.0038067984
      3648.86      0.41278732    0.0037956941
      3652.50      0.40920195    0.0037847513
      3656.16      0.40501696    0.0037739548
      3659.81      0.39595058    0.0037633046
      3663.47      0.38869846    0.0038020968
      3667.14      0.38389545    0.0037916360
      3670.80      0.37843554    0.0037813520
      3674.48      0.37316897    0.0037712655
      3678.15      0.36719131    0.0037612057
      3681.83      0.36138408    0.0037515345
      3685.51      0.35729427    0.0036936691
      3689.20      0.35238913    0.0036832513
      3692.88      0.34816928    0.0036729990
      3696.58      0.34588312    0.0036628837
      3700.27      0.34676043    0.0036528809
      3703.98      0.34714283    0.0036429707
      3707.68      0.34877298    0.0036808260
      3711.39      0.34863719    0.0036709357
      3715.10      0.35270297    0.0036611336
      3718.81      0.35625604    0.0036513929
      3722.53      0.35809106    0.0036417274
      3726.26      0.35811689    0.0035880694
      3729.98      0.35847424    0.0035778880
      3733.71      0.35934195    0.0035678142
      3737.45      0.35974867    0.0035578785
      3741.18      0.35923932    0.0035479009
      3744.93      0.35932157    0.0035382131
      3748.67      0.36124076    0.0035288030
      3752.42      0.36392565    0.0035193640
      3756.17      0.37065731    0.0035100312
      3759.93      0.37639163    0.0035007794
      3763.69      0.38280361    0.0034915905
      3767.45      0.38890290    0.0034824454
      3771.22      0.39773448    0.0034733342
      3774.99      0.40725122    0.0034642665
      3778.77      0.41864180    0.0034552082
      3782.54      0.43091596    0.0034027945
      3786.33      0.44343653    0.0033939017
      3790.11      0.45966737    0.0033850438
      3793.90      0.47381161    0.0033762410
      3797.70      0.48502941    0.0033674922
      3801.50      0.49423597    0.0033587254
      3805.30      0.50447759    0.0033500529
      3809.10      0.51345587    0.0033415772
      3812.91      0.52426436    0.0033332993
      3816.73      0.53306686    0.0033249380
      3820.54      0.54552578    0.0033166363
      3824.36      0.55736710    0.0033083687
      3828.19      0.57064983    0.0033001252
      3832.02      0.58065526    0.0032918946
      3835.85      0.59294086    0.0032836798
      3839.68      0.60152674    0.0032754555
      3843.52      0.60841609    0.0032672481
      3847.37      0.61947589    0.0032590506
      3851.22      0.62957621    0.0032508716
      3855.07      0.64081756    0.0032427290
      3858.92      0.65210059    0.0032346210
      3862.78      0.66288592    0.0032265714
      3866.64      0.67157957    0.0032184559
      3870.51      0.67610868    0.0032105321
      3874.38      0.67893604    0.0032027994
      3878.26      0.68061087    0.0031951459
      3882.13      0.68108113    0.0031874622
      3886.02      0.68384527    0.0031798288
      3889.90      0.68519802    0.0031722321
      3893.79      0.68877788    0.0031646650
      3897.69      0.69129332    0.0031571263
      3901.59      0.69205479    0.0031495823
      3905.49      0.68943792    0.0031035612
      3909.39      0.68981547    0.0030961954
      3913.30      0.68601372    0.0030888609
      3917.22      0.68193583    0.0030815727
      3921.13      0.68218908    0.0030743410
      3925.06      0.67995949    0.0030670969
      3928.98      0.68067194    0.0030599309
      3932.91      0.68207902    0.0030529458
      3936.84      0.68091087    0.0030461520
      3940.78      0.68189246    0.0030395299
      3944.72      0.68204339    0.0030328725
      3948.67      0.67917640    0.0030263098
      3952.61      0.67833417    0.0030198041
      3956.57      0.67986168    0.0030133651
      3960.52      0.68204941    0.0030069894
      3964.48      0.68176627    0.0029621729
      3968.45      0.68391301    0.0029554103
      3972.42      0.68635587    0.0029487073
      3976.39      0.68543068    0.0029420644
      3980.37      0.68479801    0.0029354978
      3984.35      0.68377046    0.0029647202
      3988.33      0.68018228    0.0029582723
      3992.32      0.67603077    0.0029518158
      3996.31      0.67301454    0.0029455992
      4000.31      0.66932793    0.0029396173
      4004.31      0.66786416    0.0029337814
      4008.31      0.66485829    0.0028921769
      4012.32      0.66048808    0.0028858178
      4016.33      0.65868529    0.0028795638
      4020.35      0.65781082    0.0028733992
      4024.37      0.65398368    0.0028673292
      4028.40      0.65374822    0.0028613387
      4032.42      0.65277043    0.0028554596
      4036.46      0.65089309    0.0028496867
      4040.50      0.65099653    0.0028109516
      4044.54      0.65269722    0.0028392741
      4048.58      0.65311133    0.0028329782
      4052.63      0.65146677    0.0028267493
      4056.68      0.65110126    0.0028206783
      4060.74      0.64918639    0.0028148594
      4064.80      0.64717516    0.0028092878
      4068.86      0.64381479    0.0028039706
      4072.93      0.64396157    0.0027662187
      4077.01      0.64414889    0.0027611871
      4081.08      0.64383299    0.0027563109
      4085.17      0.64360723    0.0027515894
      4089.25      0.64371090    0.0027778439
      4093.34      0.64444405    0.0027723066
      4097.43      0.64552670    0.0027669324
      4101.53      0.64246685    0.0027297376
      4105.63      0.64112018    0.0027247909
      4109.74      0.63968347    0.0027200304
      4113.85      0.63888614    0.0027154182
      4117.96      0.63827062    0.0027109833
      4122.08      0.63553980    0.0027364783
      4126.20      0.63198761    0.0026998468
      4130.33      0.63078435    0.0026951931
      4134.46      0.63002566    0.0026907545
      4138.59      0.63028200    0.0026864745
      4142.73      0.63041834    0.0026824159
      4146.88      0.63061512    0.0026785804
      4151.02      0.63537681    0.0026415498
      4155.18      0.64049096    0.0026678982
      4159.33      0.64357016    0.0026634984
      4163.49      0.64701382    0.0026593322
      4167.65      0.65015879    0.0026554126
      4171.82      0.65298942    0.0026199282
      4175.99      0.65568492    0.0026152523
      4180.17      0.65618956    0.0026108373
      4184.35      0.65697888    0.0026373452
      4188.54      0.65922241    0.0026335918
      4192.72      0.66135279    0.0025995986
      4196.92      0.66169462    0.0025951959
      4201.11      0.65888822    0.0025910318
      4205.31      0.65668876    0.0025871530
      4209.52      0.65731643    0.0026139275
      4213.73      0.65456634    0.0025806590
      4217.94      0.65180733    0.0025762546
      4222.16      0.64874467    0.0025721340
      4226.38      0.64613424    0.0025683159
      4230.61      0.64163707    0.0025366278
      4234.84      0.63857047    0.0025621719
      4239.08      0.63287507    0.0025578298
      4243.32      0.62639231    0.0025538248
      4247.56      0.61939025    0.0025502392
      4251.81      0.61198760    0.0025191486
      4256.06      0.60698712    0.0025447341
      4260.32      0.60401720    0.0025408884
      4264.58      0.60157433    0.0025373544
      4268.84      0.59890808    0.0025064219
      4273.11      0.59634677    0.0025036686
      4277.38      0.59318691    0.0025286675
      4281.66      0.59012716    0.0025250442
      4285.94      0.58801676    0.0024942278
      4290.23      0.58626979    0.0024914386
      4294.52      0.58441565    0.0024890362
      4298.81      0.58345424    0.0025131911
      4303.11      0.58376321    0.0024824684
      4307.42      0.58562133    0.0024797164
      4311.72      0.58695833    0.0024774491
      4316.04      0.59175342    0.0025020127
      4320.35      0.59786816    0.0024718430
      4324.67      0.60200264    0.0024694319
      4329.00      0.60582394    0.0024674157
      4333.33      0.61095475    0.0024372870
      4337.66      0.61983371    0.0024621351
      4342.00      0.62772341    0.0024598237
      4346.34      0.63588727    0.0024579656
      4350.69      0.64395093    0.0024278817
      4355.04      0.65126505    0.0024528315
      4359.39      0.66016771    0.0024507094
      4363.75      0.67016687    0.0024216979
      4368.12      0.67810791    0.0024188557
      4372.48      0.68582664    0.0024439911
      4376.86      0.69620100    0.0024422488
      4381.23      0.70896811    0.0024132806
      4385.61      0.72220222    0.0024109975
      4390.00      0.73871103    0.0024366220
      4394.39      0.75392194    0.0024085188
      4398.79      0.77250809    0.0024060105
      4403.18      0.78930730    0.0024040398
      4407.59      0.80547081    0.0024040096
      4412.00      0.82345969    0.0024013212
      4416.41      0.84213132    0.0023991974
      4420.82      0.86277446    0.0023997591
      4425.25      0.88521110    0.0023968960
      4429.67      0.90922230    0.0023946233
      4434.10      0.93355045    0.0023682229
      4438.54      0.95639293    0.0023929007
      4442.97      0.98003705    0.0023907544
      4447.42       1.0005937    0.0023645716
      4451.86       1.0207419    0.0023897708
      4456.32       1.0445142    0.0023876143
      4460.77       1.0675994    0.0023614334
      4465.24       1.0931644    0.0023605875
      4469.70       1.1151346    0.0023846136
      4474.17       1.1371730    0.0023585084
      4478.65       1.1543547    0.0023576925
      4483.12       1.1725644    0.0023818242
      4487.61       1.1899104    0.0023558497
      4492.09       1.2079989    0.0023550549
      4496.59       1.2236080    0.0023792354
      4501.08       1.2382943    0.0023534902
      4505.58       1.2524798    0.0023530303
      4510.09       1.2650682    0.0023529865
      4514.60       1.2744878    0.0023520685
      4519.12       1.2817706    0.0023518320
      4523.63       1.2860833    0.0023516900
      4528.16       1.2878531    0.0023509242
      4532.69       1.2868815    0.0023509056
      4537.22       1.2853032    0.0023506217
      4541.76       1.2831659    0.0023500704
      4546.30       1.2763139    0.0023252058
      4550.85       1.2697545    0.0023498067
      4555.40       1.2563879    0.0023494712
      4559.95       1.2426298    0.0023243443
      4564.51       1.2264610    0.0023493056
      4569.08       1.2092772    0.0023252650
      4573.65       1.1930481    0.0023242621
      4578.22       1.1726864    0.0023498298
      4582.80       1.1505675    0.0023254617
      4587.38       1.1300984    0.0023248341
      4591.97       1.1067489    0.0023269694
      4596.56       1.0826804    0.0023258965
      4601.16       1.0588203    0.0023256820
      4605.76       1.0330202    0.0023273253
      4610.37       1.0087196    0.0023267082
      4614.98      0.98268477    0.0023290566
      4619.59      0.95810867    0.0023280037
      4624.21      0.93471024    0.0023051556
      4628.84      0.91241766    0.0023298049
      4633.47      0.89020676    0.0023294698
      4638.10      0.86820916    0.0023321806
      4642.74      0.84789221    0.0023316212
      4647.38      0.83076024    0.0023091902
      4652.03      0.81459498    0.0023339456
      4656.68      0.79601753    0.0023111865
      4661.34      0.78218427    0.0023365053
      4666.00      0.76771237    0.0023134251
      4670.67      0.75737813    0.0023141429
      4675.33      0.74952477    0.0023386610
      4680.01      0.74049451    0.0023162515
      4684.69      0.73466856    0.0023412511
      4689.38      0.72947815    0.0023187275
      4694.07      0.72620208    0.0023200750
      4698.76      0.72396707    0.0023216419
      4703.46      0.72183875    0.0023228900
      4708.16      0.71980803    0.0023249472
      4712.87      0.72024846    0.0023259851
      4717.58      0.72018791    0.0023283141
      4722.30      0.72159298    0.0023291812
      4727.03      0.72407050    0.0023070818
      4731.75      0.72833089    0.0023325312
      4736.48      0.73366869    0.0023106587
      4741.22      0.74021568    0.0023359613
      4745.96      0.74674047    0.0023142721
      4750.71      0.75754562    0.0023396270
      4755.46      0.76885131    0.0023182451
      4760.22      0.78225060    0.0023187761
      4764.97      0.79732361    0.0023225588
      4769.74      0.80846325    0.0023231321
      4774.51      0.82177656    0.0023270407
      4779.29      0.83158274    0.0023274966
      4784.07      0.84078287    0.0023315337
      4788.85      0.84801838    0.0023319556
      4793.64      0.85257897    0.0023361026
      4798.43      0.85409805    0.0023365212
      4803.23      0.85551081    0.0023407137
      4808.03      0.85503955    0.0023411188
      4812.84      0.85129957    0.0023454148
      4817.66      0.84947544    0.0023459789
      4822.48      0.84589633    0.0023504505
      4827.30      0.84242812    0.0023512006
      4832.12      0.83995951    0.0023558427
      4836.96      0.83642406    0.0023566878
      4841.79      0.83490281    0.0023612169
      4846.63      0.83083505    0.0023403756
      4851.48      0.82896212    0.0023666663
      4856.33      0.82452066    0.0023459506
      4861.19      0.81859857    0.0023721993
      4866.05      0.81581457    0.0023515756
      4870.92      0.81385613    0.0023777371
      4875.79      0.81195502    0.0023573710
      4880.66      0.81057644    0.0023835639
      4885.55      0.80812008    0.0023635060
      4890.43      0.80796603    0.0023677257
      4895.32      0.80735282    0.0023699960
      4900.22      0.80595980    0.0023741701
      4905.12      0.80384324    0.0023767147
      4910.02      0.80321853    0.0023806511
      4914.94      0.80035600    0.0023835203
      4919.85      0.79640582    0.0023872708
      4924.77      0.79275702    0.0023672919
      4929.70      0.78822721    0.0023939980
      4934.62      0.78300425    0.0023737152
      4939.56      0.77606277    0.0024009858
      4944.50      0.77050762    0.0024053691
      4949.44      0.76695699    0.0023858037
      4954.39      0.76441246    0.0024126689
      4959.35      0.76412225    0.0023928706
      4964.31      0.76660410    0.0024203215
      4969.27      0.77256059    0.0024001008
      4974.24      0.77882797    0.0024057713
      4979.22      0.78587891    0.0024075024
      4984.20      0.79580632    0.0024128633
      4989.18      0.80622336    0.0024404470
      4994.17      0.81517670    0.0024201237
      4999.16      0.82318299    0.0024259729
      5004.16      0.83253624    0.0024277661
      5009.17      0.83891877    0.0024333796
      5014.18      0.84736335    0.0024145191
      5019.19      0.85627515    0.0024412875
      5024.21      0.86586779    0.0024475212
      5029.23      0.87827923    0.0024281320
      5034.26      0.88904303    0.0024553837
      5039.30      0.90242519    0.0024366723
      5044.34      0.91582531    0.0024419636
      5049.39      0.92972828    0.0024696275
      5054.43      0.94460583    0.0024504190
      5059.49      0.96480176    0.0024776923
      5064.55      0.98256482    0.0024593343
      5069.61      0.99960070    0.0024645735
      5074.68       1.0184175    0.0024923556
      5079.76       1.0362830    0.0024738203
      5084.84       1.0573117    0.0024794600
      5089.92       1.0758206    0.0024837691
      5095.01       1.0931114    0.0024889349
      5100.11       1.1118115    0.0024947001
      5105.21       1.1313757    0.0024759505
      5110.31       1.1511433    0.0025041717
      5115.42       1.1719698    0.0025099947
      5120.54       1.1937130    0.0024911465
      5125.66       1.2157001    0.0025195735
      5130.79       1.2366145    0.0025255838
      5135.92       1.2578719    0.0025067737
      5141.05       1.2786827    0.0025355225
      5146.20       1.2994580    0.0025162267
      5151.34       1.3215630    0.0025229723
      5156.49       1.3429017    0.0025521395
      5161.65       1.3621043    0.0025326612
      5166.81       1.3815790    0.0025393130
      5171.98       1.4032139    0.0025464580
      5177.15       1.4229628    0.0025491581
      5182.33       1.4446983    0.0025556967
      5187.51       1.4645306    0.0025627665
      5192.70       1.4830943    0.0025443136
      5197.89       1.4987565    0.0025724755
      5203.09       1.5144980    0.0025796193
      5208.29       1.5274645    0.0025615824
      5213.50       1.5404618    0.0025899678
      5218.72       1.5511727    0.0025970879
      5223.93       1.5614660    0.0026045788
      5229.16       1.5719544    0.0025858924
      5234.39       1.5798664    0.0026146640
      5239.62       1.5860959    0.0026219795
      5244.86       1.5924086    0.0026037017
      5250.11       1.5987694    0.0026103821
      5255.36       1.6032609    0.0026395769
      5260.61       1.6098489    0.0026220439
      5265.87       1.6133928    0.0026286916
      5271.14       1.6178013    0.0026357359
      5276.41       1.6223622    0.0026431724
      5281.69       1.6274135    0.0026478608
      5286.97       1.6344875    0.0026547135
      5292.26       1.6390799    0.0026618784
      5297.55       1.6401555    0.0026693437
      5302.85       1.6431748    0.0026740472
      5308.15       1.6455741    0.0026808699
      5313.46       1.6497559    0.0026880506
      5318.77       1.6536214    0.0026693124
      5324.09       1.6584964    0.0026770744
      5329.42       1.6662799    0.0027076659
      5334.75       1.6736598    0.0027150567
      5340.08       1.6811838    0.0026962070
      5345.42       1.6911175    0.0027041498
      5350.77       1.7044951    0.0027122301
      5356.12       1.7187638    0.0027429127
      5361.48       1.7344172    0.0027236831
      5366.83       1.7491990    0.0027313654
      5372.20       1.7640290    0.0027393057
      5377.58       1.7812140    0.0027475009
      5382.95       1.7964187    0.0027559602
      5388.34       1.8110535    0.0027591081
      5393.72       1.8214468    0.0027670900
      5399.12       1.8270125    0.0027753167
      5404.52       1.8294914    0.0027837979
      5409.92       1.8314618    0.0027656069
      5415.33       1.8316596    0.0027734324
      5420.75       1.8283147    0.0028039682
      5426.17       1.8223747    0.0028122030
      5431.60       1.8189247    0.0028205084
      5437.03       1.8107491    0.0028023650
      5442.47       1.8026890    0.0028102078
      5447.91       1.7933026    0.0028182471
      5453.36       1.7839740    0.0028264773
      5458.81       1.7716264    0.0028348935
      5464.27       1.7583455    0.0028403786
      5469.73       1.7456387    0.0028484287
      5475.20       1.7291385    0.0028565758
      5480.68       1.7147091    0.0028648010
      5486.16       1.6975495    0.0028731444
      5491.65       1.6793761    0.0028815293
      5497.14       1.6556262    0.0028627493
      5502.64       1.6294217    0.0028713335
      5508.14       1.6039620    0.0029036053
      5513.65       1.5805940    0.0029119083
      5519.16       1.5556995    0.0029203645
      5524.68       1.5304113    0.0029289639
      5530.20       1.5079969    0.0029099453
      5535.73       1.4857696    0.0029187487
      5541.27       1.4645460    0.0029275207
      5546.81       1.4460857    0.0029363546
      5552.36       1.4252010    0.0029452237
      5557.91       1.4054432    0.0029541340
      5563.47       1.3878137    0.0029631535
      5569.04       1.3717144    0.0029668921
      5574.60       1.3598980    0.0029756109
      5580.18       1.3466575    0.0029844299
      5585.76       1.3347634    0.0029933503
      5591.35       1.3235233    0.0030023752
      5596.94       1.3114729    0.0030115190
      5602.53       1.2979886    0.0030206712
      5608.14       1.2851753    0.0030298079
      5613.75       1.2745065    0.0030389432
      5619.36       1.2648671    0.0030199888
      5624.98       1.2538751    0.0030287695
      5630.60       1.2446428    0.0030376332
      5636.23       1.2352737    0.0030465682
      5641.87       1.2246109    0.0030555723
      5647.51       1.2171014    0.0030646418
      5653.16       1.2084066    0.0030737812
      5658.82       1.1996206    0.0030830067
      5664.47       1.1932110    0.0030922789
      5670.14       1.1886105    0.0031014928
      5675.81       1.1844623    0.0031106734
      5681.48       1.1832792    0.0030913089
      5687.17       1.1816713    0.0031004581
      5692.85       1.1809749    0.0031096591
      5698.55       1.1797656    0.0031189063
      5704.25       1.1788669    0.0031281997
      5709.95       1.1784413    0.0031375415
      5715.66       1.1779557    0.0031469284
      5721.38       1.1781979    0.0031564005
      5727.10       1.1782997    0.0031659596
      5732.83       1.1772391    0.0031755857
      5738.56       1.1774918    0.0031853334
      5744.30       1.1771340    0.0031949801
      5750.04       1.1765555    0.0032045855
      5755.79       1.1776495    0.0032144158
      5761.55       1.1787548    0.0032247717
      5767.31       1.1798255    0.0032361012
      5773.08       1.1779485    0.0032483224
      5778.85       1.1766997    0.0032608046
      5784.63       1.1764646    0.0032734591
      5790.41       1.1768780    0.0032865769
      5796.21       1.1735924    0.0032997402
      5802.00       1.1714744    0.0033119690
      5807.81       1.1679029    0.0033230688
      5813.61       1.1655523    0.0033336187
      5819.43       1.1620145    0.0033437284
      5825.25       1.1588483    0.0033533190
      5831.07       1.1563868    0.0033624183
      5836.90       1.1529063    0.0033713958
      5842.74       1.1507711    0.0033806773
      5848.58       1.1494617    0.0033645936
      5854.43       1.1475417    0.0033737301
      5860.29       1.1452020    0.0033823102
      5866.15       1.1413308    0.0033904225
      5872.01       1.1372996    0.0033982667
      5877.89       1.1322086    0.0034062568
      5883.76       1.1258318    0.0034142126
      5889.65       1.1206718    0.0034216715
      5895.54       1.1154836    0.0034290432
      5901.43       1.1096467    0.0034371979
      5907.34       1.1034711    0.0034459802
      5913.24       1.0973496    0.0034283628
      5919.16       1.0922825    0.0034362458
      5925.08       1.0888878    0.0034445204
      5931.00       1.0864915    0.0034532620
      5936.93       1.0871170    0.0034623301
      5942.87       1.0862144    0.0034715640
      5948.81       1.0856738    0.0034810139
      5954.76       1.0885784    0.0034907212
      5960.72       1.0912102    0.0035005460
      5966.68       1.0921174    0.0034849701
      5972.64       1.0934429    0.0035254698
      5978.62       1.0954858    0.0035351370
      5984.60       1.0995522    0.0035448407
      5990.58       1.1025219    0.0035544871
      5996.57       1.1058042    0.0035642134
      6002.57       1.1104771    0.0035740541
      6008.57       1.1155803    0.0035579999
      6014.58       1.1195968    0.0035679914
      6020.60       1.1219049    0.0035780947
      6026.62       1.1235660    0.0035883203
      6032.65       1.1269002    0.0035986809
      6038.68       1.1295163    0.0036388143
      6044.72       1.1325374    0.0036223280
      6050.76       1.1329310    0.0036322895
      6056.81       1.1334059    0.0036422453
      6062.87       1.1353023    0.0036523675
      6068.93       1.1369191    0.0036626565
      6075.00       1.1346060    0.0036452499
      6081.08       1.1309199    0.0036549995
      6087.16       1.1262411    0.0036965163
      6093.25       1.1214899    0.0037066777
      6099.34       1.1132756    0.0037170369
      6105.44       1.1056938    0.0037001066
      6111.54       1.1002197    0.0037101247
      6117.66       1.0939779    0.0037210509
      6123.78       1.0856979    0.0037327390
      6129.90       1.0777056    0.0037757139
      6136.03       1.0698536    0.0037582205
      6142.17       1.0647173    0.0037700183
      6148.31       1.0614299    0.0037839241
      6154.46       1.0597248    0.0037998852
      6160.61       1.0590430    0.0037919129
      6166.77       1.0600868    0.0038444175
      6172.94       1.0655181    0.0038628804
      6179.11       1.0702019    0.0038805572
      6185.29       1.0789196    0.0038694758
      6191.48       1.0868226    0.0038834642
      6197.67       1.0965492    0.0039274357
      6203.87       1.1085308    0.0039348669
      6210.07       1.1235624    0.0039115635
      6216.28       1.1356239    0.0039152803
      6222.50       1.1503856    0.0039185294
      6228.72       1.1636060    0.0039526219
      6234.95       1.1723256    0.0039301679
      6241.19       1.1801374    0.0039375342
      6247.42       1.1936404    0.0039438604
      6253.67       1.2070613    0.0039207278
      6259.93       1.2217547    0.0039598447
      6266.19       1.2371480    0.0039675723
      6272.46       1.2545685    0.0039758837
      6278.73       1.2726041    0.0039549373
      6285.01       1.2908423    0.0039959302
      6291.29       1.3070011    0.0040049724
      6297.58       1.3233789    0.0039855791
      6303.88       1.3449633    0.0039945038
      6310.19       1.3644293    0.0040374156
      6316.50       1.3854031    0.0040191809
      6322.81       1.4060675    0.0040284923
      6329.14       1.4259129    0.0040385072
      6335.47       1.4416450    0.0040553443
      6341.80       1.4546006    0.0040662152
      6348.14       1.4627348    0.0040786127
      6354.49       1.4683421    0.0040647687
      6360.85       1.4735705    0.0041115333
      6367.21       1.4812817    0.0041234375
      6373.57       1.4868404    0.0041074466
      6379.95       1.4874953    0.0041535591
      6386.33       1.4886711    0.0041643177
      6392.72       1.4869724    0.0041459678
      6399.11       1.4834468    0.0041558583
      6405.51       1.4805849    0.0041972264
      6411.92       1.4691312    0.0041765666
      6418.32       1.4611395    0.0041855211
      6424.74       1.4559505    0.0041981943
      6431.17       1.4470291    0.0042073654
      6437.60       1.4397696    0.0042174117
      6444.04       1.4287984    0.0042301684
      6450.48       1.4193626    0.0042387574
      6456.94       1.4069827    0.0042476175
      6463.39       1.3944763    0.0042587278
      6469.85       1.3805484    0.0042674581
      6476.33       1.3681077    0.0042462804
      6482.80       1.3518931    0.0042880526
      6489.28       1.3383623    0.0042962095
      6495.77       1.3234999    0.0042737106
      6502.27       1.3044688    0.0043166768
      6508.77       1.2925711    0.0042961012
      6515.28       1.2772015    0.0043049461
      6521.80       1.2611435    0.0043198573
      6528.32       1.2475410    0.0043285346
      6534.85       1.2291546    0.0043380286
      6541.38       1.2161478    0.0043525084
      6547.92       1.2051924    0.0043615910
      6554.47       1.1932742    0.0043766603
      6561.03       1.1804271    0.0043853240
      6567.59       1.1657509    0.0043655302
      6574.16       1.1526008    0.0044093039
      6580.73       1.1362872    0.0043889779
      6587.31       1.1229480    0.0043990501
      6593.90       1.1086893    0.0044124905
      6600.50       1.0977087    0.0044222672
      6607.10       1.0840944    0.0044660111
      6613.70       1.0757231    0.0044455882
      6620.32       1.0661490    0.0044560475
      6626.94       1.0584265    0.0044688337
      6633.57       1.0522517    0.0044789969
      6640.20       1.0420730    0.0044920777
      6646.84       1.0322431    0.0045020448
      6653.49       1.0235429    0.0045153492
      6660.14       1.0148972    0.0045251363
      6666.80       1.0061035    0.0045034948
      6673.47       1.0020615    0.0045483021
      6680.14      0.99625816    0.0045266349
      6686.82      0.98864704    0.0045723579
      6693.51      0.98330892    0.0045592414
      6700.20      0.97834957    0.0046201424
      6706.90      0.97194341    0.0046020691
      6713.61      0.96631205    0.0046445281
      6720.32      0.96023699    0.0046306817
      6727.05      0.95585254    0.0046396669
      6733.77      0.95192521    0.0047277169
      6740.51      0.94708431    0.0047640070
      6747.25      0.94497029    0.0048818780
      6754.00      0.94151082    0.0049309555
      6760.75      0.93482273    0.0050560602
      6767.51      0.92703425    0.0050891387
      6774.28      0.92020240    0.0051861851
      6781.05      0.91741560    0.0051747464
      6787.84      0.91815850    0.0051773946
      6794.62      0.91889052    0.0051575379
      6801.42      0.92253751    0.0051110682
      6808.22      0.92291757    0.0050686314
      6815.03      0.92484652    0.0050147330
      6821.85      0.92787700    0.0049871926
      6828.67      0.93368466    0.0049702728
      6835.50      0.93475739    0.0049165431
      6842.33      0.93504351    0.0049229963
      6849.17      0.93183084    0.0048775149
      6856.02      0.93200561    0.0049060355
      6862.88      0.93160233    0.0049010984
      6869.74      0.93320520    0.0048673267
      6876.61      0.93542924    0.0049026057
      6883.49      0.93347692    0.0048750927
      6890.37      0.92754091    0.0049177983
      6897.27      0.92616970    0.0048932167
      6904.16      0.93349572    0.0049053843
      6911.07      0.94143665    0.0049109286
      6917.98      0.94783233    0.0049190497
      6924.89      0.95134435    0.0048901155
      6931.82      0.95118076    0.0049271605
      6938.75      0.95091406    0.0049346027
      6945.69      0.95223332    0.0049067362
      6952.64      0.95651674    0.0049466493
      6959.59      0.96069514    0.0049190866
      6966.55      0.96098720    0.0049268678
      6973.52      0.96087058    0.0049682875
      6980.49      0.95807491    0.0049427919
      6987.47      0.96252132    0.0049560664
      6994.46      0.96639767    0.0049679626
      7001.46      0.97146594    0.0049849188
      7008.46      0.97438596    0.0050034736
      7015.46      0.97522565    0.0050179558
      7022.48      0.97886584    0.0050434011
      7029.51      0.98890038    0.0050405074
      7036.53       1.0029952    0.0051143695
      7043.57       1.0110742    0.0051769403
      7050.62       1.0142939    0.0052098260
      7057.66       1.0194853    0.0053105455
      7064.72       1.0244905    0.0053788278
      7071.79       1.0347208    0.0053855593
      7078.86       1.0470495    0.0054240431
      7085.94       1.0556715    0.0054854879
      7093.03       1.0578044    0.0054578085
      7100.12       1.0630644    0.0054623419
      7107.22       1.0717716    0.0054249227
      7114.33       1.0806251    0.0054566515
      7121.44       1.0902044    0.0054620647
      7128.56       1.0950826    0.0054376923
      7135.69       1.0992426    0.0054903981
      7142.83       1.1067061    0.0055088332
      7149.97       1.1157189    0.0055220705
      7157.12       1.1267053    0.0054862114
      7164.28       1.1347533    0.0054799996
      7171.44       1.1330641    0.0055024247
      7178.62       1.1342132    0.0054538203
      7185.80       1.1362757    0.0054413207
      7192.98       1.1491373    0.0054278371
      7200.17       1.1561971    0.0054136544
      7207.38       1.1619558    0.0053914995
      7214.58       1.1619729    0.0053705230
      7221.80       1.1596054    0.0053531958
      7229.02       1.1626574    0.0053063954
      7236.25       1.1714293    0.0053320682
      7243.49       1.1760633    0.0053241393
      7250.73       1.1795219    0.0052863779
      7257.98       1.1747112    0.0052865622
      7265.24       1.1684281    0.0052884680
      7272.51       1.1671957    0.0053232387
      7279.78       1.1648505    0.0052875354
      7287.06       1.1620191    0.0052884346
      7294.35       1.1554590    0.0052911083
      7301.64       1.1423905    0.0052953293
      7308.94       1.1266502    0.0052646994
      7316.25       1.1175539    0.0053034874
      7323.57       1.1102688    0.0053102381
      7330.89       1.1037173    0.0053172463
      7338.22       1.0865936    0.0053253740
      7345.56       1.0697644    0.0052975121
      7352.91       1.0510260    0.0053058383
      7360.26       1.0399736    0.0053144088
      7367.62       1.0307961    0.0053563744
      7374.99       1.0216988    0.0053659008
      7382.37       1.0074556    0.0053393065
      7389.75      0.99216458    0.0053487379
      7397.14      0.97574784    0.0053641099
      7404.53      0.96506961    0.0054062600
      7411.94      0.96095909    0.0054811095
      7419.35      0.95869523    0.0054906589
      7426.77      0.95978729    0.0054869104
      7434.20      0.95739314    0.0055374107
      7441.63      0.95873337    0.0056231480
      7449.07      0.96415648    0.0057957833
      7456.52      0.97391090    0.0060552787
      7463.98      0.98206714    0.0063336710
      7471.45      0.98972591    0.0067367916
      7478.92      0.99497125    0.0071861508
      7486.40       1.0053431    0.0076433636
      7493.88       1.0259692    0.0080456900
      7501.38       1.0556198    0.0083130409
      7508.88       1.0764498    0.0083778788
      7516.39       1.0783774    0.0081798099
      7523.91       1.0788390    0.0078913280
      7531.43       1.0907225    0.0075004512
      7538.96       1.1063877    0.0070802854
      7546.50       1.1281281    0.0066908832
      7554.05       1.1487825    0.0063836703
      7561.60       1.1658311    0.0062073223
      7569.16       1.1769608    0.0060004518
      7576.73       1.1904035    0.0058559746
      7584.31       1.2097888    0.0057488466
      7591.89       1.2347540    0.0056928251
      7599.49       1.2575049    0.0056433504
      7607.09       1.2741973    0.0056044173
      7614.70       1.2858882    0.0055778005
      7622.31       1.2990580    0.0055620796
      7629.93       1.3175417    0.0055548453
      7637.56       1.3414699    0.0055535686
      7645.20       1.3565880    0.0055559267
      7652.85       1.3615423    0.0055600954
      7660.50       1.3548583    0.0055323829
      7668.16       1.3542259    0.0055387623
      7675.83       1.3620816    0.0055456719
      7683.50       1.3702941    0.0055524098
      7691.19       1.3789505    0.0055593757
      7698.88       1.3795361    0.0055666897
      7706.58       1.3754184    0.0055375106
      7714.29       1.3698207    0.0055446866
      7722.00       1.3730431    0.0055527754
      7729.73       1.3821814    0.0055618729
      7737.45       1.3884552    0.0055715050
      7745.19       1.3846241    0.0055818216
      7752.94       1.3784030    0.0055932620
      7760.69       1.3700573    0.0056053630
      7768.45       1.3664627    0.0055828064
      7776.22       1.3674772    0.0055228065
      7784.00       1.3699363    0.0054962990
      7791.78       1.3626516    0.0054708604
      7799.57       1.3486372    0.0054141529
      7807.37       1.3287271    0.0053900856
      7815.18       1.3112193    0.0053631699
      7822.99       1.2965752    0.0053092896
      7830.82       1.2787801    0.0052870671
      7838.65       1.2561609    0.0052362295
      7846.49       1.2293160    0.0052419642
      7854.34       1.2002921    0.0051938908
      7862.19       1.1662664    0.0051474483
      7870.05       1.1265349    0.0051285624
      7877.93       1.0857003    0.0051072473
      7885.80       1.0463849    0.0050868155
      7893.69       1.0063185    0.0050415319
      7901.58      0.96402082    0.0050227302
      7909.49      0.91762724    0.0049814009
      7917.40      0.87318486    0.0049626884
      7925.31      0.83060727    0.0049492860
      7933.24      0.79075715    0.0049143371
      7941.17      0.74976244    0.0049020378
      7949.11      0.71261930    0.0048691965
      7957.06      0.67793823    0.0048822951
      7965.02      0.64136255    0.0048592813
      7972.98      0.60817040    0.0048415560
      7980.96      0.57549782    0.0048563394
      7988.94      0.54622895    0.0048577963
      7996.93      0.51830358    0.0048769807
      8004.93      0.49283531    0.0048627549
      8012.93      0.47176962    0.0048736891
      8020.95      0.45158814    0.0048794800
      8028.97      0.43309100    0.0048908561
      8036.99      0.41478551    0.0048760798
      8045.03      0.39917531    0.0048765687
      8053.08      0.39041268    0.0048486571
      8061.13      0.38251648    0.0048382179
      8069.20      0.37726597    0.0048044765
      8077.26      0.37065322    0.0047672881
      8085.34      0.36473212    0.0047446719
      8093.43      0.36233250    0.0047035377
      8101.52      0.36163652    0.0046789752
      8109.62      0.36387374    0.0046371132
      8117.73      0.36742178    0.0046098932
      8125.85      0.37200587    0.0045682945
      8133.98      0.37743698    0.0045771796
      8142.11      0.38471187    0.0046275829
      8150.25      0.39448234    0.0047046241
      8158.41      0.40645066    0.0047889166
      8166.56      0.42038225    0.0048998880
      8174.73      0.43479380    0.0050116388
      8182.91      0.44969199    0.0051719018
      8191.09      0.46589943    0.0053926665
      8199.28      0.48473764    0.0056545068
      8207.48      0.50548696    0.0059493473
      8215.69      0.52745365    0.0063769533
      8223.91      0.55079358    0.0070264171
      8232.13      0.57594108    0.0077828405
      8240.36      0.60314513    0.0086532959
      8248.60      0.63130249    0.0099470697
      8256.85      0.66110797     0.011791564
      8265.11      0.69331534     0.013875820
