# starting wavelength =        3378.7100
# ending wavelength =        7172.0100
# O2 telluric scale =        0
# O2 telluric shift =        0
# H2O telluric scale =        0
# H2O telluric shift =        0
      3381.94       1.1885376      0.11979461
      3385.32       1.2959656      0.10194005
      3388.70       1.3388581     0.085118051
      3392.09       1.3727305     0.074610373
      3395.48       1.3886383     0.066349852
      3398.88       1.4005262     0.059915339
      3402.28       1.4005479     0.054935275
      3405.68       1.4290559     0.051775008
      3409.09       1.4417071     0.048588366
      3412.49       1.4346087     0.046103958
      3415.91       1.4390648     0.044153640
      3419.32       1.4439411     0.042235683
      3422.74       1.4609695     0.041013104
      3426.17       1.4795107     0.040004840
      3429.59       1.4754912     0.039159506
      3433.02       1.4722190     0.038266068
      3436.45       1.4809236     0.037612048
      3439.89       1.4789420     0.037045573
      3443.33       1.4730100     0.036899069
      3446.78       1.4389929     0.036757592
      3450.22       1.4359610     0.036558138
      3453.67       1.4387597     0.036416097
      3457.13       1.4309346     0.036457893
      3460.58       1.4330405     0.036496091
      3464.04       1.4277366     0.036116657
      3467.51       1.4061908     0.036156077
      3470.98       1.3700439     0.036198976
      3474.45       1.3722224     0.036063680
      3477.92       1.3876199     0.035859369
      3481.40       1.3996188     0.035723487
      3484.88       1.3959188     0.035762844
      3488.37       1.4003147     0.035569631
      3491.86       1.4095568     0.035426403
      3495.35       1.3944341     0.035473739
      3498.84       1.3986313     0.035519703
      3502.34       1.3872088     0.035137596
      3505.84       1.3552722     0.035184217
      3509.35       1.3627663     0.035233220
      3512.86       1.3465749     0.035100197
      3516.37       1.3485609     0.034898377
      3519.89       1.3539410     0.034765431
      3523.41       1.3612684     0.034810057
      3526.93       1.3836117     0.034618253
      3530.46       1.3771086     0.034477858
      3533.99       1.3965584     0.034534502
      3537.53       1.4020248     0.034584433
      3541.06       1.3986803     0.034394114
      3544.60       1.3939246     0.034252420
      3548.15       1.3987927     0.034313184
      3551.70       1.3949395     0.034116523
      3555.25       1.3834155     0.033982430
      3558.80       1.3928039     0.034036782
      3562.36       1.4100675     0.033848632
      3565.92       1.4233196     0.033707683
      3569.49       1.4324231     0.033772102
      3573.06       1.4551777     0.033577072
      3576.64       1.4418981     0.033444363
      3580.21       1.4391204     0.033501847
      3583.79       1.4622863     0.033571684
      3587.38       1.4428188     0.033376429
      3590.96       1.4408875     0.033245088
      3594.55       1.4447662     0.033306139
      3598.15       1.4173419     0.033118219
      3601.75       1.4150329     0.033185971
      3605.35       1.4081185     0.033057116
      3608.96       1.4034572     0.032860297
      3612.56       1.4008069     0.032931220
      3616.18       1.3980704     0.033007390
      3619.79       1.4061730     0.032606366
      3623.41       1.3927356     0.032682475
      3627.04       1.3928554     0.032756308
      3630.66       1.3801518     0.032572330
      3634.29       1.3737240     0.032431649
      3637.93       1.3579431     0.032518235
      3641.57       1.3568669     0.032323993
      3645.21       1.3545415     0.032406483
      3648.86       1.3497418     0.032269646
      3652.50       1.3315981     0.032081886
      3656.16       1.3602368     0.032170083
      3659.81       1.3703170     0.031980393
      3663.47       1.3858792     0.032070853
      3667.14       1.3822801     0.031930878
      3670.80       1.3770168     0.031745989
      3674.48       1.3659927     0.031837223
      3678.15       1.3705170     0.031928926
      3681.83       1.3793697     0.031748902
      3685.51       1.3875331     0.031605812
      3689.20       1.3719324     0.031712699
      3692.88       1.3757617     0.031519502
      3696.58       1.3826059     0.031618595
      3700.27       1.3885869     0.031440711
      3703.98       1.3836199     0.031295627
      3707.68       1.3763406     0.031409741
      3711.39       1.3657323     0.031216987
      3715.10       1.3791080     0.031322840
      3718.81       1.3712576     0.031440004
      3722.53       1.3654722     0.031250105
      3726.26       1.3723160     0.031123862
      3729.98       1.3712907     0.030930530
      3733.71       1.3690171     0.031042111
      3737.45       1.3887258     0.031170507
      3741.18       1.3974131     0.030979312
      3744.93       1.3891355     0.031102094
      3748.67       1.3716813     0.030925470
      3752.42       1.3709649     0.030777913
      3756.17       1.3978812     0.030922119
      3759.93       1.4177021     0.030727092
      3763.69       1.4164285     0.030540759
      3767.45       1.4155071     0.030414936
      3771.22       1.4205521     0.030223446
      3774.99       1.3987885     0.030041406
      3778.77       1.3902452     0.029914976
      3782.54       1.3655968     0.029727602
      3786.33       1.3605215     0.029292085
      3790.11       1.3640397     0.029421910
      3793.90       1.3513317     0.029238197
      3797.70       1.3408551     0.028809734
      3801.50       1.3295310     0.028936817
      3805.30       1.3113442     0.028754990
      3809.10       1.3065099     0.028332480
      3812.91       1.3009577     0.028165191
      3816.73       1.2778303     0.028278769
      3820.54       1.2756160     0.027862070
      3824.36       1.2859510     0.027695701
      3828.19       1.3082248     0.027808310
      3832.02       1.3108282     0.027397831
      3835.85       1.3123139     0.027232404
      3839.68       1.3227678     0.027072630
      3843.52       1.3341300     0.026939697
      3847.37       1.3332298     0.026775318
      3851.22       1.3282762     0.026615813
      3855.07       1.3227458     0.026227254
      3858.92       1.3295202     0.026324824
      3862.78       1.3245669     0.026165165
      3866.64       1.3340963     0.025787468
      3870.51       1.3313375     0.025881052
      3874.38       1.3135264     0.025721957
      3878.26       1.2987513     0.025355181
      3882.13       1.3044213     0.025193410
      3886.02       1.2851510     0.025285291
      3889.90       1.2731040     0.025130604
      3893.79       1.2723547     0.024769334
      3897.69       1.2626375     0.024611134
      3901.59       1.2433191     0.024457379
      3905.49       1.2413507     0.024352899
      3909.39       1.2350423     0.024195037
      3913.30       1.2294270     0.024040958
      3917.22       1.2247714     0.023889922
      3921.13       1.2172238     0.023787736
      3925.06       1.2028505     0.023633104
      3928.98       1.2063395     0.023481479
      3932.91       1.2134224     0.023140692
      3936.84       1.2172550     0.022996848
      3940.78       1.2235747     0.023082399
      3944.72       1.2341600     0.022933974
      3948.67       1.2303143     0.022599780
      3952.61       1.2414253     0.022457604
      3956.57       1.2590261     0.022318721
      3960.52       1.2536467     0.022397425
      3964.48       1.2517046     0.022070187
      3968.45       1.2499020     0.021930304
      3972.42       1.2409485     0.021792083
      3976.39       1.2237174     0.021656702
      3980.37       1.2266116     0.021523975
      3984.35       1.2204418     0.021413459
      3988.33       1.2066491     0.021277289
      3992.32       1.2072047     0.021143316
      3996.31       1.2074507     0.021010622
      4000.31       1.2074196     0.020708988
      4004.31       1.2220427     0.020575435
      4008.31       1.2272973     0.020641474
      4012.32       1.2112506     0.020510896
      4016.33       1.2116347     0.020381469
      4020.35       1.2235328     0.020090271
      4024.37       1.2164891     0.019959746
      4028.40       1.2176888     0.019830800
      4032.42       1.2137785     0.019894461
      4036.46       1.2030402     0.019768209
      4040.50       1.1950684     0.019489364
      4044.54       1.1840193     0.019361517
      4048.58       1.1803624     0.019235798
      4052.63       1.1736313     0.019110773
      4056.68       1.1702303     0.018987628
      4060.74       1.1613274     0.018716774
      4064.80       1.1638914     0.018782613
      4068.86       1.1766996     0.018659019
      4072.93       1.1994815     0.018537302
      4077.01       1.2178965     0.018416110
      4081.08       1.2312886     0.018296583
      4085.17       1.2306187     0.018034992
      4089.25       1.2209819     0.017918564
      4093.34       1.2165590     0.017803664
      4097.43       1.2033867     0.017689596
      4101.53       1.1987512     0.017576789
      4105.63       1.1924320     0.017630539
      4109.74       1.1841332     0.017515802
      4113.85       1.1791224     0.017264318
      4117.96       1.1713196     0.017152512
      4122.08       1.1721186     0.017041405
      4126.20       1.1730699     0.016931456
      4130.33       1.1636979     0.016822739
      4134.46       1.1619279     0.016714671
      4138.59       1.1566896     0.016607697
      4142.73       1.1674146     0.016501312
      4146.88       1.1698672     0.016267694
      4151.02       1.1723366     0.016161760
      4155.18       1.1742545     0.016056612
      4159.33       1.1729170     0.015952149
      4163.49       1.1757599     0.015848979
      4167.65       1.1771713     0.015894636
      4171.82       1.1682358     0.015791923
      4175.99       1.1672606     0.015690149
      4180.17       1.1871584     0.015588927
      4184.35       1.1815092     0.015488833
      4188.54       1.1880486     0.015275710
      4192.72       1.1945395     0.015176269
      4196.92       1.1924549     0.015077425
      4201.11       1.1955263     0.014979813
      4205.31       1.1871596     0.014882615
      4209.52       1.1860904     0.014786137
      4213.73       1.1925461     0.014690521
      4217.94       1.1885909     0.014595767
      4222.16       1.1881175     0.014501693
      4226.38       1.1842974     0.014408066
      4230.61       1.1842491     0.014315494
      4234.84       1.1915010     0.014223380
      4239.08       1.1955324     0.014132049
      4243.32       1.1887847     0.014041416
      4247.56       1.1819821     0.013951377
      4251.81       1.1786492     0.013756398
      4256.06       1.1829891     0.013668657
      4260.32       1.1899651     0.013581343
      4264.58       1.1742089     0.013494355
      4268.84       1.1754431     0.013408338
      4273.11       1.1653530     0.013323090
      4277.38       1.1597675     0.013238301
      4281.66       1.1571089     0.013154091
      4285.94       1.1584677     0.013070802
      4290.23       1.1570548     0.012870628
      4294.52       1.1560807     0.012789230
      4298.81       1.1543083     0.012708466
      4303.11       1.1606825     0.012628367
      4307.42       1.1533389     0.012548756
      4311.72       1.1499133     0.012470088
      4316.04       1.1497719     0.012392060
      4320.35       1.1486227     0.012314233
      4324.67       1.1385138     0.012237331
      4329.00       1.1443965     0.012161414
      4333.33       1.1390449     0.012085711
      4337.66       1.1323923     0.012010673
      4342.00       1.1252893     0.011936529
      4346.34       1.1143884     0.011863014
      4350.69       1.1215196     0.011790136
      4355.04       1.1250457     0.011608788
      4359.39       1.1352891     0.011536913
      4363.75       1.1437318     0.011465839
      4368.12       1.1568109     0.011395392
      4372.48       1.1538945     0.011325605
      4376.86       1.1624938     0.011339989
      4381.23       1.1727262     0.011270917
      4385.61       1.1725437     0.011202614
      4390.00       1.1763196     0.011135306
      4394.39       1.1798577     0.010970652
      4398.79       1.1854711     0.010903752
      4403.18       1.1854238     0.010837758
      4407.59       1.1892100     0.010772283
      4412.00       1.1882130     0.010707305
      4416.41       1.1833973     0.010643245
      4420.82       1.1791242     0.010579987
      4425.25       1.1717012     0.010517325
      4429.67       1.1570689     0.010364451
      4434.10       1.1635355     0.010303797
      4438.54       1.1684198     0.010244000
      4442.97       1.1762693     0.010257836
      4447.42       1.1808778     0.010197487
      4451.86       1.1786217     0.010137914
      4456.32       1.1786689     0.010079239
      4460.77       1.1905368    0.0099343675
      4465.24       1.1990643    0.0098778256
      4469.70       1.2067718    0.0098219395
      4474.17       1.2243721    0.0097668847
      4478.65       1.2364270    0.0097127459
      4483.12       1.2471195    0.0095721498
      4487.61       1.2621404    0.0095869953
      4492.09       1.2755570    0.0095335820
      4496.59       1.2823048    0.0094810065
      4501.08       1.2835480    0.0094291631
      4505.58       1.2726778    0.0093782635
      4510.09       1.2508476    0.0092449390
      4514.60       1.2413758    0.0091941181
      4519.12       1.2406307    0.0092108809
      4523.63       1.2348284    0.0091617375
      4528.16       1.2250352    0.0091133471
      4532.69       1.1985670    0.0089865589
      4537.22       1.1810233    0.0089384012
      4541.76       1.1669340    0.0088912255
      4546.30       1.1547349    0.0088448199
      4550.85       1.1407708    0.0087888731
      4555.40       1.1370137    0.0087422587
      4559.95       1.1294819    0.0086966562
      4564.51       1.1242783    0.0086518507
      4569.08       1.1102837    0.0085365642
      4573.65       1.1035643    0.0084942681
      4578.22       1.0969203    0.0085116169
      4582.80       1.0848587    0.0084686261
      4587.38       1.0807956    0.0083569194
      4591.97       1.0654831    0.0083166061
      4596.56       1.0539175    0.0082773546
      4601.16       1.0435799    0.0082948121
      4605.76       1.0394857    0.0081865693
      4610.37       1.0358064    0.0081480903
      4614.98       1.0349272    0.0081107209
      4619.59       1.0234157    0.0080741956
      4624.21       1.0169412    0.0080247774
      4628.84       1.0068791    0.0079883013
      4633.47       1.0069490    0.0079529722
      4638.10       1.0101956    0.0078511662
      4642.74       1.0162832    0.0078718301
      4647.38       1.0097622    0.0078374928
      4652.03       1.0184780    0.0078043433
      4656.68       1.0300280    0.0077056355
      4661.34       1.0460443    0.0077275231
      4666.00       1.0487883    0.0076953669
      4670.67       1.0512138    0.0076005380
      4675.33       1.0651159    0.0075683225
      4680.01       1.0720673    0.0075917344
      4684.69       1.0801954    0.0075002702
      4689.38       1.0826808    0.0074691518
      4694.07       1.0908543    0.0074391868
      4698.76       1.0929673    0.0074047964
      4703.46       1.1032771    0.0073748456
      4708.16       1.1000564    0.0073462157
      4712.87       1.1028755    0.0072611352
      4717.58       1.0963849    0.0072852899
      4722.30       1.0947098    0.0072578705
      4727.03       1.0909371    0.0071750274
      4731.75       1.0913961    0.0072004099
      4736.48       1.0788873    0.0071741417
      4741.22       1.0816820    0.0070934785
      4745.96       1.0757781    0.0070702676
      4750.71       1.0704394    0.0070396531
      4755.46       1.0602715    0.0070164445
      4760.22       1.0594696    0.0069945940
      4764.97       1.0697585    0.0069656420
      4769.74       1.0716694    0.0069438151
      4774.51       1.0770021    0.0069235701
      4779.29       1.0710410    0.0068961800
      4784.07       1.0757466    0.0068758846
      4788.85       1.0798607    0.0068022643
      4793.64       1.0933940    0.0068309335
      4798.43       1.0940070    0.0068123117
      4803.23       1.0925258    0.0067401268
      4808.03       1.0888952    0.0067700768
      4812.84       1.0930656    0.0067004549
      4817.66       1.0921209    0.0066821780
      4822.48       1.0898344    0.0067137023
      4827.30       1.0807142    0.0066451219
      4832.12       1.0771848    0.0066285455
      4836.96       1.0695831    0.0066103717
      4841.79       1.0669632    0.0065940114
      4846.63       1.0617614    0.0065304879
      4851.48       1.0634527    0.0065617282
      4856.33       1.0645302    0.0064988783
      4861.19       1.0678867    0.0065315911
      4866.05       1.0758225    0.0065174185
      4870.92       1.0786898    0.0064570770
      4875.79       1.0872259    0.0064896896
      4880.66       1.0946121    0.0064298593
      4885.55       1.1011295    0.0064637554
      4890.43       1.1083413    0.0064047257
      4895.32       1.1162511    0.0063948236
      4900.22       1.1235324    0.0063816054
      4905.12       1.1304220    0.0063719964
      4910.02       1.1352362    0.0063602848
      4914.94       1.1394664    0.0063511857
      4919.85       1.1402617    0.0062955523
      4924.77       1.1369993    0.0063322123
      4929.70       1.1383672    0.0062778256
      4934.62       1.1313477    0.0063150605
      4939.56       1.1290577    0.0062619616
      4944.50       1.1260104    0.0062997540
      4949.44       1.1222526    0.0062476950
      4954.39       1.1221688    0.0062406256
      4959.35       1.1202337    0.0062350481
      4964.31       1.1205434    0.0062286916
      4969.27       1.1181016    0.0062241527
      4974.24       1.1155251    0.0062183830
      4979.22       1.1091453    0.0062147537
      4984.20       1.1102674    0.0062095991
      4989.18       1.1076966    0.0062069216
      4994.17       1.1022133    0.0062025880
      4999.16       1.1039917    0.0062006920
      5004.16       1.1094678    0.0061541679
      5009.17       1.1091419    0.0061958534
      5014.18       1.1130794    0.0061502811
      5019.19       1.1195050    0.0061926271
      5024.21       1.1242262    0.0061479383
      5029.23       1.1245304    0.0061908147
      5034.26       1.1283352    0.0061470820
      5039.30       1.1251330    0.0061904801
      5044.34       1.1236310    0.0061478831
      5049.39       1.1217160    0.0061493970
      5054.43       1.1165096    0.0061501382
      5059.49       1.1133286    0.0061522451
      5064.55       1.1076707    0.0061539855
      5069.61       1.0928587    0.0061565710
      5074.68       1.0822550    0.0061163000
      5079.76       1.0735234    0.0061622559
      5084.84       1.0712942    0.0061222060
      5089.92       1.0668655    0.0061694423
      5095.01       1.0652372    0.0061296983
      5100.11       1.0620978    0.0061361360
      5105.21       1.0579082    0.0061385715
      5110.31       1.0563562    0.0061453016
      5115.42       1.0570148    0.0061535401
      5120.54       1.0552851    0.0061560947
      5125.66       1.0563081    0.0061645036
      5130.79       1.0560216    0.0061682930
      5135.92       1.0540403    0.0061768283
      5141.05       1.0521380    0.0061417561
      5146.20       1.0479624    0.0061907692
      5151.34       1.0526043    0.0062007621
      5156.49       1.0539796    0.0061658048
      5161.65       1.0528909    0.0062161480
      5166.81       1.0535063    0.0061826155
      5171.98       1.0577886    0.0061928061
      5177.15       1.0637959    0.0062445898
      5182.33       1.0672356    0.0062114783
      5187.51       1.0734721    0.0062228464
      5192.70       1.0751565    0.0062316472
      5197.89       1.0758163    0.0062430194
      5203.09       1.0726762    0.0062554758
      5208.29       1.0698401    0.0062648983
      5213.50       1.0647221    0.0062773357
      5218.72       1.0612024    0.0062454669
      5223.93       1.0565046    0.0062597849
      5229.16       1.0471124    0.0063142121
      5234.39       1.0321656    0.0062827022
      5239.62       1.0288270    0.0062978380
      5244.86       1.0231302    0.0063535818
      5250.11       1.0246169    0.0063225447
      5255.36       1.0172731    0.0063384855
      5260.61       1.0169594    0.0063552515
      5265.87       1.0157320    0.0063646234
      5271.14       1.0149851    0.0063811659
      5276.41       1.0154426    0.0063985772
      5281.69       1.0119772    0.0063694732
      5286.97       1.0177440    0.0064262632
      5292.26       1.0227317    0.0064442485
      5297.55       1.0200879    0.0064161517
      5302.85       1.0167619    0.0064336557
      5308.15       1.0126445    0.0064918559
      5313.46       1.0058928    0.0064649898
      5318.77       1.0052554    0.0064828733
      5324.09       1.0000529    0.0065015066
      5329.42      0.99343651    0.0065612710
      5334.75      0.98703900    0.0065344753
      5340.08      0.99266860    0.0065533703
      5345.42      0.99503854    0.0065729436
      5350.77      0.98525417    0.0065460279
      5356.12      0.97937692    0.0066075170
      5361.48      0.97452001    0.0066273306
      5366.83      0.97076629    0.0066477621
      5372.20      0.96935888    0.0066209107
      5377.58      0.96491982    0.0066421220
      5382.95      0.96149265    0.0067045531
      5388.34      0.95681305    0.0067256248
      5393.72      0.95239012    0.0066987605
      5399.12      0.94637662    0.0067206208
      5404.52      0.94495707    0.0067429031
      5409.92      0.93649096    0.0067656696
      5415.33      0.93189992    0.0067795452
      5420.75      0.93515123    0.0068019148
      5426.17      0.93288052    0.0068246387
      5431.60      0.92785959    0.0068476922
      5437.03      0.92685652    0.0068226111
      5442.47      0.91995878    0.0068451216
      5447.91      0.91150230    0.0068679983
      5453.36      0.90413157    0.0069323034
      5458.81      0.92107380    0.0069560543
      5464.27      0.93964538    0.0069316321
      5469.73      0.95431526    0.0069546967
      5475.20      0.96849910    0.0069781165
      5480.68      0.97549471    0.0070018821
      5486.16      0.98219473    0.0070258604
      5491.65      0.98550906    0.0070005602
      5497.14      0.99140369    0.0070248985
      5502.64       1.0000035    0.0070919760
      5508.14       1.0032070    0.0071160526
      5513.65       1.0024949    0.0071402973
      5519.16       1.0046711    0.0071648716
      5524.68       1.0014678    0.0071390715
      5530.20      0.98869512    0.0071638250
      5535.73      0.97898328    0.0071888091
      5541.27      0.96219241    0.0072139049
      5546.81      0.93664109    0.0072390953
      5552.36      0.92687926    0.0072643525
      5557.91      0.93601602    0.0072898575
      5563.47      0.94395826    0.0072641923
      5569.04      0.94154764    0.0072891777
      5574.60      0.93802928    0.0073143268
      5580.18      0.93225200    0.0073395482
      5585.76      0.92299781    0.0073648229
      5591.35      0.92259236    0.0074331996
      5596.94      0.92931833    0.0074588522
      5602.53      0.93715825    0.0074845385
      5608.14      0.94438673    0.0075103440
      5613.75      0.95090137    0.0074855903
      5619.36      0.95331493    0.0075109376
      5624.98      0.95664980    0.0075363802
      5630.60      0.96087313    0.0075622643
      5636.23      0.97035887    0.0075886351
      5641.87      0.96716468    0.0076151908
      5647.51      0.96665213    0.0076414873
      5653.16      0.96430037    0.0076677970
      5658.82      0.96508053    0.0076947280
      5664.47      0.96365574    0.0077234378
      5670.14      0.95659245    0.0077546778
      5675.81      0.94571679    0.0077872951
      5681.48      0.93058555    0.0078199636
      5687.17      0.91578448    0.0078105801
      5692.85      0.89905056    0.0078448659
      5698.55      0.88723882    0.0078226666
      5704.25      0.87807996    0.0078528062
      5709.95      0.86340531    0.0078812897
      5715.66      0.85176795    0.0079086145
      5721.38      0.84859151    0.0079346143
      5727.10      0.83785968    0.0079591250
      5732.83      0.85081170    0.0079825902
      5738.56      0.85278318    0.0080061474
      5744.30      0.85983083    0.0080302590
      5750.04      0.85706367    0.0080542779
      5755.79      0.86951904    0.0080772969
      5761.55      0.87619466    0.0080992150
      5767.31      0.87631510    0.0081201265
      5773.08      0.87759879    0.0080924557
      5778.85      0.88598821    0.0081126745
      5784.63      0.88289233    0.0081319804
      5790.41      0.88123879    0.0081499738
      5796.21      0.88373792    0.0081687190
      5802.00      0.87835245    0.0081894902
      5807.81      0.87248701    0.0082646638
      5813.61      0.86680757    0.0082841766
      5819.43      0.85872659    0.0083044977
      5825.25      0.86608898    0.0082790959
      5831.07      0.86326227    0.0083005875
      5836.90      0.85132475    0.0083223149
      5842.74      0.85637521    0.0083442275
      5848.58      0.84939480    0.0083664882
      5854.43      0.84706289    0.0083890402
      5860.29      0.84043111    0.0084114004
      5866.15      0.84175204    0.0083866875
      5872.01      0.84302885    0.0084090182
      5877.89      0.83908194    0.0084313734
      5883.76      0.83746808    0.0084537736
      5889.65      0.83589030    0.0084760705
      5895.54      0.83477717    0.0085514666
      5901.43      0.83771918    0.0085249089
      5907.34      0.84436834    0.0085461881
      5913.24      0.85269103    0.0085673554
      5919.16      0.85616866    0.0085885501
      5925.08      0.84925257    0.0086096900
      5931.00      0.85340757    0.0085809157
      5936.93      0.85354863    0.0086008713
      5942.87      0.84341747    0.0086764127
      5948.81      0.83757651    0.0086965279
      5954.76      0.84140828    0.0086679187
      5960.72      0.83328606    0.0086866658
      5966.68      0.82406752    0.0087053540
      5972.64      0.81234870    0.0087240898
      5978.62      0.80837468    0.0087428333
      5984.60      0.79724378    0.0087686322
      5990.58      0.78498774    0.0087860797
      5996.57      0.77310249    0.0088035977
      6002.57      0.76438741    0.0088215441
      6008.57      0.75680624    0.0087929131
      6014.58      0.75435035    0.0088152947
      6020.60      0.75218331    0.0088881867
      6026.62      0.74587730    0.0088547002
      6032.65      0.73000912    0.0088741242
      6038.68      0.73398632    0.0088983731
      6044.72      0.73589045    0.0089270792
      6050.76      0.74005101    0.0089675808
      6056.81      0.74718283    0.0090026208
      6062.87      0.75297973    0.0090385667
      6068.93      0.75734701    0.0090241266
      6075.00      0.76135834    0.0091119119
      6081.08      0.76459095    0.0091367819
      6087.16      0.76268985    0.0091031630
      6093.25      0.76856232    0.0091128006
      6099.34      0.77691689    0.0091165821
      6105.44      0.77604630    0.0091175668
      6111.54      0.77567613    0.0091118665
      6117.66      0.77336793    0.0091069975
      6123.78      0.76832186    0.0090555973
      6129.90      0.76538555    0.0091139622
      6136.03      0.75815839    0.0091159527
      6142.17      0.75508279    0.0090649560
      6148.31      0.75216828    0.0091219067
      6154.46      0.76465387    0.0091250355
      6160.61      0.77107991    0.0090780612
      6166.77      0.77886534    0.0090830762
      6172.94      0.78340206    0.0091407755
      6179.11      0.78706744    0.0090948140
      6185.29      0.79103763    0.0091007886
      6191.48      0.79487160    0.0091088682
      6197.67      0.80050218    0.0091150150
      6203.87      0.80499206    0.0091222516
      6210.07      0.80493338    0.0091304920
      6216.28      0.80399969    0.0091366008
      6222.50      0.79623991    0.0090925016
      6228.72      0.78959219    0.0090998159
      6234.95      0.78074190    0.0091147390
      6241.19      0.77568208    0.0091254896
      6247.42      0.77112611    0.0091912837
      6253.67      0.76655321    0.0091496641
      6259.93      0.76778359    0.0091568529
      6266.19      0.76959488    0.0091683210
      6272.46      0.76746615    0.0091725024
      6278.73      0.76984063    0.0091249540
      6285.01      0.77299630    0.0091776058
      6291.29      0.77497236    0.0091240759
      6297.58      0.77265593    0.0091211755
      6303.88      0.77957844    0.0091678390
      6310.19      0.78156436    0.0091131470
      6316.50      0.78081712    0.0091614337
      6322.81      0.77883229    0.0091071711
      6329.14      0.77558962    0.0091043849
      6335.47      0.77152761    0.0090978093
      6341.80      0.76978564    0.0090914756
      6348.14      0.76552639    0.0090819069
      6354.49      0.75961567    0.0090742266
      6360.85      0.75346651    0.0090143450
      6367.21      0.75365323    0.0090566481
      6373.57      0.75426466    0.0089937991
      6379.95      0.75386412    0.0090335104
      6386.33      0.75543010    0.0089718472
      6392.72      0.75149102    0.0089629283
      6399.11      0.74944891    0.0089521747
      6405.51      0.74861169    0.0089428805
      6411.92      0.74602382    0.0089315801
      6418.32      0.74443526    0.0088718836
      6424.74      0.74522234    0.0089088278
      6431.17      0.74848125    0.0088479861
      6437.60      0.74969683    0.0088832399
      6444.04      0.74997504    0.0088215245
      6450.48      0.74826312    0.0088060235
      6456.94      0.74901471    0.0087928204
      6463.39      0.74958939    0.0087756496
      6469.85      0.74765709    0.0087614687
      6476.33      0.74914341    0.0087425624
      6482.80      0.74339591    0.0086771477
      6489.28      0.74325991    0.0087066807
      6495.77      0.74007353    0.0086396701
      6502.27      0.73441995    0.0086679950
      6508.77      0.72973796    0.0085994860
      6515.28      0.72504814    0.0085772114
      6521.80      0.71993496    0.0085564433
      6528.32      0.72429933    0.0085321799
      6534.85      0.72256337    0.0085557889
      6541.38      0.72192857    0.0084843526
      6547.92      0.72179713    0.0084578890
      6554.47      0.72608861    0.0084336461
      6561.03      0.72691937    0.0084051500
      6567.59      0.72136674    0.0083339308
      6574.16      0.71736962    0.0083589664
      6580.73      0.71917220    0.0083600340
      6587.31      0.71770913    0.0083113278
      6593.90      0.71169266    0.0083124852
      6600.50      0.70495537    0.0082419272
      6607.10      0.68941165    0.0082508632
      6613.70      0.68026484    0.0082824852
      6620.32      0.67221462    0.0083474538
      6626.94      0.65961867    0.0084365885
      6633.57      0.64943011    0.0084852660
      6640.20      0.64704020    0.0086134860
      6646.84      0.64521172    0.0086892842
      6653.49      0.64141749    0.0086727167
      6660.14      0.63801304    0.0087168131
      6666.80      0.63613409    0.0086113693
      6673.47      0.64143438    0.0085079013
      6680.14      0.65000851    0.0083686969
      6686.82      0.64999903    0.0082423319
      6693.51      0.64738776    0.0080872664
      6700.20      0.64852811    0.0079528721
      6706.90      0.65564911    0.0078166539
      6713.61      0.65321968    0.0077689344
      6720.32      0.65199944    0.0076541342
      6727.05      0.65382230    0.0075253593
      6733.77      0.64990508    0.0074423714
      6740.51      0.65141218    0.0073624161
      6747.25      0.65556684    0.0073007999
      6754.00      0.65249988    0.0072282430
      6760.75      0.64948932    0.0071608245
      6767.51      0.65030055    0.0070966290
      6774.28      0.64454532    0.0070458975
      6781.05      0.63974642    0.0069817076
      6787.84      0.63685802    0.0069146103
      6794.62      0.63379356    0.0068145330
      6801.42      0.63278725    0.0066715224
      6808.22      0.62801850    0.0065296750
      6815.03      0.62383066    0.0064295933
      6821.85      0.62079496    0.0062926853
      6828.67      0.62454057    0.0061592780
      6835.50      0.62349537    0.0060426258
      6842.33      0.62466779    0.0059136425
      6849.17      0.61843671    0.0057881482
      6856.02      0.61886635    0.0056707526
      6862.88      0.62410882    0.0055883074
      6869.74      0.62412792    0.0054755243
      6876.61      0.62283223    0.0053618281
      6883.49      0.62284566    0.0052495311
      6890.37      0.62327435    0.0051688119
      6897.27      0.61984429    0.0050538750
      6904.16      0.61910309    0.0049719545
      6911.07      0.61719438    0.0049007025
      6917.98      0.60732829    0.0048257276
      6924.89      0.60593154    0.0047651704
      6931.82      0.60172506    0.0046754976
      6938.75      0.59781240    0.0045823005
      6945.69      0.59503894    0.0044857172
      6952.64      0.59877055    0.0043827865
      6959.59      0.59344625    0.0042816772
      6966.55      0.58808516    0.0042026242
      6973.52      0.58036139    0.0040975793
      6980.49      0.58127393    0.0039824715
      6987.47      0.57919582    0.0038728123
      6994.46      0.57782054    0.0037651698
      7001.46      0.57436846    0.0036610747
      7008.46      0.57310750    0.0035615233
      7015.46      0.57061298    0.0034668825
      7022.48      0.57003568    0.0033772746
      7029.51      0.57396271    0.0032936096
      7036.53      0.57653926    0.0032169048
      7043.57      0.57675882    0.0031605280
      7050.62      0.57645509    0.0030966308
      7057.66      0.57747731    0.0030778910
      7064.72      0.57623171    0.0031054772
      7071.79      0.57591987    0.0031427147
      7078.86      0.57491031    0.0031913775
      7085.94      0.57456127    0.0032548678
      7093.03      0.57331641    0.0033377246
      7100.12      0.57189868    0.0034474527
      7107.22      0.57116305    0.0035952550
      7114.33      0.57072495    0.0037965738
      7121.44      0.56826976    0.0040376707
      7128.56      0.56457372    0.0043866013
      7135.69      0.56097492    0.0048374579
      7142.83      0.55855905    0.0054103683
      7149.97      0.55390444    0.0061383953
      7157.12      0.54805891    0.0070576102
      7164.28      0.54091795    0.0082132317
      7171.44      0.53141170    0.0096537901
