# starting wavelength =        3377.7400
# ending wavelength =        7172.4700
# O2 telluric scale =        0
# O2 telluric shift =        0
# H2O telluric scale =        0
# H2O telluric shift =        0
      3378.56      0.88181792     0.078049931
      3381.94      0.85439058     0.066090959
      3385.32      0.85684947     0.056582003
      3388.70      0.86687604     0.049070131
      3392.09      0.87942825     0.043150407
      3395.48      0.89919793     0.039407923
      3398.88      0.91312089     0.035652935
      3402.28      0.93608188     0.032725012
      3405.68      0.95017498     0.030456855
      3409.09      0.96919739     0.028697916
      3412.49      0.96173857     0.027058434
      3415.91      0.97670751     0.026016598
      3419.32      0.99291497     0.025182010
      3422.74      0.98854838     0.024502841
      3426.17       1.0030673     0.023880228
      3429.59       1.0154314     0.023377279
      3433.02       1.0230354     0.022949870
      3436.45       1.0194793     0.022582301
      3439.89       1.0247365     0.022122546
      3443.33       1.0395055     0.022049798
      3446.78       1.0442125     0.022083439
      3450.22       1.0378433     0.022120880
      3453.67       1.0438935     0.021904367
      3457.13       1.0377043     0.021940489
      3460.58       1.0327680     0.021868628
      3464.04       1.0227299     0.021903249
      3467.51       1.0074954     0.021800808
      3470.98       1.0148251     0.021724646
      3474.45       1.0100732     0.021763947
      3477.92       1.0092217     0.021693953
      3481.40      0.99254978     0.021585440
      3484.88      0.99118129     0.021624959
      3488.37      0.98366464     0.021550310
      3491.86      0.98437660     0.021594007
      3495.35      0.99212051     0.021487460
      3498.84      0.98717818     0.021415842
      3502.34      0.99810631     0.021455294
      3505.84      0.99144604     0.021354762
      3509.35      0.98758572     0.021278587
      3512.86      0.99342346     0.021322640
      3516.37      0.99516737     0.021366241
      3519.89      0.98984041     0.021146163
      3523.41      0.99927691     0.021189700
      3526.93       1.0034088     0.021235560
      3530.46      0.99915923     0.021014426
      3533.99       1.0193209     0.021059377
      3537.53       1.0157537     0.021106651
      3541.06       1.0221433     0.021032172
      3544.60       1.0437187     0.020931303
      3548.15       1.0457115     0.020978582
      3551.70       1.0472344     0.020909092
      3555.25       1.0656640     0.020803636
      3558.80       1.0632816     0.020853338
      3562.36       1.0765434     0.020779169
      3565.92       1.0879353     0.020679024
      3569.49       1.0830510     0.020728866
      3573.06       1.0940871     0.020781732
      3576.64       1.0941620     0.020707411
      3580.21       1.1078752     0.020606988
      3583.79       1.1279800     0.020660796
      3587.38       1.1273161     0.020592329
      3590.96       1.1407924     0.020487145
      3594.55       1.1441767     0.020541715
      3598.15       1.1363425     0.020599662
      3601.75       1.1323979     0.020368191
      3605.35       1.1162069     0.020426409
      3608.96       1.1127359     0.020483159
      3612.56       1.1020607     0.020386254
      3616.18       1.0946434     0.020309555
      3619.79       1.0774004     0.020373122
      3623.41       1.0591859     0.020270274
      3627.04       1.0547272     0.020333239
      3630.66       1.0415759     0.020258396
      3634.29       1.0246960     0.020159416
      3637.93      0.99905122     0.020223467
      3641.57       1.0035128     0.020288213
      3645.21      0.99985038     0.020051476
      3648.86      0.98676185     0.020114465
      3652.50      0.97984381     0.020186337
      3656.16      0.97609469     0.020083376
      3659.81      0.97982317     0.020015241
      3663.47      0.97324689     0.019911742
      3667.14      0.97783924     0.019979919
      3670.80      0.97859493     0.020053728
      3674.48      0.97832122     0.019952946
      3678.15      0.98067056     0.019883372
      3681.83      0.97993151     0.019952224
      3685.51      0.97926690     0.019854242
      3689.20      0.97593284     0.019930823
      3692.88      0.99412685     0.020007912
      3696.58       1.0109852     0.019912323
      3700.27       1.0158306     0.019834470
      3703.98       1.0216385     0.019737646
      3707.68       1.0264600     0.019818371
      3711.39       1.0457969     0.019899979
      3715.10       1.0591332     0.019804879
      3718.81       1.0623065     0.019888570
      3722.53       1.0728251     0.019821975
      3726.26       1.0798820     0.019716861
      3729.98       1.0734802     0.019802277
      3733.71       1.0788434     0.019706691
      3737.45       1.0771843     0.019797492
      3741.18       1.0808718     0.019891003
      3744.93       1.0789340     0.019627082
      3748.67       1.0654274     0.019716138
      3752.42       1.0556611     0.019619090
      3756.17       1.0580941     0.019718886
      3759.93       1.0660270     0.019618271
      3763.69       1.0678796     0.019550656
      3767.45       1.0764819     0.019446569
      3771.22       1.0886980     0.019348049
      3774.99       1.0975908     0.019280067
      3778.77       1.0975979     0.019178376
      3782.54       1.1111628     0.019081154
      3786.33       1.1239823     0.019012962
      3790.11       1.1193797     0.018912995
      3793.90       1.1214091     0.018651442
      3797.70       1.1129044     0.018750060
      3801.50       1.1098552     0.018651032
      3805.30       1.1070563     0.018392615
      3809.10       1.1123850     0.018302705
      3812.91       1.1084790     0.018392181
      3816.73       1.1065483     0.018137248
      3820.54       1.1073260     0.018047594
      3824.36       1.1074254     0.018136466
      3828.19       1.1060631     0.017884469
      3832.02       1.0985079     0.017795673
      3835.85       1.1031413     0.017709962
      3839.68       1.1000931     0.017635039
      3843.52       1.0994666     0.017546190
      3847.37       1.1072164     0.017460765
      3851.22       1.1031407     0.017389356
      3855.07       1.1064204     0.017300362
      3858.92       1.1123345     0.017214527
      3862.78       1.1193671     0.016980739
      3866.64       1.1217900     0.017057852
      3870.51       1.1270005     0.016971725
      3874.38       1.1235490     0.016744515
      3878.26       1.1200201     0.016656081
      3882.13       1.1209151     0.016732601
      3886.02       1.1214513     0.016648818
      3889.90       1.1287914     0.016423514
      3893.79       1.1300563     0.016337406
      3897.69       1.1242009     0.016412825
      3901.59       1.1151388     0.016195325
      3905.49       1.1036678     0.016109058
      3909.39       1.1019508     0.016024856
      3913.30       1.0922203     0.015942625
      3917.22       1.0876379     0.015884938
      3921.13       1.0885493     0.015800070
      3925.06       1.0803804     0.015717406
      3928.98       1.0696625     0.015505042
      3932.91       1.0613987     0.015580505
      3936.84       1.0671254     0.015497329
      3940.78       1.0579100     0.015415917
      3944.72       1.0593616     0.015206621
      3948.67       1.0506188     0.015129409
      3952.61       1.0571591     0.015200324
      3956.57       1.0665600     0.015119728
      3960.52       1.0809685     0.014914398
      3964.48       1.0953724     0.014837546
      3968.45       1.1015905     0.014762342
      3972.42       1.0987603     0.014689043
      3976.39       1.1039586     0.014627196
      3980.37       1.1050345     0.014551361
      3984.35       1.1129691     0.014476956
      3988.33       1.1206597     0.014403360
      3992.32       1.1184116     0.014331371
      3996.31       1.1199125     0.014137388
      4000.31       1.1138196     0.014196888
      4004.31       1.1017566     0.014123959
      4008.31       1.1053307     0.014052254
      4012.32       1.1025327     0.013866457
      4016.33       1.0948484     0.013793356
      4020.35       1.0888826     0.013721243
      4024.37       1.0869417     0.013779309
      4028.40       1.0953231     0.013708686
      4032.42       1.0965029     0.013529956
      4036.46       1.0928179     0.013458231
      4040.50       1.0864103     0.013387522
      4044.54       1.0824843     0.013317608
      4048.58       1.0798219     0.013248340
      4052.63       1.0934774     0.013305603
      4056.68       1.0956102     0.013132898
      4060.74       1.0948609     0.013063150
      4064.80       1.0960830     0.012994569
      4068.86       1.0976779     0.012926200
      4072.93       1.1047254     0.012858883
      4077.01       1.1133448     0.012688604
      4081.08       1.1167598     0.012623332
      4085.17       1.1256085     0.012558572
      4089.25       1.1181790     0.012613931
      4093.34       1.1187697     0.012547503
      4097.43       1.1208754     0.012481878
      4101.53       1.1285183     0.012417012
      4105.63       1.1189528     0.012252437
      4109.74       1.1022446     0.012189279
      4113.85       1.0950390     0.012126636
      4117.96       1.0878062     0.012064658
      4122.08       1.0899977     0.012003048
      4126.20       1.0865492     0.011942222
      4130.33       1.0833990     0.011881629
      4134.46       1.0466683     0.011725685
      4138.59       1.0337399     0.011664876
      4142.73       1.0527256     0.011710972
      4146.88       1.0817484     0.011650715
      4151.02       1.1077545     0.011590752
      4155.18       1.1281277     0.011531407
      4159.33       1.1380994     0.011472393
      4163.49       1.1492943     0.011414094
      4167.65       1.1576745     0.011355979
      4171.82       1.1661273     0.011211408
      4175.99       1.1712865     0.011153313
      4180.17       1.1624814     0.011095994
      4184.35       1.1496288     0.011038859
      4188.54       1.1409529     0.010982095
      4192.72       1.1330874     0.010925835
      4196.92       1.1223431     0.010870069
      4201.11       1.1068277     0.010814630
      4205.31       1.0902427     0.010759371
      4209.52       1.0712028     0.010704737
      4213.73       1.0588432     0.010650262
      4217.94       1.0691751     0.010596206
      4222.16       1.0874012     0.010542741
      4226.38       1.0979185     0.010407265
      4230.61       1.1038064     0.010354643
      4234.84       1.1053241     0.010302634
      4239.08       1.1079240     0.010250774
      4243.32       1.1125287     0.010199005
      4247.56       1.1192444     0.010147803
      4251.81       1.1225996     0.010097023
      4256.06       1.1291401     0.010046373
      4260.32       1.1218770    0.0099960222
      4264.58       1.1197795    0.0099461999
      4268.84       1.1198603    0.0098964074
      4273.11       1.1269389    0.0098471386
      4277.38       1.1285547    0.0097981789
      4281.66       1.1339063    0.0097493478
      4285.94       1.1447294    0.0097008896
      4290.23       1.1549829    0.0096529984
      4294.52       1.1637333    0.0096052282
      4298.81       1.1677342    0.0095575744
      4303.11       1.1693214    0.0095104605
      4307.42       1.1759401    0.0094637450
      4311.72       1.1772091    0.0094171968
      4316.04       1.1755768    0.0092886326
      4320.35       1.1791400    0.0092432874
      4324.67       1.1785192    0.0091981695
      4329.00       1.1928127    0.0091534004
      4333.33       1.2006941    0.0091089779
      4337.66       1.2072050    0.0090648851
      4342.00       1.2073040    0.0090210417
      4346.34       1.2110805    0.0089777467
      4350.69       1.2149680    0.0089348025
      4355.04       1.2212062    0.0088918950
      4359.39       1.2173322    0.0088495481
      4363.75       1.2313074    0.0088078009
      4368.12       1.2421505    0.0086881539
      4372.48       1.2551857    0.0086463159
      4376.86       1.2535718    0.0086049892
      4381.23       1.2573422    0.0085641023
      4385.61       1.2584619    0.0085234459
      4390.00       1.2559595    0.0084831419
      4394.39       1.2564527    0.0084432162
      4398.79       1.2541126    0.0084038124
      4403.18       1.2578849    0.0084288074
      4407.59       1.2591172    0.0083182414
      4412.00       1.2635939    0.0082788514
      4416.41       1.2566316    0.0082399545
      4420.82       1.2471299    0.0082014392
      4425.25       1.2439761    0.0081633348
      4429.67       1.2362111    0.0081255572
      4434.10       1.2283493    0.0080882192
      4438.54       1.2215811    0.0079831943
      4442.97       1.2192442    0.0079471341
      4447.42       1.2200142    0.0079115418
      4451.86       1.2165280    0.0078763832
      4456.32       1.2130076    0.0078417167
      4460.77       1.2112100    0.0078630145
      4465.24       1.2119560    0.0078274530
      4469.70       1.2164972    0.0077266840
      4474.17       1.2121484    0.0076924504
      4478.65       1.2124904    0.0076589352
      4483.12       1.2109556    0.0076257666
      4487.61       1.2140800    0.0075930918
      4492.09       1.2118563    0.0074945613
      4496.59       1.2123594    0.0075174343
      4501.08       1.2072324    0.0074848799
      4505.58       1.1994755    0.0074528439
      4510.09       1.1969416    0.0074214235
      4514.60       1.1839235    0.0073275759
      4519.12       1.1796402    0.0072959026
      4523.63       1.1732523    0.0072646679
      4528.16       1.1684512    0.0072341821
      4532.69       1.1540698    0.0072579216
      4537.22       1.1498020    0.0071676358
      4541.76       1.1488689    0.0071369653
      4546.30       1.1518365    0.0071070867
      4550.85       1.1463261    0.0070778483
      4555.40       1.1408040    0.0069917244
      4559.95       1.1324540    0.0070146537
      4564.51       1.1286110    0.0069854101
      4569.08       1.1253255    0.0069569578
      4573.65       1.1250847    0.0069290517
      4578.22       1.1256056    0.0068457047
      4582.80       1.1277661    0.0068686056
      4587.38       1.1194747    0.0068409496
      4591.97       1.1155620    0.0068138599
      4596.56       1.1163577    0.0067323956
      4601.16       1.1130909    0.0067069761
      4605.76       1.1113554    0.0067294539
      4610.37       1.1105293    0.0066489367
      4614.98       1.1114007    0.0066236911
      4619.59       1.1093583    0.0065993248
      4624.21       1.1107408    0.0065756609
      4628.84       1.1088772    0.0065439143
      4633.47       1.1034888    0.0065197393
      4638.10       1.0940399    0.0064963866
      4642.74       1.0902326    0.0064201545
      4647.38       1.0829122    0.0063964957
      4652.03       1.0792320    0.0064202403
      4656.68       1.0786909    0.0063980506
      4661.34       1.0776429    0.0063233751
      4666.00       1.0735388    0.0063008582
      4670.67       1.0733077    0.0063252447
      4675.33       1.0667252    0.0062528363
      4680.01       1.0670095    0.0062308462
      4684.69       1.0622601    0.0062096267
      4689.38       1.0565002    0.0061849742
      4694.07       1.0526628    0.0061633383
      4698.76       1.0535603    0.0061427069
      4703.46       1.0525807    0.0061195785
      4708.16       1.0463573    0.0060984174
      4712.87       1.0395229    0.0060782407
      4717.58       1.0326330    0.0060119218
      4722.30       1.0269092    0.0060359292
      4727.03       1.0247803    0.0060162995
      4731.75       1.0305651    0.0059511346
      4736.48       1.0287270    0.0059756881
      4741.22       1.0323066    0.0059567912
      4745.96       1.0334088    0.0058928647
      4750.71       1.0309664    0.0058760927
      4755.46       1.0357298    0.0058538685
      4760.22       1.0340536    0.0058368875
      4764.97       1.0313702    0.0058209663
      4769.74       1.0307991    0.0057994356
      4774.51       1.0300702    0.0057833147
      4779.29       1.0321508    0.0057682174
      4784.07       1.0348698    0.0057473419
      4788.85       1.0393080    0.0057320379
      4793.64       1.0392001    0.0056720590
      4798.43       1.0380195    0.0056975819
      4803.23       1.0346196    0.0056394167
      4808.03       1.0358711    0.0056239269
      4812.84       1.0379200    0.0056501498
      4817.66       1.0421179    0.0055925958
      4822.48       1.0440733    0.0055779993
      4827.30       1.0415878    0.0055624989
      4832.12       1.0428878    0.0055479056
      4836.96       1.0383437    0.0055344610
      4841.79       1.0329422    0.0055190352
      4846.63       1.0339390    0.0055054890
      4851.48       1.0270998    0.0054914080
      4856.33       1.0314791    0.0054778906
      4861.19       1.0355605    0.0054251118
      4866.05       1.0410051    0.0054513438
      4870.92       1.0457645    0.0053988738
      4875.79       1.0526898    0.0053880571
      4880.66       1.0630490    0.0054139021
      4885.55       1.0727664    0.0053631408
      4890.43       1.0793816    0.0053896705
      4895.32       1.0857650    0.0053391450
      4900.22       1.0970581    0.0053297285
      4905.12       1.1018404    0.0053163729
      4910.02       1.1079476    0.0053070792
      4914.94       1.1126521    0.0052945201
      4919.85       1.1186336    0.0052853657
      4924.77       1.1231742    0.0052737280
      4929.70       1.1215481    0.0052648949
      4934.62       1.1217637    0.0052165920
      4939.56       1.1237727    0.0052451617
      4944.50       1.1262099    0.0051977424
      4949.44       1.1310148    0.0052265993
      4954.39       1.1280124    0.0051799306
      4959.35       1.1276342    0.0052089285
      4964.31       1.1294099    0.0051627540
      4969.27       1.1342729    0.0051920036
      4974.24       1.1357994    0.0051464939
      4979.22       1.1364261    0.0051390412
      4984.20       1.1365219    0.0051312178
      4989.18       1.1385801    0.0050879324
      4994.17       1.1368377    0.0051166990
      4999.16       1.1334420    0.0050740039
      5004.16       1.1319701    0.0051030623
      5009.17       1.1329068    0.0050609482
      5014.18       1.1358348    0.0050902534
      5019.19       1.1360299    0.0050487477
      5024.21       1.1312247    0.0050782298
      5029.23       1.1275295    0.0050374119
      5034.26       1.1264051    0.0050315428
      5039.30       1.1234515    0.0050268999
      5044.34       1.1163674    0.0050212517
      5049.39       1.1116087    0.0050171972
      5054.43       1.1086305    0.0050118470
      5059.49       1.1090275    0.0050084626
      5064.55       1.1089865    0.0050032798
      5069.61       1.1076842    0.0049641682
      5074.68       1.1044976    0.0049955717
      5079.76       1.1052693    0.0049565931
      5084.84       1.1074761    0.0049887586
      5089.92       1.1039698    0.0049851390
      5095.01       1.1057744    0.0049473338
      5100.11       1.1079318    0.0049792637
      5105.21       1.1155958    0.0049415624
      5110.31       1.1242328    0.0049402215
      5115.42       1.1299859    0.0049365839
      5120.54       1.1339680    0.0049352468
      5125.66       1.1361619    0.0049325822
      5130.79       1.1383770    0.0049312054
      5135.92       1.1400213    0.0049308701
      5141.05       1.1405114    0.0049280306
      5146.20       1.1401893    0.0049276427
      5151.34       1.1408508    0.0048927386
      5156.49       1.1417696    0.0049252924
      5161.65       1.1347236    0.0048916018
      5166.81       1.1269770    0.0048910481
      5171.98       1.1189598    0.0049243035
      5177.15       1.1138049    0.0048906972
      5182.33       1.1084365    0.0048909418
      5187.51       1.1000592    0.0048914346
      5192.70       1.0963343    0.0048915190
      5197.89       1.0916571    0.0048924602
      5203.09       1.0900371    0.0048932442
      5208.29       1.0861865    0.0048939232
      5213.50       1.0788025    0.0048954215
      5218.72       1.0765159    0.0048633765
      5223.93       1.0759150    0.0048978483
      5229.16       1.0708885    0.0048655665
      5234.39       1.0710269    0.0048682867
      5239.62       1.0683326    0.0049033166
      5244.86       1.0665573    0.0048713004
      5250.11       1.0726119    0.0048744074
      5255.36       1.0732351    0.0048781281
      5260.61       1.0717355    0.0048784935
      5265.87       1.0710847    0.0048819964
      5271.14       1.0711852    0.0048861197
      5276.41       1.0715677    0.0048557353
      5281.69       1.0711697    0.0048908315
      5286.97       1.0715398    0.0048951754
      5292.26       1.0740467    0.0048656319
      5297.55       1.0689118    0.0048696405
      5302.85       1.0639501    0.0049056219
      5308.15       1.0611692    0.0048769026
      5313.46       1.0620540    0.0048811817
      5318.77       1.0655121    0.0048859252
      5324.09       1.0619719    0.0049225974
      5329.42       1.0547668    0.0048941347
      5334.75       1.0501579    0.0048990586
      5340.08       1.0467571    0.0049044471
      5345.42       1.0446042    0.0048763299
      5350.77       1.0465691    0.0049137304
      5356.12       1.0400161    0.0049191840
      5361.48       1.0370160    0.0049249921
      5366.83       1.0321789    0.0048970959
      5372.20       1.0303975    0.0049036518
      5377.58       1.0324006    0.0049411893
      5382.95       1.0303446    0.0049131581
      5388.34       1.0316475    0.0049197701
      5393.72       1.0244639    0.0049266617
      5399.12       1.0178289    0.0049339232
      5404.52       1.0150853    0.0049374683
      5409.92       1.0187062    0.0049443838
      5415.33       1.0205148    0.0049515890
      5420.75       1.0186221    0.0049591295
      5426.17       1.0140852    0.0049669127
      5431.60       1.0123760    0.0049402476
      5437.03       1.0113710    0.0049475825
      5442.47       1.0106542    0.0049859743
      5447.91       1.0074232    0.0049939007
      5453.36       1.0061861    0.0049685988
      5458.81       1.0054338    0.0049762090
      5464.27       1.0068055    0.0049840636
      5469.73       1.0083279    0.0049921038
      5475.20       1.0100316    0.0050003530
      5480.68       1.0115933    0.0050088290
      5486.16       1.0097391    0.0050148849
      5491.65       1.0067301    0.0050230039
      5497.14      0.99984849    0.0050314134
      5502.64      0.99993265    0.0050399691
      5508.14      0.99994328    0.0050486547
      5513.65      0.99740797    0.0050230595
      5519.16      0.99593708    0.0050320251
      5524.68      0.99094670    0.0050411051
      5530.20      0.99040236    0.0050503660
      5535.73      0.98895287    0.0050597821
      5541.27      0.99259507    0.0050692881
      5546.81      0.98794721    0.0050788700
      5552.36      0.98706943    0.0050837897
      5557.91      0.98577710    0.0050931704
      5563.47      0.98760027    0.0051026283
      5569.04      0.98725582    0.0051121566
      5574.60      0.98707083    0.0051218468
      5580.18      0.98158088    0.0051315821
      5585.76      0.98330211    0.0051414557
      5591.35      0.98035848    0.0051514310
      5596.94      0.97981945    0.0051272573
      5602.53      0.97786825    0.0051369468
      5608.14      0.97832828    0.0051467924
      5613.75      0.97437064    0.0051566716
      5619.36      0.96763427    0.0051665989
      5624.98      0.96480036    0.0051766685
      5630.60      0.96293206    0.0051870352
      5636.23      0.96171913    0.0051977741
      5641.87      0.95541028    0.0052086236
      5647.51      0.95731547    0.0052193049
      5653.16      0.95235587    0.0052300632
      5658.82      0.94975590    0.0052061957
      5664.47      0.94680944    0.0052186996
      5670.14      0.94584841    0.0052328223
      5675.81      0.93966702    0.0052477757
      5681.48      0.93192162    0.0052628359
      5687.17      0.92805177    0.0052784723
      5692.85      0.93082277    0.0052947861
      5698.55      0.92877752    0.0053104584
      5704.25      0.93104240    0.0053242474
      5709.95      0.93093244    0.0053367607
      5715.66      0.93192411    0.0053484922
      5721.38      0.93077132    0.0053594231
      5727.10      0.93232833    0.0053383002
      5732.83      0.93420845    0.0053475965
      5738.56      0.93511553    0.0053570849
      5744.30      0.93042304    0.0053669217
      5750.04      0.92784362    0.0053766687
      5755.79      0.92840646    0.0053857079
      5761.55      0.92325750    0.0053941606
      5767.31      0.91784885    0.0054019966
      5773.08      0.91284698    0.0054096714
      5778.85      0.90416909    0.0054175753
      5784.63      0.89673994    0.0054248589
      5790.41      0.88952637    0.0053989841
      5796.21      0.88841220    0.0054059430
      5802.00      0.88522487    0.0054141372
      5807.81      0.87983560    0.0054223771
      5813.61      0.87729668    0.0054298385
      5819.43      0.86971708    0.0054376791
      5825.25      0.86293721    0.0054463616
      5831.07      0.86100785    0.0054556286
      5836.90      0.86002309    0.0054340592
      5842.74      0.85620616    0.0054790473
      5848.58      0.84925753    0.0054886168
      5854.43      0.84291022    0.0054984140
      5860.29      0.83804530    0.0055081537
      5866.15      0.83264694    0.0055179630
      5872.01      0.82798735    0.0055278111
      5877.89      0.82810631    0.0055063862
      5883.76      0.82309868    0.0055163538
      5889.65      0.82376512    0.0055263861
      5895.54      0.82124099    0.0055364768
      5901.43      0.81490267    0.0055465912
      5907.34      0.81200614    0.0055239625
      5913.24      0.80968282    0.0055687469
      5919.16      0.80628805    0.0055783371
      5925.08      0.80493662    0.0055880538
      5931.00      0.80113342    0.0055978003
      5936.93      0.79822248    0.0055752795
      5942.87      0.80224771    0.0055843246
      5948.81      0.80297390    0.0055934733
      5954.76      0.80442328    0.0056026723
      5960.72      0.80195693    0.0056477117
      5966.68      0.80316008    0.0056247708
      5972.64      0.80451612    0.0056333847
      5978.62      0.80722491    0.0056421107
      5984.60      0.81207733    0.0056509603
      5990.58      0.81853206    0.0056283616
      5996.57      0.82504450    0.0056723154
      6002.57      0.83136501    0.0056807447
      6008.57      0.82817222    0.0056902178
      6014.58      0.83093771    0.0056707193
      6020.60      0.83189024    0.0056803541
      6026.62      0.83295111    0.0057226797
      6032.65      0.83175257    0.0057010795
      6038.68      0.83028738    0.0057142614
      6044.72      0.82764742    0.0057304434
      6050.76      0.82329607    0.0057493895
      6056.81      0.82177521    0.0057752989
      6062.87      0.81965344    0.0057961265
      6068.93      0.81914654    0.0058163353
      6075.00      0.81619267    0.0058022259
      6081.08      0.81696027    0.0058159348
      6087.16      0.81901881    0.0058626861
      6093.25      0.81686740    0.0058341866
      6099.34      0.82265580    0.0058346031
      6105.44      0.83023959    0.0058322259
      6111.54      0.83533544    0.0058290888
      6117.66      0.83768809    0.0058246701
      6123.78      0.83857090    0.0058231448
      6129.90      0.83754193    0.0057924095
      6136.03      0.83375841    0.0058278528
      6142.17      0.82879080    0.0058267487
      6148.31      0.82297212    0.0057953893
      6154.46      0.82222759    0.0057978684
      6160.61      0.81660523    0.0058337220
      6166.77      0.81048549    0.0058037588
      6172.94      0.80868265    0.0058069943
      6179.11      0.80761290    0.0058115095
      6185.29      0.80817893    0.0058149257
      6191.48      0.80754081    0.0058191816
      6197.67      0.80476052    0.0058248131
      6203.87      0.80354531    0.0058293017
      6210.07      0.80375667    0.0058012566
      6216.28      0.80936832    0.0058399991
      6222.50      0.81225467    0.0058450814
      6228.72      0.81519472    0.0058183891
      6234.95      0.81906459    0.0058601847
      6241.19      0.81949951    0.0058373802
      6247.42      0.81948637    0.0058448910
      6253.67      0.81805830    0.0058871526
      6259.93      0.81704951    0.0058609753
      6266.19      0.82108977    0.0058665600
      6272.46      0.82459840    0.0058743420
      6278.73      0.81816065    0.0058772234
      6285.01      0.81913501    0.0058469754
      6291.29      0.82246706    0.0058810543
      6297.58      0.82471873    0.0058482908
      6303.88      0.82230888    0.0058482358
      6310.19      0.82114238    0.0058482843
      6316.50      0.81829447    0.0058487941
      6322.81      0.81447177    0.0058501114
      6329.14      0.81005551    0.0058502946
      6335.47      0.80941668    0.0058169021
      6341.80      0.80575946    0.0058482586
      6348.14      0.80786218    0.0058133208
      6354.49      0.80640287    0.0058440750
      6360.85      0.80499703    0.0058099068
      6367.21      0.80235775    0.0058402137
      6373.57      0.79883016    0.0058042193
      6379.95      0.79688061    0.0058004451
      6386.33      0.79536771    0.0057985260
      6392.72      0.78997107    0.0057958701
      6399.11      0.78851416    0.0057946752
      6405.51      0.79218172    0.0057920606
      6411.92      0.79529838    0.0057907659
      6418.32      0.79772879    0.0057879673
      6424.74      0.79656063    0.0057861549
      6431.17      0.79765317    0.0057513150
      6437.60      0.79494811    0.0057802914
      6444.04      0.79127314    0.0057451863
      6450.48      0.78903797    0.0057737050
      6456.94      0.78827624    0.0057382074
      6463.39      0.78737374    0.0057660017
      6469.85      0.78625027    0.0057301443
      6476.33      0.78482576    0.0057255020
      6482.80      0.78198280    0.0057209094
      6489.28      0.77709441    0.0057155042
      6495.77      0.77337788    0.0057105784
      6502.27      0.76990989    0.0057043289
      6508.77      0.77322817    0.0056671658
      6515.28      0.77233167    0.0056919948
      6521.80      0.77213287    0.0056540908
      6528.32      0.78065559    0.0056474174
      6534.85      0.78404268    0.0056398389
      6541.38      0.78496345    0.0056322340
      6547.92      0.78278553    0.0056244290
      6554.47      0.78507193    0.0056158513
      6561.03      0.78531357    0.0055773839
      6567.59      0.78012090    0.0055988222
      6574.16      0.77254685    0.0055959138
      6580.73      0.76816178    0.0055788968
      6587.31      0.76305497    0.0056105553
      6593.90      0.75515820    0.0055663882
      6600.50      0.75025138    0.0055578647
      6607.10      0.74261968    0.0056023340
      6613.70      0.73503826    0.0056082685
      6620.32      0.72806234    0.0056658613
      6626.94      0.72263675    0.0057050880
      6633.57      0.71863261    0.0058053263
      6640.20      0.71126214    0.0058856837
      6646.84      0.70995956    0.0059137749
      6653.49      0.71305881    0.0059869378
      6660.14      0.71245417    0.0059625781
      6666.80      0.71152706    0.0059413583
      6673.47      0.71516236    0.0058863973
      6680.14      0.71981527    0.0058222041
      6686.82      0.71799862    0.0057315421
      6693.51      0.71651775    0.0056409272
      6700.20      0.71690533    0.0055437202
      6706.90      0.71683792    0.0055218620
      6713.61      0.71559282    0.0054700920
      6720.32      0.71232360    0.0053847258
      6727.05      0.71167968    0.0053324232
      6733.77      0.70889782    0.0053244262
      6740.51      0.70266474    0.0052619527
      6747.25      0.69500353    0.0052258777
      6754.00      0.68979806    0.0051940080
      6760.75      0.68336370    0.0051418232
      6767.51      0.68135388    0.0051455109
      6774.28      0.67966715    0.0051210925
      6781.05      0.67569887    0.0050967773
      6787.84      0.67820529    0.0050462017
      6794.62      0.67680788    0.0050182138
      6801.42      0.67261183    0.0049365432
      6808.22      0.67235722    0.0048825327
      6815.03      0.67040839    0.0047813816
      6821.85      0.66794172    0.0047048378
      6828.67      0.66958642    0.0046561377
      6835.50      0.66790040    0.0045828797
      6842.33      0.66496261    0.0045112487
      6849.17      0.66204126    0.0044645158
      6856.02      0.65944602    0.0043996919
      6862.88      0.65940583    0.0043393462
      6869.74      0.65965293    0.0042793044
      6876.61      0.65833298    0.0042229817
      6883.49      0.65369305    0.0041632530
      6890.37      0.65140805    0.0041069215
      6897.27      0.65110689    0.0040587528
      6904.16      0.65277046    0.0040236084
      6911.07      0.65062606    0.0040103149
      6917.98      0.64799968    0.0039825245
      6924.89      0.65031232    0.0039495684
      6931.82      0.64941136    0.0039127231
      6938.75      0.64776138    0.0038738244
      6945.69      0.64724420    0.0038324632
      6952.64      0.64583190    0.0037900737
      6959.59      0.64477029    0.0037424704
      6966.55      0.64139024    0.0036919617
      6973.52      0.63924044    0.0036384296
      6980.49      0.63690317    0.0035810620
      6987.47      0.63875730    0.0035211738
      6994.46      0.63882567    0.0034605043
      7001.46      0.63677688    0.0033991628
      7008.46      0.63536206    0.0033519307
      7015.46      0.63354185    0.0032885973
      7022.48      0.62785660    0.0032240499
      7029.51      0.62563809    0.0031588278
      7036.53      0.62185354    0.0030939352
      7043.57      0.61733215    0.0030294701
      7050.62      0.61207939    0.0029651622
      7057.66      0.61209740    0.0029439157
      7064.72      0.60956727    0.0029702313
      7071.79      0.60635260    0.0029976862
      7078.86      0.60361457    0.0030391452
      7085.94      0.60063344    0.0030916108
      7093.03      0.59953354    0.0031592859
      7100.12      0.59802362    0.0032479012
      7107.22      0.59611465    0.0033676004
      7114.33      0.59398512    0.0035313115
      7121.44      0.59225220    0.0037550056
      7128.56      0.59009363    0.0040542722
      7135.69      0.58920433    0.0044439638
      7142.83      0.58967655    0.0049457554
      7149.97      0.58974811    0.0055874614
      7157.12      0.59023963    0.0064067842
      7164.28      0.59257758    0.0074406743
      7171.44      0.59461558    0.0087397053
