# starting wavelength =        2578.8007
# ending wavelength =        6466.5266
# O2 telluric scale =        0
# O2 telluric shift =        0
# H2O telluric scale =        0
# H2O telluric shift =        0
      2579.44       2.3002285      0.25593614
      2582.01       2.3438932      0.25088563
      2584.60       2.2159731      0.24014409
      2587.18       2.1977697      0.23526815
      2589.77       2.1627601      0.22509216
      2592.36       2.1083933      0.22019125
      2594.95       2.0514247      0.21077408
      2597.55       1.9042050      0.20608686
      2600.14       1.8292171      0.20174501
      2602.74       1.8481260      0.19268082
      2605.35       1.8431985      0.18851883
      2607.95       1.8554029      0.17997507
      2610.56       1.9067991      0.17599935
      2613.17       1.8566637      0.16795822
      2615.79       1.8516002      0.16404966
      2618.40       1.8564313      0.16040428
      2621.02       1.8459856      0.15289190
      2623.64       1.7710719      0.14942835
      2626.26       1.6589982      0.14239433
      2628.89       1.6233978      0.13911012
      2631.52       1.5748617      0.13253497
      2634.15       1.5317361      0.12936320
      2636.79       1.7099595      0.12330441
      2639.42       1.7233979      0.12031833
      2642.06       1.7096034      0.11752526
      2644.70       1.6215625      0.11187651
      2647.35       1.6837979      0.10925116
      2650.00       1.6930906      0.10402111
      2652.65       1.6468380      0.10156936
      2655.30       1.6491032     0.096744508
      2657.96       1.6308389     0.094416212
      2660.61       1.6633885     0.090019045
      2663.27       1.6275077     0.087862722
      2665.94       1.7424087     0.083830361
      2668.60       1.7777318     0.081838334
      2671.27       1.8030952     0.079991555
      2673.94       1.8274900     0.076326697
      2676.62       1.8856753     0.074635982
      2679.29       1.9242438     0.071306152
      2681.97       1.9277047     0.069720285
      2684.66       1.9822191     0.066756277
      2687.34       2.0047709     0.065313204
      2690.03       2.0665335     0.062652729
      2692.72       2.0931520     0.061347333
      2695.41       2.1414244     0.060179210
      2698.11       2.2492091     0.057802871
      2700.81       2.2727484     0.056704769
      2703.51       2.2629654     0.054655295
      2706.21       2.3028551     0.053677630
      2708.92       2.3464058     0.051879932
      2711.62       2.3700683     0.051015924
      2714.34       2.3524985     0.049458324
      2717.05       2.3514143     0.048702958
      2719.77       2.3459529     0.047367881
      2722.49       2.3613023     0.046713395
      2725.21       2.3765513     0.046116184
      2727.94       2.3861822     0.045027677
      2730.66       2.3706121     0.044521820
      2733.39       2.3983041     0.043624966
      2736.13       2.4261716     0.043204481
      2738.86       2.4505492     0.042485885
      2741.60       2.4587709     0.042146955
      2744.34       2.4664343     0.041595948
      2747.09       2.4589960     0.041332360
      2749.84       2.4859784     0.040704957
      2752.59       2.5163380     0.040745992
      2755.34       2.5204042     0.040595023
      2758.09       2.5263746     0.040374324
      2760.85       2.5457908     0.040288246
      2763.61       2.5805077     0.040204316
      2766.38       2.5911523     0.040178893
      2769.14       2.6205713     0.040223254
      2771.91       2.6538331     0.040255880
      2774.69       2.6687747     0.040048059
      2777.46       2.6734528     0.040508381
      2780.24       2.6855087     0.040372766
      2783.02       2.6937460     0.040925514
      2785.80       2.6830676     0.040855271
      2788.59       2.6779407     0.041496934
      2791.38       2.6737833     0.041484765
      2794.17       2.6745475     0.042211301
      2796.96       2.6751103     0.042469048
      2799.76       2.6523352     0.043057001
      2802.56       2.6375463     0.043351727
      2805.36       2.6140676     0.043464408
      2808.17       2.5354088     0.044349199
      2810.98       2.5038616     0.044495539
      2813.79       2.5011182     0.045446752
      2816.60       2.4670838     0.045618502
      2819.42       2.3925392     0.046627059
      2822.24       2.3549720     0.046815843
      2825.06       2.3351278     0.047874462
      2827.88       2.3200091     0.048072600
      2830.71       2.2971739     0.049172086
      2833.54       2.2638374     0.049370069
      2836.38       2.2321844     0.049816253
      2839.21       2.1904543     0.050933438
      2842.05       2.2027229     0.051137753
      2844.90       2.1790853     0.052272674
      2847.74       2.1536685     0.052456531
      2850.59       2.1445733     0.053596597
      2853.44       2.1586580     0.053753002
      2856.29       2.1492810     0.054889690
      2859.15       2.1874364     0.055010808
      2862.01       2.1925101     0.056134352
      2864.87       2.2139530     0.056214573
      2867.74       2.2215901     0.056615125
      2870.60       2.2612924     0.057354430
      2873.47       2.2941687     0.057728980
      2876.35       2.3144014     0.058418898
      2879.22       2.3645974     0.058763414
      2882.10       2.3864635     0.059400612
      2884.99       2.4044289     0.059714301
      2887.87       2.4361134     0.060296033
      2890.76       2.4186430     0.060579273
      2893.65       2.3950116     0.061104672
      2896.54       2.4031998     0.061356078
      2899.44       2.3632165     0.061825005
      2902.34       2.3654510     0.062044573
      2905.24       2.3761907     0.061807166
      2908.15       2.3519536     0.062646527
      2911.06       2.5289550     0.088909363
      2913.97       2.4986388     0.090830599
      2916.88       2.4998987     0.089542382
      2919.80       2.4776918     0.091408117
      2922.72       2.4456831     0.090065249
      2925.64       2.3889974     0.091875963
      2928.57       2.3110038     0.090483674
      2931.50       2.2836514     0.092241035
      2934.43       2.2633752     0.090805795
      2937.36       2.2107151     0.092496418
      2940.30       2.1987729     0.091007843
      2943.24       2.1744102     0.092638424
      2946.18       2.1807793     0.091105340
      2949.13       2.1648595     0.091020515
      2952.08       2.1646675     0.091103851
      2955.03       2.1627976     0.090975143
      2957.99       2.1686613     0.091012343
      2960.94       2.1594943     0.090849251
      2963.90       2.1541700     0.090826263
      2966.87       2.1523716     0.090621397
      2969.84       2.1364261     0.090542995
      2972.81       2.1119764     0.090301490
      2975.78       2.0490181     0.090172186
      2978.76       2.0685044     0.089892393
      2981.73       2.0621964     0.089712746
      2984.72       2.0556974     0.089399278
      2987.70       2.0705135     0.089160426
      2990.69       2.0659523     0.088818609
      2993.68       2.0671256     0.088538326
      2996.67       2.0972149     0.088166543
      2999.67       2.1467737     0.087834240
      3002.67       2.1613096     0.087437004
      3005.67       2.1765033     0.087059574
      3008.68       2.2049387     0.086634690
      3011.69       2.1692661     0.086201883
      3014.70       2.1813185     0.085746929
      3017.71       2.1539537     0.085270575
      3020.73       2.1532798     0.084795657
      3023.75       2.1180288     0.084279543
      3026.78       2.1219834     0.083783858
      3029.80       2.1338304     0.083219086
      3032.83       2.1529133     0.082704390
      3035.87       2.1498019     0.082093509
      3038.90       2.1627928     0.081561262
      3041.94       2.1571793     0.080915676
      3044.98       2.1476180     0.080364236
      3048.03       2.1671116     0.079674512
      3051.08       2.1677037     0.079110898
      3054.13       2.2238390     0.078381916
      3057.18       2.2444893     0.077805151
      3060.24       2.2179934     0.077040146
      3063.30       2.2106983     0.076448513
      3066.36       2.2084244     0.075648339
      3069.43       2.1850028     0.075050447
      3072.50       2.1463278     0.074212913
      3075.57       2.1177517     0.073604823
      3078.65       2.1052646     0.072733799
      3081.73       2.0877619     0.072118494
      3084.81       2.0795553     0.071218717
      3087.89       2.0710784     0.070602863
      3090.98       2.0351362     0.069676958
      3094.07       2.0106506     0.069056369
      3097.17       2.0133410     0.068095372
      3100.26       1.9775630     0.067473490
      3103.36       2.0153789     0.066485470
      3106.47       2.0211601     0.065862149
      3109.58       2.0163844     0.064850011
      3112.68       2.0335362     0.062949991
      3115.80       1.9990067     0.063191331
      3118.91       1.9541544     0.061312206
      3122.03       1.9379841     0.061513405
      3125.15       1.9445150     0.059663111
      3128.28       1.9279298     0.059822325
      3131.41       1.8986055     0.058004083
      3134.54       1.9063900     0.058123325
      3137.67       1.8819221     0.056331727
      3140.81       1.8856929     0.056412585
      3143.95       1.8738836     0.054654389
      3147.10       1.8656388     0.054698050
      3150.24       1.8757327     0.052976613
      3153.39       1.8709575     0.052984215
      3156.55       1.8950474     0.051293980
      3159.70       1.9227754     0.051267923
      3162.86       1.9508927     0.049613462
      3166.03       1.9595910     0.048491962
      3169.19       1.9553986     0.047940005
      3172.36       1.9627723     0.046818747
      3175.54       1.9204347     0.046775158
      3178.71       1.9218727     0.045154374
      3181.89       1.9136795     0.045084533
      3185.07       1.8862954     0.043509494
      3188.26       1.8531211     0.043411794
      3191.45       1.8335935     0.041883698
      3194.64       1.8113206     0.041762463
      3197.83       1.8140955     0.040283576
      3201.03       1.8481207     0.039240147
      3204.23       1.8416678     0.038706104
      3207.44       1.8501427     0.037670263
      3210.64       1.8505710     0.037154813
      3213.85       1.8569746     0.036136168
      3217.07       1.8629503     0.035641486
      3220.28       1.8845947     0.034636698
      3223.51       1.8802651     0.034163363
      3226.73       1.8908925     0.033177375
      3229.96       1.8898389     0.033007845
      3233.19       1.8726258     0.031760215
      3236.42       1.8565145     0.030854766
      3239.66       1.8611754     0.030391963
      3242.90       1.8417433     0.029510962
      3246.14       1.8324289     0.029073777
      3249.39       1.8261399     0.028218431
      3252.64       1.8466715     0.027807791
      3255.89       1.8805332     0.026980686
      3259.14       1.8832321     0.026596928
      3262.40       1.9108101     0.025802261
      3265.67       1.9217216     0.024813636
      3268.93       1.9230375     0.024683899
      3272.20       1.9561757     0.023978527
      3275.47       1.9701239     0.023629912
      3278.75       1.9855104     0.022957742
      3282.03       2.0088413     0.022639081
      3285.31       2.0079123     0.022002347
      3288.60       2.0435990     0.021197932
      3291.88       2.0607783     0.021109885
      3295.18       2.0566281     0.020344940
      3298.47       2.0584718     0.020279159
      3301.77       2.0711248     0.019759218
      3305.07       2.0770834     0.019507371
      3308.38       2.0782683     0.019019633
      3311.69       2.0792762     0.018373653
      3315.00       2.0901591     0.018337231
      3318.31       2.0922964     0.017725212
      3321.63       2.0835550     0.017712733
      3324.95       2.0858248     0.017132847
      3328.28       2.0659280     0.017143816
      3331.61       2.0417544     0.016790228
      3334.94       2.0275892     0.016281139
      3338.27       2.0055557     0.016303839
      3341.61       1.9809084     0.015822739
      3344.95       1.9705367     0.015869281
      3348.30       1.9303676     0.015414912
      3351.65       1.9230375     0.015189687
      3355.00       1.8890343     0.015251411
      3358.35       1.8664417     0.014855152
      3361.71       1.8413718     0.014940776
      3365.07       1.8237703     0.014567060
      3368.44       1.8084660     0.014677654
      3371.81       1.7912539     0.014324741
      3375.18       1.7955858     0.014205459
      3378.56       1.8078692     0.014333795
      3381.94       1.8237857     0.014030082
      3385.32       1.8192986     0.014182914
      3388.70       1.8134528     0.013896022
      3392.09       1.8091124     0.013848674
      3395.48       1.8134453     0.013803118
      3398.88       1.8277427     0.013775098
      3402.28       1.8358403     0.013972386
      3405.68       1.8303031     0.013740883
      3409.09       1.8368808     0.013759537
      3412.49       1.8170334     0.013743682
      3415.91       1.8334657     0.013780809
      3419.32       1.8157725     0.014023731
      3422.74       1.8237721     0.013837068
      3426.17       1.8181789     0.013916920
      3429.59       1.7993408     0.013928873
      3433.02       1.8017898     0.014022930
      3436.45       1.7684777     0.014054033
      3439.89       1.7538702     0.014161093
      3443.33       1.7357002     0.014294455
      3446.78       1.7184561     0.014331657
      3450.22       1.6666942     0.014477607
      3453.67       1.6441092     0.014359717
      3457.13       1.6186713     0.014689007
      3460.58       1.6081996     0.014870198
      3464.04       1.5985396     0.014930486
      3467.51       1.5701545     0.015121124
      3470.98       1.5643061     0.015026516
      3474.45       1.5586856     0.015398974
      3477.92       1.5580932     0.015620597
      3481.40       1.5794711     0.015701580
      3484.88       1.5973694     0.015930258
      3488.37       1.6095813     0.015853099
      3491.86       1.6191034     0.016262726
      3495.35       1.6131195     0.016517595
      3498.84       1.6226777     0.016436981
      3502.34       1.6058724     0.016876001
      3505.84       1.6182364     0.016811090
      3509.35       1.6242290     0.017256538
      3512.86       1.6309074     0.017537005
      3516.37       1.6161138     0.017465774
      3519.89       1.6026093     0.017938119
      3523.41       1.5952504     0.018239059
      3526.93       1.5743391     0.018157565
      3530.46       1.5663787     0.018654487
      3533.99       1.5545014     0.018587063
      3537.53       1.5583977     0.018878858
      3541.06       1.5566692     0.019399261
      3544.60       1.5535087     0.019319679
      3548.15       1.5432849     0.019839593
      3551.70       1.5234445     0.019774256
      3555.25       1.5046904     0.020072004
      3558.80       1.5009522     0.020611361
      3562.36       1.4914975     0.020530393
      3565.92       1.4823179     0.020835062
      3569.49       1.4748526     0.021392349
      3573.06       1.4654913     0.021295158
      3576.64       1.4681257     0.021602839
      3580.21       1.4580992     0.021763617
      3583.79       1.4459792     0.022060308
      3587.38       1.4432359     0.022370328
      3590.96       1.4267559     0.022524561
      3594.55       1.4078102     0.022819986
      3598.15       1.4174943     0.023126987
      3601.75       1.4190342     0.023273556
      3605.35       1.4098113     0.023563718
      3608.96       1.4212909     0.023866877
      3612.56       1.4111115     0.024005204
      3616.18       1.4055189     0.024288779
      3619.79       1.4074576     0.024125734
      3623.41       1.4150531     0.024711544
      3627.04       1.3903227     0.024985568
      3630.66       1.3863097     0.024802991
      3634.29       1.3749281     0.025385332
      3637.93       1.3735602     0.025645544
      3641.57       1.3871514     0.025442750
      3645.21       1.3953627     0.026021382
      3648.86       1.3908169     0.026262755
      3652.50       1.3972597     0.026036262
      3656.16       1.3981035     0.026606820
      3659.81       1.3806971     0.026827756
      3663.47       1.4017189     0.026576786
      3667.14       1.3939485     0.027139904
      3670.80       1.4043087     0.027338992
      3674.48       1.4191910     0.027061639
      3678.15       1.4491727     0.027612663
      3681.83       1.4659077     0.027784868
      3685.51       1.4786272     0.027480265
      3689.20       1.5028357     0.028019375
      3692.88       1.4987860     0.028161751
      3696.58       1.4977400     0.027831615
      3700.27       1.5079855     0.028358775
      3703.98       1.4952600     0.028472442
      3707.68       1.4886553     0.028114437
      3711.39       1.4738451     0.028237741
      3715.10       1.4595103     0.028716893
      3718.81       1.4408024     0.028335677
      3722.53       1.4246832     0.028431146
      3726.26       1.4052701     0.028898849
      3729.98       1.3979732     0.028493657
      3733.71       1.3959020     0.028562117
      3737.45       1.3821270     0.029018508
      3741.18       1.3864808     0.028592346
      3744.93       1.3904548     0.028635402
      3748.67       1.3938158     0.028682371
      3752.42       1.3933925     0.028636658
      3756.17       1.4108227     0.028654851
      3759.93       1.4180665     0.028677933
      3763.69       1.4095621     0.028630213
      3767.45       1.4145010     0.028622897
      3771.22       1.4167004     0.028622399
      3774.99       1.4079063     0.028573884
      3778.77       1.4125756     0.028544735
      3782.54       1.3978302     0.028519554
      3786.33       1.3822059     0.028500024
      3790.11       1.3593396     0.028420580
      3793.90       1.3598137     0.028374168
      3797.70       1.3506283     0.028332005
      3801.50       1.3471709     0.027850630
      3805.30       1.3380898     0.028189695
      3809.10       1.3282462     0.028126554
      3812.91       1.3269214     0.027649196
      3816.73       1.3168041     0.027968167
      3820.54       1.3121252     0.027886019
      3824.36       1.3027045     0.027807874
      3828.19       1.3033636     0.027308293
      3832.02       1.2997924     0.027613387
      3835.85       1.3117379     0.027516479
      3839.68       1.3178683     0.027026804
      3843.52       1.3113664     0.026908706
      3847.37       1.3125196     0.027200532
      3851.22       1.3094612     0.026721956
      3855.07       1.2997808     0.026587676
      3858.92       1.2978878     0.026860365
      3862.78       1.3010353     0.026736058
      3866.64       1.3164203     0.026247114
      3870.51       1.3154546     0.026102335
      3874.38       1.3369456     0.026361367
      3878.26       1.3383667     0.025888590
      3882.13       1.3536864     0.025731677
      3886.02       1.3687029     0.025580177
      3889.90       1.3699071     0.025827262
      3893.79       1.3633178     0.025351452
      3897.69       1.3618235     0.025187915
      3901.59       1.3589031     0.025029167
      3905.49       1.3627573     0.025263826
      3909.39       1.3475739     0.024788627
      3913.30       1.3325264     0.024619773
      3917.22       1.3076010     0.024455470
      3921.13       1.2812219     0.024298383
      3925.06       1.2607108     0.024207645
      3928.98       1.2348653     0.024036518
      3932.91       1.2187519     0.023871225
      3936.84       1.2028193     0.023402004
      3940.78       1.1765309     0.023622354
      3944.72       1.1508028     0.023451591
      3948.67       1.1563225     0.023285677
      3952.61       1.1351877     0.022824932
      3956.57       1.1364212     0.023037996
      3960.52       1.1400252     0.022867352
      3964.48       1.1399058     0.022702524
      3968.45       1.1472433     0.022252224
      3972.42       1.1655086     0.022103372
      3976.39       1.1819821     0.022296298
      3980.37       1.2051235     0.022135491
      3984.35       1.2126935     0.021696870
      3988.33       1.2396559     0.021552030
      3992.32       1.2615507     0.021747368
      3996.31       1.2942087     0.021592836
      4000.31       1.3073342     0.021165768
      4004.31       1.3222436     0.021027080
      4008.31       1.3304437     0.020896284
      4012.32       1.3455115     0.021082451
      4016.33       1.3587966     0.020943072
      4020.35       1.3612730     0.020539210
      4024.37       1.3593011     0.020417908
      4028.40       1.3517020     0.020303724
      4032.42       1.3628743     0.020487006
      4036.46       1.3689671     0.020097968
      4040.50       1.3560508     0.019987961
      4044.54       1.3426585     0.019885217
      4048.58       1.3412164     0.019791592
      4052.63       1.3390690     0.019979447
      4056.68       1.3266910     0.019614841
      4060.74       1.3224331     0.019527122
      4064.80       1.3287668     0.019447958
      4068.86       1.3378757     0.019378044
      4072.93       1.3375461     0.019309104
      4077.01       1.3236342     0.019238553
      4081.08       1.3182070     0.019176773
      4085.17       1.3187828     0.019124300
      4089.25       1.3162647     0.019081302
      4093.34       1.3109185     0.018770979
      4097.43       1.2834363     0.018983836
      4101.53       1.2545999     0.018949949
      4105.63       1.2527802     0.018925853
      4109.74       1.2417107     0.018910368
      4113.85       1.2146185     0.018626281
      4117.96       1.1775801     0.018857857
      4122.08       1.1499194     0.018851340
      4126.20       1.1233767     0.018853238
      4130.33       1.0935181     0.018863847
      4134.46       1.0766165     0.018605217
      4138.59       1.0602784     0.018616577
      4142.73       1.0490469     0.018874394
      4146.88       1.0299279     0.018900710
      4151.02       1.0257331     0.018934040
      4155.18       1.0139506     0.018700260
      4159.33       1.0173094     0.018733024
      4163.49       1.0288747     0.018773363
      4167.65       1.0428844     0.018820459
      4171.82       1.0475397     0.019108026
      4175.99       1.0541051     0.018896530
      4180.17       1.0635675     0.018948364
      4184.35       1.0778567     0.019006713
      4188.54       1.0684691     0.019071683
      4192.72       1.0549252     0.019142298
      4196.92       1.0511804     0.019451649
      4201.11       1.0365427     0.019255122
      4205.31       1.0309428     0.019329090
      4209.52       1.0280895     0.019408967
      4213.73       1.0291839     0.019493531
      4217.94       1.0129577     0.019582899
      4222.16       1.0159416     0.019677218
      4226.38       1.0115070     0.019727907
      4230.61       1.0274536     0.019820213
      4234.84       1.0269629     0.019918278
      4239.08       1.0515720     0.020021136
      4243.32       1.0716110     0.020126239
      4247.56       1.0771339     0.020237724
      4251.81       1.0811527     0.020044594
      4256.06       1.0875663     0.020170268
      4260.32       1.0904671     0.020543721
      4264.58       1.0777786     0.020674085
      4268.84       1.0721010     0.020808176
      4273.11       1.0696978     0.020948840
      4277.38       1.0520965     0.021094645
      4281.66       1.0385710     0.020905914
      4285.94       1.0569462     0.021041416
      4290.23       1.0527773     0.021176086
      4294.52       1.0512934     0.021309315
      4298.81       1.0431988     0.021687189
      4303.11       1.0553893     0.021808005
      4307.42       1.0545326     0.021929179
      4311.72       1.0482425     0.021714628
      4316.04       1.0446871     0.021840392
      4320.35       1.0507695     0.021966311
      4324.67       1.0433339     0.022089049
      4329.00       1.0254867     0.022209400
      4333.33       1.0197246     0.022328530
      4337.66       1.0154054     0.022448176
      4342.00       1.0060752     0.022819021
      4346.34       1.0067695     0.022581516
      4350.69       1.0106894     0.022686864
      4355.04      0.99806904     0.022797893
      4359.39      0.97574235     0.022914021
      4363.75      0.98709359     0.023027394
      4368.12       1.0048988     0.023137815
      4372.48      0.99911060     0.023251389
      4376.86      0.99841295     0.023368768
      4381.23      0.99002086     0.023485824
      4385.61      0.99074515     0.023243420
      4390.00      0.98579033     0.023350925
      4394.39      0.96858103     0.023725181
      4398.79      0.95045190     0.023833461
      4403.18      0.93014668     0.023940331
      4407.59      0.91627468     0.024045405
      4412.00      0.89012228     0.024148870
      4416.41      0.88703101     0.024251515
      4420.82      0.88692657     0.024351204
      4425.25      0.88563165     0.024447565
      4429.67      0.87706676     0.024188721
      4434.10      0.86720723     0.024273334
      4438.54      0.86310586     0.024353486
      4442.97      0.85648888     0.024432284
      4447.42      0.86162538     0.024507755
      4451.86      0.85918667     0.024579687
      4456.32      0.85060064     0.024647621
      4460.77      0.84076098     0.024711844
      4465.24      0.83669674     0.025068786
      4469.70      0.82448143     0.025127642
      4474.17      0.81753671     0.025182464
      4478.65      0.79381101     0.025233163
      4483.12      0.78848615     0.024944722
      4487.61      0.76790794     0.024982041
      4492.09      0.76266072     0.025014326
      4496.59      0.77086357     0.025041124
      4501.08      0.78845666     0.025063369
      4505.58      0.80830064     0.025080801
      4510.09      0.82261957     0.025095205
      4514.60      0.84142306     0.025111970
      4519.12      0.87721437     0.025129423
      4523.63      0.90485747     0.025128230
      4528.16      0.92599410     0.025119476
      4532.69      0.93641821     0.025122627
      4537.22      0.97342957     0.025136230
      4541.76       1.0013038     0.025160500
      4546.30       1.0401433     0.025192181
      4550.85       1.0914359     0.025223858
      4555.40       1.1125319     0.024913700
      4559.95       1.1390981     0.024927306
      4564.51       1.1319594     0.024925047
      4569.08       1.1241878     0.024900515
      4573.65       1.0999197     0.024851602
      4578.22       1.0991561     0.024779126
      4582.80       1.0890737     0.024686434
      4587.38       1.0768918     0.024577650
      4591.97       1.0694117     0.024461987
      4596.56       1.0484134     0.024348644
      4601.16       1.0359065     0.024246621
      4605.76       1.0219260     0.024152191
      4610.37      0.99412354     0.024045517
      4614.98      0.97881747     0.023934593
      4619.59      0.95536938     0.023829787
      4624.21      0.95093479     0.023724144
      4628.84      0.94315611     0.023616359
      4633.47      0.95286504     0.023508189
      4638.10      0.94448737     0.023399650
      4642.74      0.91922460     0.023289661
      4647.38      0.90741794     0.023180246
      4652.03      0.89363745     0.023070169
      4656.68      0.88136007     0.022959250
      4661.34      0.87808850     0.022848159
      4666.00      0.88215993     0.022734598
      4670.67      0.87781982     0.022620318
      4675.33      0.88053124     0.022507149
      4680.01      0.87510746     0.022397456
      4684.69      0.87117015     0.022292114
      4689.38      0.87296027     0.022189573
      4694.07      0.87027601     0.022081583
      4698.76      0.86297008     0.021966939
      4703.46      0.86803481     0.021850194
      4708.16      0.86790834     0.021729828
      4712.87      0.86791022     0.021604959
      4717.58      0.86407704     0.021473267
      4722.30      0.86256548     0.021334463
      4727.03      0.85499610     0.021190930
      4731.75      0.84014477     0.021045048
      4736.48      0.84378736     0.020899341
      4741.22      0.83683828     0.020475638
      4745.96      0.82921871     0.020335152
      4750.71      0.82420593     0.020195465
      4755.46      0.82475923     0.020053602
      4760.22      0.82580345     0.019908942
      4764.97      0.82865422     0.019762487
      4769.74      0.83221628     0.019614806
      4774.51      0.83183270     0.019470168
      4779.29      0.83159138     0.019326879
      4784.07      0.83314118     0.019181619
      4788.85      0.83000496     0.019034619
      4793.64      0.83781472     0.018891314
      4798.43      0.83438224     0.018750837
      4803.23      0.83935924     0.018613067
      4808.03      0.83293436     0.018478076
      4812.84      0.82780784     0.018344612
      4817.66      0.82589606     0.017953585
      4822.48      0.81698627     0.017821343
      4827.30      0.82225301     0.017690318
      4832.12      0.81428280     0.017559896
      4836.96      0.82222809     0.017621125
      4841.79      0.82228677     0.017493592
      4846.63      0.82512854     0.017367601
      4851.48      0.82673759     0.017243927
      4856.33      0.82020290     0.017121814
      4861.19      0.80913225     0.017002002
      4866.05      0.80273293     0.016884308
      4870.92      0.79457309     0.016543361
      4875.79      0.78695611     0.016427738
      4880.66      0.76705323     0.016314989
      4885.55      0.75655055     0.016204298
      4890.43      0.74303640     0.016096716
      4895.32      0.73523134     0.015991530
      4900.22      0.71707210     0.015888631
      4905.12      0.70912054     0.015789623
      4910.02      0.69644986     0.015693505
      4914.94      0.69338847     0.015774897
      4919.85      0.69479826     0.015484454
      4924.77      0.68510414     0.015395250
      4929.70      0.68663688     0.015308891
      4934.62      0.68368170     0.015230104
      4939.56      0.68018038     0.015177663
      4944.50      0.67687108     0.015157016
      4949.44      0.67515486     0.015108294
      4954.39      0.67152122     0.015019718
      4959.35      0.67195723     0.014817450
      4964.31      0.66597011     0.014846588
      4969.27      0.65741290     0.015132722
      4974.24      0.65023854     0.015265220
      4979.22      0.65131220     0.015429839
      4984.20      0.64668976     0.015608718
      4989.18      0.63983335     0.015780025
      4994.17      0.63755192     0.015739791
      4999.16      0.64197214     0.015811519
      5004.16      0.64258485     0.015818441
      5009.17      0.65130957     0.015759171
      5014.18      0.64376070     0.015638582
      5019.19      0.62495543     0.015590542
      5024.21      0.61593681     0.015389227
      5029.23      0.61223745     0.015021621
      5034.26      0.61307042     0.014895644
      5039.30      0.61269048     0.014822236
      5044.34      0.61974982     0.014738165
      5049.39      0.61285404     0.014641493
      5054.43      0.61638268     0.014584007
      5059.49      0.61462540     0.014710346
      5064.55      0.61784644     0.014518122
      5069.61      0.61571352     0.014508750
      5074.68      0.61698981     0.014514757
      5079.76      0.62213198     0.014536039
      5084.84      0.62755243     0.014569500
      5089.92      0.63437258     0.014613072
      5095.01      0.63479070     0.014497784
      5100.11      0.62542888     0.014727129
      5105.21      0.62109553     0.014773023
      5110.31      0.61196806     0.014819565
      5115.42      0.60872312     0.014871501
      5120.54      0.60845815     0.014773470
      5125.66      0.61601031     0.014837224
      5130.79      0.63114732     0.015103602
      5135.92      0.62921755     0.015179237
      5141.05      0.63393609     0.015263336
      5146.20      0.63168584     0.015208614
      5151.34      0.64361993     0.015303453
      5156.49      0.63780259     0.015409991
      5161.65      0.64233446     0.015529131
      5166.81      0.63784085     0.015882418
      5171.98      0.63661899     0.015886738
      5177.15      0.63878508     0.016035987
      5182.33      0.63548538     0.016208874
      5187.51      0.63826846     0.016411701
      5192.70      0.62672654     0.016652819
      5197.89      0.62828693     0.017115759
      5203.09      0.64541801     0.017445392
      5208.29      0.66325303     0.017789310
      5213.50      0.66271680     0.018125803
      5218.72      0.66478575     0.018442994
      5223.93      0.67196173     0.018895358
      5229.16      0.67121483     0.019141705
      5234.39      0.66499244     0.019364128
      5239.62      0.65559435     0.019562294
      5244.86      0.64823295     0.019589333
      5250.11      0.64012586     0.020050283
      5255.36      0.60981938     0.020265684
      5260.61      0.59929418     0.020521459
      5265.87      0.57053235     0.020801787
      5271.14      0.53249955     0.020920594
      5276.41      0.52516959     0.021206446
      5281.69      0.51398440     0.021785694
      5286.97      0.51138241     0.022002783
      5292.26      0.50212847     0.022018415
      5297.55      0.52624531     0.022226408
      5302.85      0.55100967     0.022776091
      5308.15      0.58036633     0.023004842
      5313.46      0.59158066     0.023017921
      5318.77      0.61059377     0.023221317
      5324.09      0.62535077     0.023433119
      5329.42      0.63669928     0.023972190
      5334.75      0.65227784     0.024020572
      5340.08      0.63756523     0.024278359
      5345.42      0.64389958     0.024552353
      5350.77      0.63324933     0.024855604
      5356.12      0.60194820     0.025324360
      5361.48      0.57214646     0.025652114
      5366.83      0.54217784     0.025984960
      5372.20      0.50540828     0.026321644
      5377.58      0.49494144     0.026823430
      5382.95      0.48820053     0.027169252
      5388.34      0.49188519     0.027527925
      5393.72      0.50301448     0.027673387
      5399.12      0.52828075     0.028456134
      5404.52      0.54491385     0.028833080
      5409.92      0.56945167     0.029218012
      5415.33      0.58491417     0.029367333
      5420.75      0.57644580     0.030193898
      5426.17      0.58968540     0.030589188
      5431.60      0.58347080     0.030747030
      5437.03      0.60006584     0.031132218
      5442.47      0.58892310     0.031992932
      5447.91      0.57441211     0.027880625
      5453.36      0.58132663     0.028694096
      5458.81      0.56944502     0.029093176
      5464.27      0.56197258     0.029399476
      5469.73      0.55697812     0.029706554
      5475.20      0.53620229     0.030354786
      5480.68      0.51937313     0.030912748
      5486.16      0.51592831     0.031634664
      5491.65      0.51017099     0.032556321
      5497.14      0.51164452     0.034283159
      5502.64      0.51981340     0.035644266
      5508.14      0.53086604     0.037150061
      5513.65      0.54044375     0.038925178
      5519.16      0.54940243     0.041316483
      5524.68      0.55268534     0.043021701
      5530.20      0.53925349     0.044491826
      5535.73      0.53847114     0.046639857
      5541.27      0.54080134     0.047552374
      5546.81      0.54800646     0.047398481
      5552.36      0.57519997     0.047295217
      5557.91      0.59155758     0.047244008
      5563.47      0.63962231     0.045459742
      5569.04      0.66397530     0.044322857
      5574.60      0.67015005     0.043279076
      5580.18      0.68059204     0.041402835
      5585.76      0.68561813     0.040450732
      5591.35      0.69072079     0.039867062
      5596.94      0.70584808     0.039524683
      5602.53      0.71029974     0.039139886
      5608.14      0.70567019     0.038820730
      5613.75      0.68990903     0.038778345
      5619.36      0.67760910     0.038785282
      5624.98      0.66024085     0.038724382
      5630.60      0.62764714     0.038640662
      5636.23      0.61242088     0.038594443
      5641.87      0.61932454     0.038294154
      5647.51      0.60569059     0.038326109
      5653.16      0.58439708     0.038693341
      5658.82      0.57142932     0.038459511
      5664.47      0.55844354     0.038520063
      5670.14      0.52600595     0.038893108
      5675.81      0.50092592     0.038632208
      5681.48      0.49905799     0.038666959
      5687.17      0.47665841     0.039005991
      5692.85      0.46502677     0.038701731
      5698.55      0.46603610     0.038701587
      5704.25      0.47128066     0.038682992
      5709.95      0.47738294     0.038657596
      5715.66      0.46960978     0.038621663
      5721.38      0.45471150     0.038520188
      5727.10      0.43053010     0.038434346
      5732.83      0.42433904     0.038342053
      5738.56      0.44904617     0.038165382
      5744.30      0.46131461     0.038033243
      5750.04      0.46411495     0.037532072
      5755.79      0.47714401     0.037627970
      5761.55      0.47502044     0.037443688
      5767.31      0.46015436     0.036882725
      5773.08      0.44926601     0.036918252
      5778.85      0.44737630     0.036336735
      5784.63      0.47074664     0.036339957
      5790.41      0.47853433     0.036099903
      5796.21      0.47167821     0.035500594
      5802.00      0.48776559     0.035476811
      5807.81      0.50759079     0.034874247
      5813.61      0.51593950     0.034603348
      5819.43      0.51486115     0.034549496
      5825.25      0.52026459     0.033930558
      5831.07      0.50304952     0.033658733
      5836.90      0.49518596     0.033277761
      5842.74      0.47880457     0.033009825
      5848.58      0.45923766     0.032967501
      5854.43      0.43562107     0.032412178
      5860.29      0.41927225     0.032176209
      5866.15      0.38868159     0.031851912
      5872.01      0.37317756     0.031646560
      5877.89      0.37825927     0.031216529
      5883.76      0.38614792     0.031300525
      5889.65      0.39093415     0.031207738
      5895.54      0.37133048     0.031175318
      5901.43      0.34773354     0.031193272
      5907.34      0.36172321     0.030961461
      5913.24      0.35192178     0.031150708
      5919.16      0.36993274     0.030832196
      5925.08      0.36891308     0.031045868
      5931.00      0.36932389     0.031008377
      5936.93      0.37629992     0.030742562
      5942.87      0.38429831     0.030929481
      5948.81      0.41023048     0.030618032
      5954.76      0.41751224     0.030745959
      5960.72      0.39686947     0.030417195
      5966.68      0.40584459     0.030348447
      5972.64      0.42775705     0.030264965
      5978.62      0.43456958     0.030231351
      5984.60      0.43685183     0.030451198
      5990.58      0.47474772     0.030283263
      5996.57      0.46450782     0.030364515
      6002.57      0.43281517     0.030530605
      6008.57      0.42297609     0.030670400
      6014.58      0.41000820     0.030890666
      6020.60      0.39313024     0.031056484
      6026.62      0.39598440     0.031066884
      6032.65      0.38845730     0.031555377
      6038.68      0.34908442     0.031631757
      6044.72      0.31519653     0.032250807
      6050.76      0.27867848     0.032646705
      6056.81      0.24765625     0.033259262
      6062.87      0.24803082     0.033614156
      6068.93      0.25184727     0.033832841
      6075.00      0.24666260     0.034648493
      6081.08      0.25015236     0.035043431
      6087.16      0.26171279     0.036041816
      6093.25      0.29615906     0.036583348
      6099.34      0.31398219     0.037703970
      6105.44      0.33173431     0.038333534
      6111.54      0.33047097     0.039589603
      6117.66      0.37951060     0.032644706
      6123.78      0.38411007     0.033689700
      6129.90      0.38914166     0.034399440
      6136.03      0.40236201     0.035587824
      6142.17      0.41060663     0.036362953
      6148.31      0.40435447     0.037641557
      6154.46      0.42012008     0.038506666
      6160.61      0.45916981     0.039940975
      6166.77      0.51977186     0.040901942
      6172.94      0.55991690     0.041916740
      6179.11      0.59337346     0.043486754
      6185.29      0.62982541     0.044592003
      6191.48      0.62124413     0.046306963
      6197.67      0.56163797     0.047503893
      6203.87      0.59353508     0.049338164
      6210.07      0.60517495     0.050610451
      6216.28      0.61331827     0.052561857
      6222.50      0.60533844     0.053910876
      6228.72      0.59919382     0.055333969
      6234.95      0.49208570     0.057437874
      6241.19      0.46225311     0.058855238
      6247.42      0.41382076     0.061040808
      6253.67      0.43305268     0.062511537
      6259.93      0.47009497     0.064763474
      6266.19      0.52895426     0.066274772
      6272.46      0.60803311     0.068591585
      6278.73      0.62010532     0.070138578
      6285.01      0.67934579     0.072500724
      6291.29      0.70227670     0.074073218
      6297.58      0.71294842     0.076463539
      6303.88      0.72320278     0.078044435
      6310.19      0.72927300     0.080439433
      6316.50      0.76702887     0.082021477
      6322.81      0.77590315     0.084416057
      6329.14      0.74831512     0.085993954
      6335.47      0.74170045     0.087432353
      6341.80      0.70476927     0.089902915
      6348.14      0.70077273     0.091294103
      6354.49      0.69112356     0.093748145
      6360.85      0.64608542     0.095088444
      6367.21      0.60695434     0.097316948
      6373.57      0.54226810     0.098795583
      6379.95      0.47301625      0.10097394
      6386.33      0.41189483      0.10242090
      6392.72      0.39344583      0.10452192
      6399.11      0.37502053      0.10590211
      6405.51      0.35043362      0.10792472
      6411.92      0.35724441      0.10925103
      6418.32      0.37353685      0.11112458
      6424.74      0.38721068      0.11235684
      6431.17      0.40711705      0.11412930
      6437.60      0.44394244      0.11496581
      6444.04      0.47250875      0.11702997
      6450.48      0.48196808      0.11794894
      6456.94      0.44550743      0.12009667
      6463.39      0.35247245      0.12113182
