# starting wavelength =        3235.0200
# ending wavelength =        7177.2600
# O2 telluric scale =        0
# O2 telluric shift =        0
# H2O telluric scale =        0
# H2O telluric shift =        0
      3236.42       3.5941371     0.076300504
      3239.66       3.5791961     0.073623296
      3242.90       3.5566780     0.070011957
      3246.14       3.5334784     0.066764501
      3249.39       3.5140985     0.064907451
      3252.64       3.4960471     0.062264704
      3255.89       3.4727991     0.059834165
      3259.14       3.4760175     0.057408438
      3262.40       3.4824935     0.056067433
      3265.67       3.4781393     0.053752102
      3268.93       3.4648241     0.051506667
      3272.20       3.4634631     0.049332377
      3275.47       3.4497170     0.048264303
      3278.75       3.4608924     0.046180191
      3282.03       3.4631908     0.044165570
      3285.31       3.4639959     0.042218886
      3288.60       3.4743566     0.040337939
      3291.88       3.4670856     0.039270214
      3295.18       3.4563268     0.037487559
      3298.47       3.4443835     0.035769007
      3301.77       3.4409385     0.034112276
      3305.07       3.4331971     0.033289959
      3308.38       3.4087927     0.031718674
      3311.69       3.3705570     0.030207534
      3315.00       3.3259547     0.028756729
      3318.31       3.2961823     0.027917515
      3321.63       3.2649715     0.026556967
      3324.95       3.2509142     0.025252912
      3328.28       3.2490118     0.024005419
      3331.61       3.2217030     0.022812305
      3334.94       3.1897275     0.022226148
      3338.27       3.1606762     0.021109849
      3341.61       3.1402367     0.020045806
      3344.95       3.1265794     0.019033997
      3348.30       3.1128846     0.018441760
      3351.65       3.1072156     0.017508936
      3355.00       3.1107450     0.016625504
      3358.35       3.1069321     0.015790046
      3361.71       3.0992745     0.015003807
      3365.07       3.0866687     0.014546278
      3368.44       3.0690787     0.013829231
      3371.81       3.0428927     0.013155823
      3375.18       3.0332736     0.012524292
      3378.56       3.0143921     0.011933823
      3381.94       2.9983399     0.011647043
      3385.32       2.9853371     0.011114168
      3388.70       2.9779040     0.010619218
      3392.09       2.9695696     0.010160702
      3395.48       2.9547368    0.0097366511
      3398.88       2.9383486    0.0095081598
      3402.28       2.9226965    0.0091394449
      3405.68       2.8999463    0.0088019458
      3409.09       2.8831395    0.0085073978
      3412.49       2.8639926    0.0082303954
      3415.91       2.8475278    0.0080999255
      3419.32       2.8361287    0.0078684004
      3422.74       2.8245991    0.0076625322
      3426.17       2.8101754    0.0074809405
      3429.59       2.7994825    0.0073226534
      3433.02       2.7885656    0.0071865805
      3436.45       2.7722159    0.0071561114
      3439.89       2.7579605    0.0070539070
      3443.33       2.7432843    0.0070112031
      3446.78       2.7254134    0.0069529081
      3450.22       2.7086013    0.0069130459
      3453.67       2.6887085    0.0068907910
      3457.13       2.6704663    0.0069376595
      3460.58       2.6531965    0.0069444351
      3464.04       2.6294379    0.0069673328
      3467.51       2.6018676    0.0070057255
      3470.98       2.5786745    0.0071422798
      3474.45       2.5495147    0.0072151637
      3477.92       2.5293300    0.0073382169
      3481.40       2.5066306    0.0074359761
      3484.88       2.4822472    0.0075466198
      3488.37       2.4535204    0.0076693352
      3491.86       2.4264225    0.0078033198
      3495.35       2.3981069    0.0080726149
      3498.84       2.3806287    0.0082660151
      3502.34       2.3631420    0.0084341052
      3505.84       2.3538334    0.0086103998
      3509.35       2.3426781    0.0087935473
      3512.86       2.3316531    0.0089827528
      3516.37       2.3304972    0.0093326721
      3519.89       2.3274401    0.0095334990
      3523.41       2.3134970    0.0097866760
      3526.93       2.3030957    0.0099942013
      3530.46       2.2995309     0.010202183
      3533.99       2.3030697     0.010409748
      3537.53       2.3156856     0.010790970
      3541.06       2.3273106     0.010994266
      3544.60       2.3179994     0.011192747
      3548.15       2.3030366     0.011386120
      3551.70       2.2952730     0.011661635
      3555.25       2.2919430     0.012030110
      3558.80       2.2874260     0.012206943
      3562.36       2.2828087     0.012375426
      3565.92       2.2747187     0.012536062
      3569.49       2.2599074     0.012688696
      3573.06       2.2467166     0.013028329
      3576.64       2.2350537     0.013163736
      3580.21       2.2309878     0.013413306
      3583.79       2.2197274     0.013535225
      3587.38       2.2156315     0.013649014
      3590.96       2.2125788     0.013959241
      3594.55       2.2207389     0.014056032
      3598.15       2.2266342     0.014145018
      3601.75       2.2468573     0.014226720
      3605.35       2.2723287     0.014301096
      3608.96       2.2920397     0.014367938
      3612.56       2.3103961     0.014427598
      3616.18       2.3218041     0.014316093
      3619.79       2.3201732     0.014357287
      3623.41       2.3300946     0.014391825
      3627.04       2.3324163     0.014420443
      3630.66       2.3297498     0.014442608
      3634.29       2.3290685     0.014458736
      3637.93       2.3185358     0.014468743
      3641.57       2.3069940     0.014660064
      3645.21       2.2976793     0.014657222
      3648.86       2.2823931     0.014649230
      3652.50       2.2690668     0.014462317
      3656.16       2.2554765     0.014439184
      3659.81       2.2459708     0.014410952
      3663.47       2.2420579     0.014377994
      3667.14       2.2443599     0.014340336
      3670.80       2.2387130     0.014298150
      3674.48       2.2183369     0.014252227
      3678.15       2.2010278     0.014202048
      3681.83       2.1808257     0.013974268
      3685.51       2.1577342     0.013915968
      3689.20       2.1312145     0.014011246
      3692.88       2.1187040     0.013939588
      3696.58       2.1110315     0.013864559
      3700.27       2.1083225     0.013786229
      3703.98       2.1134746     0.013705434
      3707.68       2.1135638     0.013621710
      3711.39       2.1207689     0.013360859
      3715.10       2.1311145     0.013272259
      3718.81       2.1405560     0.013181191
      3722.53       2.1552471     0.013088328
      3726.26       2.1737909     0.013122652
      3729.98       2.1907885     0.013018824
      3733.71       2.2035738     0.012742366
      3737.45       2.2101645     0.012636069
      3741.18       2.2051923     0.012528851
      3744.93       2.2006087     0.012420445
      3748.67       2.1962732     0.012310883
      3752.42       2.1859138     0.012200798
      3756.17       2.1756573     0.011914748
      3759.93       2.1644677     0.011915105
      3763.69       2.1527366     0.011797735
      3767.45       2.1451181     0.011679626
      3771.22       2.1413086     0.011561813
      3774.99       2.1258434     0.011444034
      3778.77       2.1005223     0.011161138
      3782.54       2.0848904     0.011040368
      3786.33       2.0725878     0.011023610
      3790.11       2.0618302     0.010902473
      3793.90       2.0550329     0.010782151
      3797.70       2.0369520     0.010510083
      3801.50       2.0192658     0.010388402
      3805.30       2.0026429     0.010267715
      3809.10       1.9886576     0.010243600
      3812.91       1.9746758     0.010125051
      3816.73       1.9573363    0.0098669898
      3820.54       1.9328709    0.0097489192
      3824.36       1.9095015    0.0096329051
      3828.19       1.8929912    0.0095190202
      3832.02       1.8803981    0.0094075301
      3835.85       1.8557020    0.0092539832
      3839.68       1.8362696    0.0091435278
      3843.52       1.8287725    0.0090356826
      3847.37       1.8193291    0.0089311314
      3851.22       1.8096941    0.0088298468
      3855.07       1.8113688    0.0086919659
      3858.92       1.8156419    0.0085934785
      3862.78       1.8254359    0.0084984658
      3866.64       1.8357043    0.0084070729
      3870.51       1.8381726    0.0082099622
      3874.38       1.8426281    0.0082017097
      3878.26       1.8460342    0.0081184811
      3882.13       1.8494549    0.0080390198
      3886.02       1.8413290    0.0078615119
      3889.90       1.8357615    0.0077918892
      3893.79       1.8298604    0.0077966030
      3897.69       1.8280978    0.0077302198
      3901.59       1.8283840    0.0075720142
      3905.49       1.8243462    0.0075149627
      3909.39       1.8170664    0.0074619459
      3913.30       1.8113917    0.0074796103
      3917.22       1.8133592    0.0073392570
      3921.13       1.8145393    0.0072940391
      3925.06       1.8165350    0.0072527422
      3928.98       1.8258685    0.0072152505
      3932.91       1.8416168    0.0071592588
      3936.84       1.8609384    0.0071254325
      3940.78       1.8761073    0.0070951522
      3944.72       1.8916871    0.0069820701
      3948.67       1.9080284    0.0070284607
      3952.61       1.9229897    0.0070051157
      3956.57       1.9318120    0.0069854072
      3960.52       1.9317889    0.0068851129
      3964.48       1.9337649    0.0069429824
      3968.45       1.9333077    0.0069295570
      3972.42       1.9231279    0.0068412336
      3976.39       1.9101750    0.0068301863
      3980.37       1.8932946    0.0068988372
      3984.35       1.8738033    0.0068213125
      3988.33       1.8580620    0.0068157928
      3992.32       1.8385905    0.0068133603
      3996.31       1.8076661    0.0068926288
      4000.31       1.7816429    0.0068227893
      4004.31       1.7573852    0.0068253793
      4008.31       1.7353215    0.0068309090
      4012.32       1.7178769    0.0068493890
      4016.33       1.7014501    0.0068565246
      4020.35       1.6857525    0.0068665455
      4024.37       1.6674024    0.0068937133
      4028.40       1.6468443    0.0069049070
      4032.42       1.6207788    0.0069191106
      4036.46       1.5949752    0.0068701057
      4040.50       1.5702367    0.0069686500
      4044.54       1.5477405    0.0069864720
      4048.58       1.5268534    0.0069410892
      4052.63       1.5094202    0.0070458795
      4056.68       1.4963806    0.0070668895
      4060.74       1.4856894    0.0070244259
      4064.80       1.4734949    0.0070508183
      4068.86       1.4582721    0.0071582376
      4072.93       1.4417942    0.0071181856
      4077.01       1.4327782    0.0071472347
      4081.08       1.4273900    0.0072590154
      4085.17       1.4278703    0.0072206570
      4089.25       1.4285873    0.0072518541
      4093.34       1.4346251    0.0072993897
      4097.43       1.4321441    0.0073298521
      4101.53       1.4264999    0.0073629705
      4105.63       1.4215146    0.0074120892
      4109.74       1.4198303    0.0074440384
      4113.85       1.4217346    0.0074784468
      4117.96       1.4234669    0.0075283527
      4122.08       1.4282894    0.0075613613
      4126.20       1.4357457    0.0075234919
      4130.33       1.4381651    0.0076464152
      4134.46       1.4391380    0.0076803934
      4138.59       1.4459258    0.0076400401
      4142.73       1.4503167    0.0077648277
      4146.88       1.4626245    0.0077259630
      4151.02       1.4767889    0.0077551731
      4155.18       1.4892467    0.0078813947
      4159.33       1.5083220    0.0078384467
      4163.49       1.5201081    0.0078676152
      4167.65       1.5289339    0.0079205970
      4171.82       1.5334346    0.0079468696
      4175.99       1.5323642    0.0080712546
      4180.17       1.5293357    0.0080235842
      4184.35       1.5287338    0.0080491306
      4188.54       1.5290132    0.0080974473
      4192.72       1.5313645    0.0081196795
      4196.92       1.5318521    0.0081441307
      4201.11       1.5273567    0.0081863101
      4205.31       1.5237238    0.0082072428
      4209.52       1.5167118    0.0082485404
      4213.73       1.5145016    0.0082657328
      4217.94       1.5101729    0.0082085231
      4222.16       1.5036907    0.0083193748
      4226.38       1.4971815    0.0082575798
      4230.61       1.4965472    0.0083680702
      4234.84       1.4930777    0.0083807094
      4239.08       1.4896286    0.0083168286
      4243.32       1.4790120    0.0084210776
      4247.56       1.4690593    0.0083531624
      4251.81       1.4554671    0.0084568636
      4256.06       1.4432672    0.0083849657
      4260.32       1.4330863    0.0083965689
      4264.58       1.4223391    0.0084123783
      4268.84       1.4152722    0.0084212101
      4273.11       1.4135034    0.0084357213
      4277.38       1.4094410    0.0084418191
      4281.66       1.4060296    0.0083644041
      4285.94       1.4060287    0.0084582487
      4290.23       1.4010398    0.0084651103
      4294.52       1.3943345    0.0084709955
      4298.81       1.3818753    0.0084756383
      4303.11       1.3661053    0.0084801483
      4307.42       1.3523845    0.0084827276
      4311.72       1.3397159    0.0084860423
      4316.04       1.3177173    0.0084866380
      4320.35       1.2922591    0.0083994120
      4324.67       1.2677468    0.0084871699
      4329.00       1.2439930    0.0083988025
      4333.33       1.2265048    0.0084848100
      4337.66       1.2151363    0.0083954363
      4342.00       1.2069468    0.0084798557
      4346.34       1.2075506    0.0083893630
      4350.69       1.2104770    0.0084720893
      4355.04       1.2192507    0.0083805624
      4359.39       1.2297014    0.0084619367
      4363.75       1.2426177    0.0083694992
      4368.12       1.2542190    0.0082816828
      4372.48       1.2719219    0.0083563370
      4376.86       1.2889337    0.0082677362
      4381.23       1.3007309    0.0083413707
      4385.61       1.3061073    0.0082520887
      4390.00       1.3139336    0.0083244631
      4394.39       1.3157544    0.0082347391
      4398.79       1.3111215    0.0083060461
      4403.18       1.3174199    0.0082161611
      4407.59       1.3217199    0.0082863308
      4412.00       1.3345400    0.0081964942
      4416.41       1.3490797    0.0082655177
      4420.82       1.3581264    0.0081760022
      4425.25       1.3727583    0.0081636153
      4429.67       1.3826675    0.0081548404
      4434.10       1.3932745    0.0081415585
      4438.54       1.4001660    0.0081332641
      4442.97       1.3987841    0.0081191755
      4447.42       1.3984564    0.0081117144
      4451.86       1.3992989    0.0080967311
      4456.32       1.4000995    0.0080061546
      4460.77       1.4016395    0.0080742785
      4465.24       1.3993024    0.0080619347
      4469.70       1.4004256    0.0080522928
      4474.17       1.4026260    0.0080393272
      4478.65       1.4048958    0.0080310021
      4483.12       1.4137801    0.0080175053
      4487.61       1.4292498    0.0079291081
      4492.09       1.4421535    0.0079967181
      4496.59       1.4560716    0.0079079174
      4501.08       1.4633460    0.0079770362
      4505.58       1.4632767    0.0078878727
      4510.09       1.4702049    0.0078801511
      4514.60       1.4772573    0.0079477743
      4519.12       1.4801920    0.0078615146
      4523.63       1.4752344    0.0079311599
      4528.16       1.4743146    0.0078446808
      4532.69       1.4727709    0.0078396343
      4537.22       1.4723656    0.0078306246
      4541.76       1.4661586    0.0078262372
      4546.30       1.4666469    0.0078246892
      4550.85       1.4699852    0.0078147360
      4555.40       1.4704170    0.0078131860
      4559.95       1.4620077    0.0077358321
      4564.51       1.4573052    0.0078087291
      4569.08       1.4597916    0.0077380785
      4573.65       1.4648752    0.0078126046
      4578.22       1.4608298    0.0078197257
      4582.80       1.4515654    0.0077496410
      4587.38       1.4415400    0.0078278985
      4591.97       1.4351733    0.0077584608
      4596.56       1.4378434    0.0077594363
      4601.16       1.4411067    0.0078331868
      4605.76       1.4405542    0.0077587853
      4610.37       1.4418684    0.0077568817
      4614.98       1.4432645    0.0077554028
      4619.59       1.4357456    0.0077505418
      4624.21       1.4245539    0.0077484614
      4628.84       1.4180466    0.0077469782
      4633.47       1.4180575    0.0077432096
      4638.10       1.4127389    0.0077398441
      4642.74       1.4045640    0.0077361088
      4647.38       1.3924512    0.0077297863
      4652.03       1.3905811    0.0076513437
      4656.68       1.3940479    0.0077209531
      4661.34       1.3921020    0.0077132433
      4666.00       1.3838613    0.0076336035
      4670.67       1.3795141    0.0076304932
      4675.33       1.3792459    0.0076979523
      4680.01       1.3795982    0.0076200215
      4684.69       1.3855555    0.0076164990
      4689.38       1.3893007    0.0076835188
      4694.07       1.3848872    0.0076069381
      4698.76       1.3846759    0.0076055163
      4703.46       1.3811322    0.0076055483
      4708.16       1.3777397    0.0075977190
      4712.87       1.3749244    0.0075962756
      4717.58       1.3795403    0.0075956841
      4722.30       1.3818395    0.0075885371
      4727.03       1.3793999    0.0075856527
      4731.75       1.3811230    0.0075838001
      4736.48       1.3793155    0.0075095774
      4741.22       1.3776237    0.0075729008
      4745.96       1.3762954    0.0075690481
      4750.71       1.3685349    0.0074952829
      4755.46       1.3533847    0.0074889630
      4760.22       1.3380994    0.0075509001
      4764.97       1.3244855    0.0075454301
      4769.74       1.3128506    0.0074688240
      4774.51       1.2998266    0.0074603877
      4779.29       1.2855344    0.0075202494
      4784.07       1.2700527    0.0074444263
      4788.85       1.2596264    0.0074334925
      4793.64       1.2533850    0.0074227496
      4798.43       1.2465047    0.0074157726
      4803.23       1.2398238    0.0074020197
      4808.03       1.2314016    0.0073882165
      4812.84       1.2286032    0.0073742966
      4817.66       1.2275796    0.0072942389
      4822.48       1.2235358    0.0073481736
      4827.30       1.2160562    0.0073309810
      4832.12       1.2064086    0.0073137259
      4836.96       1.1986491    0.0072318365
      4841.79       1.1830856    0.0072175673
      4846.63       1.1676988    0.0072688919
      4851.48       1.1512615    0.0072473693
      4856.33       1.1458341    0.0071614287
      4861.19       1.1466078    0.0071449559
      4866.05       1.1447596    0.0071325027
      4870.92       1.1395149    0.0071849992
      4875.79       1.1292846    0.0071117756
      4880.66       1.1239067    0.0071035688
      4885.55       1.1218027    0.0070941676
      4890.43       1.1179576    0.0070813181
      4895.32       1.1151736    0.0069989249
      4900.22       1.1144714    0.0070400627
      4905.12       1.1234165    0.0070084448
      4910.02       1.1313789    0.0069702614
      4914.94       1.1296639    0.0069267513
      4919.85       1.1259073    0.0068246677
      4924.77       1.1277582    0.0067757420
      4929.70       1.1292046    0.0067936536
      4934.62       1.1263662    0.0067507331
      4939.56       1.1274115    0.0067094122
      4944.50       1.1327980    0.0066120222
      4949.44       1.1413460    0.0065671365
      4954.39       1.1559173    0.0065245487
      4959.35       1.1557685    0.0064823009
      4964.31       1.1498431    0.0065031004
      4969.27       1.1444119    0.0064115640
      4974.24       1.1460399    0.0063690720
      4979.22       1.1440800    0.0063270143
      4984.20       1.1373764    0.0062857070
      4989.18       1.1321191    0.0062449270
      4994.17       1.1327857    0.0061558588
      4999.16       1.1367487    0.0061163886
      5004.16       1.1323971    0.0061371170
      5009.17       1.1258192    0.0060964861
      5014.18       1.1195642    0.0060570848
      5019.19       1.1166864    0.0060191284
      5024.21       1.1094722    0.0059835521
      5029.23       1.1024150    0.0059019443
      5034.26       1.0953911    0.0058665399
      5039.30       1.0934286    0.0058303321
      5044.34       1.0925129    0.0057941298
      5049.39       1.0917953    0.0057575557
      5054.43       1.0845943    0.0057199664
      5059.49       1.0769743    0.0057350214
      5064.55       1.0680902    0.0056492032
      5069.61       1.0621686    0.0056080809
      5074.68       1.0579375    0.0055670375
      5079.76       1.0548222    0.0055266924
      5084.84       1.0510636    0.0054875039
      5089.92       1.0466130    0.0054495384
      5095.01       1.0407839    0.0054123404
      5100.11       1.0369334    0.0053750990
      5105.21       1.0389693    0.0052973989
      5110.31       1.0422894    0.0052598547
      5115.42       1.0387692    0.0052228082
      5120.54       1.0388570    0.0051870795
      5125.66       1.0449224    0.0051525181
      5130.79       1.0472332    0.0051178551
      5135.92       1.0492338    0.0050838079
      5141.05       1.0541871    0.0050514302
      5146.20       1.0528399    0.0050208300
      5151.34       1.0511045    0.0049916233
      5156.49       1.0463052    0.0049635288
      5161.65       1.0433544    0.0048984172
      5166.81       1.0401394    0.0048727145
      5171.98       1.0359737    0.0048479528
      5177.15       1.0289710    0.0048242213
      5182.33       1.0191541    0.0048015350
      5187.51       1.0064833    0.0047799312
      5192.70       1.0008382    0.0047595749
      5197.89      0.99653519    0.0047402429
      5203.09      0.99267889    0.0047221134
      5208.29      0.98889904    0.0047050414
      5213.50      0.97867095    0.0046890832
      5218.72      0.97188995    0.0046741053
      5223.93      0.96723831    0.0046602442
      5229.16      0.95859507    0.0046473877
      5234.39      0.95262926    0.0046355298
      5239.62      0.94754833    0.0046247400
      5244.86      0.93877208    0.0046148798
      5250.11      0.93207327    0.0046060407
      5255.36      0.92308603    0.0045981064
      5260.61      0.91551825    0.0045911704
      5265.87      0.90881952    0.0045850566
      5271.14      0.90513278    0.0045799658
      5276.41      0.89920335    0.0045757349
      5281.69      0.89749064    0.0045724423
      5286.97      0.89265550    0.0045699814
      5292.26      0.89087718    0.0045698699
      5297.55      0.88745071    0.0045780959
      5302.85      0.88466556    0.0045943799
      5308.15      0.88233192    0.0045991075
      5313.46      0.87764639    0.0045957910
      5318.77      0.87350365    0.0046092700
      5324.09      0.86862610    0.0046139978
      5329.42      0.86762893    0.0046645829
      5334.75      0.86412815    0.0047294928
      5340.08      0.85949734    0.0048051521
      5345.42      0.85662133    0.0048855904
      5350.77      0.85397176    0.0049630925
      5356.12      0.84947556    0.0050293715
      5361.48      0.84464544    0.0050765218
      5366.83      0.84399169    0.0050995704
      5372.20      0.84516735    0.0050971888
      5377.58      0.84488096    0.0050713760
      5382.95      0.84728026    0.0049770403
      5388.34      0.84405500    0.0049295069
      5393.72      0.83869418    0.0048869414
      5399.12      0.83460089    0.0048616588
      5404.52      0.83367404    0.0048532436
      5409.92      0.83645389    0.0048353197
      5415.33      0.83661185    0.0048131278
      5420.75      0.83127398    0.0048054837
      5426.17      0.82754942    0.0047674482
      5431.60      0.82642056    0.0048074214
      5437.03      0.81938967    0.0048108956
      5442.47      0.81876943    0.0048185317
      5447.91      0.81669771    0.0048300523
      5453.36      0.81090169    0.0048444740
      5458.81      0.80506609    0.0048605515
      5464.27      0.80066597    0.0048409027
      5469.73      0.79943799    0.0048555423
      5475.20      0.79878209    0.0048690743
      5480.68      0.79844971    0.0048810922
      5486.16      0.79747498    0.0048932521
      5491.65      0.79528788    0.0049470666
      5497.14      0.79019068    0.0049255286
      5502.64      0.79046304    0.0049396715
      5508.14      0.79326828    0.0049540072
      5513.65      0.79438501    0.0049694499
      5519.16      0.79161917    0.0049859411
      5524.68      0.79019569    0.0049668044
      5530.20      0.79146653    0.0049865028
      5535.73      0.78601441    0.0050534836
      5541.27      0.77752419    0.0050776202
      5546.81      0.77738326    0.0051030446
      5552.36      0.77682680    0.0050950094
      5557.91      0.77534253    0.0051281600
      5563.47      0.77688362    0.0051695807
      5569.04      0.77919192    0.0052222171
      5574.60      0.78121830    0.0053385723
      5580.18      0.77845453    0.0053913392
      5585.76      0.77756355    0.0054675477
      5591.35      0.78414665    0.0055359326
      5596.94      0.78338220    0.0055934763
      5602.53      0.77865649    0.0056014430
      5608.14      0.77825475    0.0056882187
      5613.75      0.77268091    0.0057111047
      5619.36      0.77055203    0.0057250500
      5624.98      0.76769554    0.0056951122
      5630.60      0.76630163    0.0057056705
      5636.23      0.76057638    0.0057694786
      5641.87      0.74779142    0.0057963234
      5647.51      0.74213760    0.0057852955
      5653.16      0.74302323    0.0058142989
      5658.82      0.74018909    0.0058399004
      5664.47      0.73634317    0.0059063028
      5670.14      0.74055596    0.0058677578
      5675.81      0.73749027    0.0058673953
      5681.48      0.73222852    0.0058686014
      5687.17      0.72040834    0.0058246627
      5692.85      0.71567636    0.0058742814
      5698.55      0.71609528    0.0058700556
      5704.25      0.70393451    0.0058644184
      5709.95      0.70033626    0.0058130065
      5715.66      0.70227521    0.0058566270
      5721.38      0.69775418    0.0058593255
      5727.10      0.69753456    0.0058213435
      5732.83      0.69299812    0.0058285629
      5738.56      0.68768050    0.0058888869
      5744.30      0.68103561    0.0058638019
      5750.04      0.67651155    0.0058795813
      5755.79      0.67386746    0.0058952437
      5761.55      0.67093576    0.0059191506
      5767.31      0.66744154    0.0059349195
      5773.08      0.66658306    0.0059528153
      5778.85      0.66566676    0.0059330058
      5784.63      0.65830427    0.0060036681
      5790.41      0.65625025    0.0060256902
      5796.21      0.65091574    0.0060090130
      5802.00      0.64867496    0.0060831923
      5807.81      0.64760508    0.0061073418
      5813.61      0.64934276    0.0060929747
      5819.43      0.65380049    0.0061198524
      5825.25      0.65614992    0.0061965913
      5831.07      0.64745160    0.0061832828
      5836.90      0.64389155    0.0062117117
      5842.74      0.63850853    0.0062499942
      5848.58      0.63555742    0.0062789216
      5854.43      0.62791422    0.0063149147
      5860.29      0.62086827    0.0063994018
      5866.15      0.61190211    0.0064919359
      5872.01      0.60437048    0.0065166356
      5877.89      0.59492653    0.0065992479
      5883.76      0.58450023    0.0066329349
      5889.65      0.57959088    0.0067378135
      5895.54      0.57546275    0.0070204293
      5901.43      0.57488081    0.0073513650
      5907.34      0.57163866    0.0077316087
      5913.24      0.57332175    0.0082930454
      5919.16      0.57643243    0.0088343165
      5925.08      0.58030465    0.0093390740
      5931.00      0.56930989    0.0099411367
      5936.93      0.56938270     0.010250114
      5942.87      0.57171541     0.010255720
      5948.81      0.59616820     0.010230475
      5954.76      0.60891217    0.0099217193
      5960.72      0.59841085    0.0093667766
      5966.68      0.58306853    0.0089189708
      5972.64      0.57574404    0.0084158356
      5978.62      0.56844437    0.0081025445
      5984.60      0.55900420    0.0077779546
      5990.58      0.54299718    0.0075724734
      5996.57      0.52728750    0.0073823825
      6002.57      0.51221511    0.0073143176
      6008.57      0.49379571    0.0072532622
      6014.58      0.48514573    0.0072119152
      6020.60      0.48475458    0.0072294357
      6026.62      0.48170081    0.0071581401
      6032.65      0.47919323    0.0071529599
      6038.68      0.48265765    0.0071557096
      6044.72      0.47911941    0.0071641071
      6050.76      0.48565713    0.0071787606
      6056.81      0.49589259    0.0071909485
      6062.87      0.50273927    0.0071525402
      6068.93      0.49922094    0.0072202382
      6075.00      0.49119023    0.0071813567
      6081.08      0.49224109    0.0072475455
      6087.16      0.48996749    0.0072059716
      6093.25      0.48812300    0.0072206341
      6099.34      0.48440513    0.0072258230
      6105.44      0.47641998    0.0072376400
      6111.54      0.46624723    0.0072418384
      6117.66      0.45636640    0.0072531706
      6123.78      0.45264361    0.0072563529
      6129.90      0.45374429    0.0072114652
      6136.03      0.45573558    0.0072684296
      6142.17      0.44735220    0.0072220797
      6148.31      0.44587476    0.0072737918
      6154.46      0.45000895    0.0072183114
      6160.61      0.44863333    0.0072614987
      6166.77      0.45010001    0.0072008288
      6172.94      0.45538298    0.0071869131
      6179.11      0.45341571    0.0071745197
      6185.29      0.45435353    0.0071550505
      6191.48      0.45820131    0.0071393924
      6197.67      0.46325688    0.0071164627
      6203.87      0.46178384    0.0070999899
      6210.07      0.46031055    0.0070751207
      6216.28      0.45826068    0.0070018880
      6222.50      0.45726842    0.0070274691
      6228.72      0.45455948    0.0069976417
      6234.95      0.45067312    0.0069729214
      6241.19      0.44470911    0.0069366697
      6247.42      0.43950324    0.0068540402
      6253.67      0.43963574    0.0068686997
      6259.93      0.43909607    0.0067846421
      6266.19      0.43941127    0.0067449492
      6272.46      0.44095041    0.0067112910
      6278.73      0.44183193    0.0066732379
      6285.01      0.44100361    0.0066436932
      6291.29      0.44492348    0.0066109201
      6297.58      0.44562109    0.0065859588
      6303.88      0.44538532    0.0065666517
      6310.19      0.44312460    0.0065518813
      6316.50      0.44047461    0.0065034588
      6322.81      0.43432001    0.0065543704
      6329.14      0.43064922    0.0065211449
      6335.47      0.42587087    0.0065381434
      6341.80      0.42512718    0.0066069287
      6348.14      0.42169116    0.0065830356
      6354.49      0.41547158    0.0065835212
      6360.85      0.40997339    0.0065555894
      6367.21      0.41132649    0.0065052906
      6373.57      0.41955054    0.0064543278
      6379.95      0.42150261    0.0064118649
      6386.33      0.41852729    0.0063516638
      6392.72      0.41305526    0.0062862150
      6399.11      0.41586241    0.0062321787
      6405.51      0.42703257    0.0061586515
      6411.92      0.43475279    0.0060555592
      6418.32      0.43751825    0.0059963734
      6424.74      0.44105806    0.0059838880
      6431.17      0.44383602    0.0058869667
      6437.60      0.44981180    0.0058243636
      6444.04      0.45408119    0.0058070990
      6450.48      0.44608299    0.0057124039
      6456.94      0.43885706    0.0056526736
      6463.39      0.43880179    0.0056052754
      6469.85      0.43523139    0.0055730837
      6476.33      0.42392499    0.0055231647
      6482.80      0.41632503    0.0054581483
      6489.28      0.41469437    0.0053683868
      6495.77      0.41308431    0.0053536810
      6502.27      0.40955682    0.0053025751
      6508.77      0.40801268    0.0052283996
      6515.28      0.40436960    0.0051874702
      6521.80      0.40943696    0.0051863267
      6528.32      0.41318501    0.0051222157
      6534.85      0.41330498    0.0050924777
      6541.38      0.41087548    0.0050695602
      6547.92      0.40786531    0.0050515019
      6554.47      0.40494772    0.0050392912
      6561.03      0.40528077    0.0050273413
      6567.59      0.40464234    0.0050201766
      6574.16      0.39636350    0.0049851490
      6580.73      0.39433093    0.0049876603
      6587.31      0.39413186    0.0050251492
      6593.90      0.38925885    0.0050358731
      6600.50      0.38597674    0.0050156562
      6607.10      0.39059130    0.0050356501
      6613.70      0.39087701    0.0050610332
      6620.32      0.39130935    0.0051186373
      6626.94      0.39370912    0.0051136506
      6633.57      0.39985173    0.0051515245
      6640.20      0.39883361    0.0051941064
      6646.84      0.40162358    0.0052412596
      6653.49      0.40305080    0.0052513660
      6660.14      0.40094222    0.0053330228
      6666.80      0.39827976    0.0053939737
      6673.47      0.39259663    0.0054609341
      6680.14      0.38711638    0.0055343747
      6686.82      0.38784969    0.0055664041
      6693.51      0.39302846    0.0056497430
      6700.20      0.38700081    0.0057396899
      6706.90      0.38279689    0.0058369358
      6713.61      0.37897062    0.0059148038
      6720.32      0.37770546    0.0060248802
      6727.05      0.37935855    0.0061419339
      6733.77      0.38054750    0.0062663517
      6740.51      0.37515635    0.0063985679
      6747.25      0.37661542    0.0065383260
      6754.00      0.38473000    0.0066229649
      6760.75      0.39006268    0.0067759976
      6767.51      0.38899674    0.0069367652
      6774.28      0.39002203    0.0071290640
      6781.05      0.38868549    0.0072822200
      6787.84      0.38139337    0.0073921005
      6794.62      0.37420336    0.0074863327
      6801.42      0.37258622    0.0076097028
      6808.22      0.36300291    0.0077171182
      6815.03      0.36047672    0.0078314728
      6821.85      0.36139570    0.0080476882
      6828.67      0.35959922    0.0081731404
      6835.50      0.36040088    0.0083210839
      6842.33      0.35363257    0.0084542758
      6849.17      0.35326642    0.0085908349
      6856.02      0.35522152    0.0088290354
      6862.88      0.36345765    0.0089693689
      6869.74      0.36424473    0.0091105009
      6876.61      0.36516518    0.0092724384
      6883.49      0.35912443    0.0094119274
      6890.37      0.35924700    0.0096315083
      6897.27      0.35840972    0.0097887563
      6904.16      0.35983274    0.0099191149
      6911.07      0.36266542     0.010047500
      6917.98      0.35856707     0.010277283
      6924.89      0.35924437     0.010398451
      6931.82      0.35999301     0.010522090
      6938.75      0.36142950     0.010648409
      6945.69      0.36053614     0.010793821
      6952.64      0.35562056     0.011007626
      6959.59      0.35720312     0.011136987
      6966.55      0.35722304     0.011278340
      6973.52      0.35638034     0.011378899
      6980.49      0.35453791     0.011520237
      6987.47      0.35659954     0.011537882
      6994.46      0.35101570     0.011511757
      7001.46      0.34796451     0.011498842
      7008.46      0.35284585     0.011464080
      7015.46      0.35824619     0.011302497
      7022.48      0.35132943     0.011087176
      7029.51      0.34721829     0.010884009
      7036.53      0.35527592     0.010569419
      7043.57      0.36150940     0.010107146
      7050.62      0.34559025    0.0095848571
      7057.66      0.34579388    0.0091090876
      7064.72      0.34254192    0.0091360707
      7071.79      0.34056073    0.0091751645
      7078.86      0.33880430    0.0092185296
      7085.94      0.33566979    0.0093156524
      7093.03      0.33612883    0.0094277706
      7100.12      0.33463213    0.0095590801
      7107.22      0.33639145    0.0098559686
      7114.33      0.33931149     0.010117367
      7121.44      0.34597847     0.010525103
      7128.56      0.35388352     0.011271255
      7135.69      0.36170613     0.011903990
      7142.83      0.36602877     0.013138294
      7149.97      0.37016203     0.014365677
      7157.12      0.37585637     0.015658188
      7164.28      0.38136891     0.018032873
      7171.44      0.38636430     0.020445185
