# starting wavelength =        3198.6600
# ending wavelength =        8154.3600
# O2 telluric scale =        0
# O2 telluric shift =        0
# H2O telluric scale =        0
# H2O telluric shift =        0
      3201.03      0.82937164      0.13916852
      3204.23      0.80961394      0.10489093
      3207.44      0.78077697     0.099986501
      3210.64      0.76327038     0.087834844
      3213.85      0.75351293     0.071312420
      3217.07      0.74900502     0.069354447
      3220.28      0.74391582     0.063107511
      3223.51      0.75388738     0.055288653
      3226.73      0.78343625     0.054118022
      3229.96      0.78807347     0.051155702
      3233.19      0.81520147     0.047331838
      3236.42      0.80302094     0.046314875
      3239.66      0.80744805     0.044992417
      3242.90      0.80961561     0.042899584
      3246.14      0.79393630     0.041915320
      3249.39      0.79867638     0.041361529
      3252.64      0.81663865     0.040042693
      3255.89      0.82570998     0.039082544
      3259.14      0.83015801     0.038902303
      3262.40      0.83917578     0.037985321
      3265.67      0.83820588     0.037583475
      3268.93      0.85486532     0.037215351
      3272.20      0.85996802     0.037188452
      3275.47      0.85463310     0.036792188
      3278.75      0.86488043     0.036429723
      3282.03      0.87203426     0.036408777
      3285.31      0.88405914     0.036019103
      3288.60      0.86956322     0.035146839
      3291.88      0.87021542     0.035647754
      3295.18      0.87184624     0.035263815
      3298.47      0.87839979     0.034407450
      3301.77      0.88571497     0.034905116
      3305.07      0.89823713     0.034526701
      3308.38      0.91139210     0.033685515
      3311.69      0.91383777     0.033368730
      3315.00      0.91322547     0.033807851
      3318.31      0.91136718     0.033464383
      3321.63      0.91622036     0.032668280
      3324.95      0.91311504     0.033107430
      3328.28      0.91387512     0.032767776
      3331.61      0.92355259     0.031985106
      3334.94      0.93474110     0.032425315
      3338.27      0.94503671     0.032089248
      3341.61      0.95221410     0.031319147
      3344.95      0.95855806     0.031037225
      3348.30      0.97020924     0.031428552
      3351.65      0.97357364     0.030670384
      3355.00      0.97577370     0.030390530
      3358.35      0.97353294     0.030785531
      3361.71      0.97939454     0.030039416
      3365.07      0.96452900     0.029761743
      3368.44      0.97397811     0.029506657
      3371.81      0.97528143     0.029425023
      3375.18      0.98201498     0.029148436
      3378.56      0.98836886     0.028893635
      3381.94      0.98968516     0.028826499
      3385.32      0.98232928     0.028550969
      3388.70      0.98514468     0.028296654
      3392.09      0.98464188     0.028244235
      3395.48      0.97781525     0.027970453
      3398.88      0.96428047     0.027717509
      3402.28      0.96278186     0.027485216
      3405.68      0.96100390     0.027407683
      3409.09      0.95369886     0.027155590
      3412.49      0.95274128     0.026923561
      3415.91      0.94991809     0.026292614
      3419.32      0.93834043     0.026611176
      3422.74      0.94721947     0.026379363
      3426.17      0.95449729     0.025777431
      3429.59      0.95522507     0.026084433
      3433.02      0.95172007     0.025852664
      3436.45      0.95495671     0.025279382
      3439.89      0.95851532     0.025035305
      3443.33      0.95574524     0.025343384
      3446.78      0.95187882     0.025129674
      3450.22      0.94395529     0.024555146
      3453.67      0.94318709     0.024851514
      3457.13      0.93586100     0.024637257
      3460.58      0.94743698     0.024091863
      3464.04      0.96623384     0.023865603
      3467.51      0.96844406     0.024162068
      3470.98      0.97501843     0.023646014
      3474.45      0.97409874     0.023420206
      3477.92      0.97225538     0.023209680
      3481.40      0.97688984     0.023505506
      3484.88      0.98612326     0.022990529
      3488.37      0.99838048     0.022779371
      3491.86       1.0099851     0.022582837
      3495.35       1.0132225     0.022576908
      3498.84       1.0182677     0.022365652
      3502.34       1.0277625     0.022168906
      3505.84       1.0306622     0.022180725
      3509.35       1.0333277     0.021969210
      3512.86       1.0290478     0.021771976
      3516.37       1.0327442     0.021588619
      3519.89       1.0343707     0.021589917
      3523.41       1.0325350     0.021392213
      3526.93       1.0250416     0.021208126
      3530.46       1.0244647     0.020745371
      3533.99       1.0233138     0.021029584
      3537.53       1.0330876     0.020844892
      3541.06       1.0311374     0.020672955
      3544.60       1.0318671     0.020226870
      3548.15       1.0342281     0.020498985
      3551.70       1.0286509     0.020326024
      3555.25       1.0295692     0.019882938
      3558.80       1.0354301     0.019734653
      3562.36       1.0352063     0.019996312
      3565.92       1.0350692     0.019834389
      3569.49       1.0327086     0.019406225
      3573.06       1.0281350     0.019267637
      3576.64       1.0237198     0.019520541
      3580.21       1.0193275     0.019369175
      3583.79       1.0252165     0.018954993
      3587.38       1.0277729     0.018825428
      3590.96       1.0297244     0.019070990
      3594.55       1.0234436     0.018658119
      3598.15       1.0226660     0.018526741
      3601.75       1.0209325     0.018405148
      3605.35       1.0140540     0.018644593
      3608.96       1.0105923     0.018244103
      3612.56       1.0001594     0.018121002
      3616.18      0.99742471     0.018007441
      3619.79      0.99945467     0.018242659
      3623.41      0.99592244     0.017853876
      3627.04      0.99370525     0.017738523
      3630.66      0.98457705     0.017632373
      3634.29      0.97207803     0.017276484
      3637.93      0.96594397     0.017486510
      3641.57      0.95688283     0.017378431
      3645.21      0.94757303     0.017279214
      3648.86      0.93418937     0.016933523
      3652.50      0.92715508     0.017141582
      3656.16      0.92174027     0.017040244
      3659.81      0.91247711     0.016947407
      3663.47      0.91133607     0.016612305
      3667.14      0.90977385     0.016818275
      3670.80      0.91500175     0.016723204
      3674.48      0.92702410     0.016636288
      3678.15      0.93555123     0.016312151
      3681.83      0.93574321     0.016217807
      3685.51      0.93567336     0.016426991
      3689.20      0.94287981     0.016345650
      3692.88      0.94965500     0.016032946
      3696.58      0.95451351     0.015943758
      3700.27      0.96020135     0.016150384
      3703.98      0.96533801     0.016073649
      3707.68      0.96895273     0.015772536
      3711.39      0.96764783     0.015688201
      3715.10      0.97114197     0.015610692
      3718.81      0.98058706     0.015819662
      3722.53      0.97977046     0.015530679
      3726.26      0.99006986     0.015451173
      3729.98      0.98413763     0.015378339
      3733.71      0.98353183     0.015584918
      3737.45      0.98301478     0.015308301
      3741.18      0.98803738     0.015233261
      3744.93      0.99023441     0.015164659
      3748.67      0.98740945     0.015102388
      3752.42      0.99057029     0.015104784
      3756.17      0.99460272     0.015033825
      3759.93      0.99610187     0.014969128
      3763.69      0.99788951     0.014910479
      3767.45       1.0012680     0.014638469
      3771.22       1.0005792     0.014852612
      3774.99      0.99618050     0.014791400
      3778.77      0.99120126     0.014736053
      3782.54      0.98789267     0.014686465
      3786.33      0.98491125     0.014423146
      3790.11      0.98427694     0.014631031
      3793.90      0.97732264     0.014578895
      3797.70      0.98015532     0.014532167
      3801.50      0.99564079     0.014271745
      3805.30       1.0123330     0.014234942
      3809.10       1.0247164     0.014438169
      3812.91       1.0453426     0.014393520
      3816.73       1.0568945     0.014135284
      3820.54       1.0758087     0.014100359
      3824.36       1.0896443     0.014070233
      3828.19       1.1011153     0.014270044
      3832.02       1.1165219     0.014232485
      3835.85       1.1374134     0.013980658
      3839.68       1.1550623     0.013952362
      3843.52       1.1678336     0.013928703
      3847.37       1.1855632     0.014126997
      3851.22       1.2014931     0.013876466
      3855.07       1.2131073     0.013849680
      3858.92       1.2262675     0.013827293
      3862.78       1.2422947     0.013809391
      3866.64       1.2561124     0.013795870
      3870.51       1.2706015     0.013761950
      3874.38       1.2893501     0.013740649
      3878.26       1.3039287     0.013723585
      3882.13       1.3286580     0.013710700
      3886.02       1.3448941     0.013482815
      3889.90       1.3623069     0.013668404
      3893.79       1.3754885     0.013651959
      3897.69       1.3898674     0.013639728
      3901.59       1.4051500     0.013631341
      3905.49       1.4138969     0.013408162
      3909.39       1.4198388     0.013392805
      3913.30       1.4310275     0.013582416
      3917.22       1.4416983     0.013573798
      3921.13       1.4471607     0.013568839
      3925.06       1.4546897     0.013350899
      3928.98       1.4649059     0.013339013
      3932.91       1.4667222     0.013529061
      3936.84       1.4770881     0.013523495
      3940.78       1.4861943     0.013521387
      3944.72       1.4882549     0.013309588
      3948.67       1.4973357     0.013300860
      3952.61       1.5089755     0.013295314
      3956.57       1.5138008     0.013488811
      3960.52       1.5136022     0.013489538
      3964.48       1.5161304     0.013284596
      3968.45       1.5163230     0.013278525
      3972.42       1.5177233     0.013275441
      3976.39       1.5129625     0.013275295
      3980.37       1.5119218     0.013472026
      3984.35       1.5062418     0.013274667
      3988.33       1.5020107     0.013270703
      3992.32       1.4920685     0.013269555
      3996.31       1.4827831     0.013271166
      4000.31       1.4694541     0.013275689
      4004.31       1.4655912     0.013073587
      4008.31       1.4548524     0.013276661
      4012.32       1.4508033     0.013276941
      4016.33       1.4388302     0.013279730
      4020.35       1.4255212     0.013284984
      4024.37       1.4149346     0.013082125
      4028.40       1.4127854     0.013091536
      4032.42       1.4091089     0.013295379
      4036.46       1.4084663     0.013298599
      4040.50       1.4017790     0.013304104
      4044.54       1.4014221     0.013311838
      4048.58       1.4042132     0.013109597
      4052.63       1.3976779     0.013121098
      4056.68       1.3973388     0.013134923
      4060.74       1.3933617     0.013332826
      4064.80       1.3923186     0.013340570
      4068.86       1.3865483     0.013136794
      4072.93       1.3850919     0.013148188
      4077.01       1.3839409     0.013161562
      4081.08       1.3851730     0.013176784
      4085.17       1.3879755     0.013193896
      4089.25       1.3840911     0.013387820
      4093.34       1.3826001     0.013183578
      4097.43       1.3789327     0.013195973
      4101.53       1.3744769     0.013210100
      4105.63       1.3728501     0.013226091
      4109.74       1.3734862     0.013243676
      4113.85       1.3752828     0.013262863
      4117.96       1.3721160     0.013237870
      4122.08       1.3699359     0.013250432
      4126.20       1.3658519     0.013264465
      4130.33       1.3590817     0.013279922
      4134.46       1.3527603     0.013296774
      4138.59       1.3502382     0.013315019
      4142.73       1.3414472     0.013121181
      4146.88       1.3301563     0.013132700
      4151.02       1.3253574     0.013320652
      4155.18       1.3164074     0.013334794
      4159.33       1.3049957     0.013350123
      4163.49       1.2983635     0.013366890
      4167.65       1.2903112     0.013384841
      4171.82       1.2873089     0.013190118
      4175.99       1.2717449     0.013201405
      4180.17       1.2612503     0.013213676
      4184.35       1.2593537     0.013403826
      4188.54       1.2631137     0.013418499
      4192.72       1.2632422     0.013434170
      4196.92       1.2554081     0.013247935
      4201.11       1.2497650     0.013257125
      4205.31       1.2455234     0.013267121
      4209.52       1.2390512     0.013277903
      4213.73       1.2291615     0.013289613
      4217.94       1.2224734     0.013301981
      4222.16       1.2126671     0.013494422
      4226.38       1.2104457     0.013311121
      4230.61       1.2040905     0.013318259
      4234.84       1.1995967     0.013325988
      4239.08       1.1997598     0.013334282
      4243.32       1.1987141     0.013343117
      4247.56       1.1975025     0.013352466
      4251.81       1.1979076     0.013362320
      4256.06       1.1988725     0.013170687
      4260.32       1.1984008     0.013369113
      4264.58       1.1976092     0.013373717
      4268.84       1.2005778     0.013378771
      4273.11       1.2052989     0.013384517
      4277.38       1.2066019     0.013390751
      4281.66       1.2049668     0.013397459
      4285.94       1.2031273     0.013203256
      4290.23       1.2087334     0.013210815
      4294.52       1.2148308     0.013218796
      4298.81       1.2195399     0.013227168
      4303.11       1.2206273     0.013416828
      4307.42       1.2199020     0.013419916
      4311.72       1.2216684     0.013423304
      4316.04       1.2260716     0.013427313
      4320.35       1.2294057     0.013231194
      4324.67       1.2329995     0.013235944
      4329.00       1.2335411     0.013240961
      4333.33       1.2344148     0.013246263
      4337.66       1.2322833     0.013251819
      4342.00       1.2226858     0.013257621
      4346.34       1.2231250     0.013263670
      4350.69       1.2278416     0.013269963
      4355.04       1.2296617     0.013244708
      4359.39       1.2275118     0.013246104
      4363.75       1.2246324     0.013247726
      4368.12       1.2253564     0.013249575
      4372.48       1.2231252     0.013251605
      4376.86       1.2270071     0.013253810
      4381.23       1.2295750     0.013256199
      4385.61       1.2301383     0.013258985
      4390.00       1.2296095     0.013261988
      4394.39       1.2372268     0.013071509
      4398.79       1.2431477     0.013069919
      4403.18       1.2496928     0.013068500
      4407.59       1.2576742     0.013067261
      4412.00       1.2651492     0.013238252
      4416.41       1.2720073     0.013237552
      4420.82       1.2812392     0.013237010
      4425.25       1.2911955     0.013236796
      4429.67       1.2999795     0.013236668
      4434.10       1.3110549     0.013055434
      4438.54       1.3223290     0.013051087
      4442.97       1.3369358     0.013046846
      4447.42       1.3495953     0.013042695
      4451.86       1.3641072     0.013038623
      4456.32       1.3863636     0.013034620
      4460.77       1.4106551     0.013030679
      4465.24       1.4335603     0.013026802
      4469.70       1.4530532     0.013022971
      4474.17       1.4744140     0.013019175
      4478.65       1.4900914     0.013020218
      4483.12       1.5115267     0.013012928
      4487.61       1.5318075     0.013005675
      4492.09       1.5541270     0.012998464
      4496.59       1.5708280     0.012991495
      4501.08       1.5846791     0.012984607
      4505.58       1.6004970     0.012977799
      4510.09       1.6152323     0.012971044
      4514.60       1.6286164     0.012964334
      4519.12       1.6463098     0.012957679
      4523.63       1.6566785     0.012951061
      4528.16       1.6624470     0.012944464
      4532.69       1.6695443     0.012760804
      4537.22       1.6763282     0.012754490
      4541.76       1.6813355     0.012748118
      4546.30       1.6921270     0.012741684
      4550.85       1.7041935     0.012735206
      4555.40       1.7079348     0.012728675
      4559.95       1.7075558     0.012722106
      4564.51       1.7047247     0.012715458
      4569.08       1.7054035     0.012708743
      4573.65       1.7005481     0.012701976
      4578.22       1.6933740     0.012858694
      4582.80       1.6813882     0.012849125
      4587.38       1.6707433     0.012664751
      4591.97       1.6560145     0.012655312
      4596.56       1.6388603     0.012645809
      4601.16       1.6213073     0.012636232
      4605.76       1.6104798     0.012626788
      4610.37       1.6009704     0.012617321
      4614.98       1.5897013     0.012607811
      4619.59       1.5779282     0.012598305
      4624.21       1.5628082     0.012588725
      4628.84       1.5490504     0.012579088
      4633.47       1.5360898     0.012569403
      4638.10       1.5179905     0.012559821
      4642.74       1.5014212     0.012550121
      4647.38       1.4868645     0.012540332
      4652.03       1.4756646     0.012530425
      4656.68       1.4629459     0.012520413
      4661.34       1.4499982     0.012350217
      4666.00       1.4364314     0.012338524
      4670.67       1.4245303     0.012326770
      4675.33       1.4092930     0.012314949
      4680.01       1.3978569     0.012303072
      4684.69       1.3872790     0.012291128
      4689.38       1.3787610     0.012279113
      4694.07       1.3704949     0.012267027
      4698.76       1.3615270     0.012254867
      4703.46       1.3526660     0.012242631
      4708.16       1.3431450     0.012230311
      4712.87       1.3381636     0.012217903
      4717.58       1.3363262     0.012205584
      4722.30       1.3379918     0.012193213
      4727.03       1.3420510     0.012180776
      4731.75       1.3391735     0.012168309
      4736.48       1.3309522     0.012155799
      4741.22       1.3283979     0.012143236
      4745.96       1.3259685     0.012130772
      4750.71       1.3254465     0.012118215
      4755.46       1.3232062     0.012105557
      4760.22       1.3203657     0.011939048
      4764.97       1.3231615     0.011926401
      4769.74       1.3261471     0.011913671
      4774.51       1.3217340     0.011900862
      4779.29       1.3258412     0.011887965
      4784.07       1.3344385     0.011875030
      4788.85       1.3416688     0.011862009
      4793.64       1.3450125     0.011848911
      4798.43       1.3403859     0.011835742
      4803.23       1.3337628     0.011822512
      4808.03       1.3281101     0.011809203
      4812.84       1.3229992     0.011795822
      4817.66       1.3178686     0.011782371
      4822.48       1.3131926     0.011768839
      4827.30       1.3070592     0.011755413
      4832.12       1.3032600     0.011741957
      4836.96       1.3008935     0.011728493
      4841.79       1.2938753     0.011714992
      4846.63       1.2857573     0.011701459
      4851.48       1.2808618     0.011688034
      4856.33       1.2736734     0.011674553
      4861.19       1.2716948     0.011661005
      4866.05       1.2708809     0.011647419
      4870.92       1.2624149     0.011633791
      4875.79       1.2597554     0.011620132
      4880.66       1.2522782     0.011606446
      4885.55       1.2424284     0.011592733
      4890.43       1.2338460     0.011579013
      4895.32       1.2278073     0.011565283
      4900.22       1.2245409     0.011717376
      4905.12       1.2213824     0.011856529
      4910.02       1.2158054     0.012072136
      4914.94       1.2088594     0.012228092
      4919.85       1.1999667     0.012537273
      4924.77       1.1979706     0.011404435
      4929.70       1.1901916     0.011341137
      4934.62       1.1855965     0.011360682
      4939.56       1.1799337     0.011431023
      4944.50       1.1729490     0.011535254
      4949.44       1.1675985     0.011663202
      4954.39       1.1665721     0.011807458
      4959.35       1.1593790     0.011962677
      4964.31       1.1520831     0.012123170
      4969.27       1.1590823     0.012283645
      4974.24       1.1574078     0.012438697
      4979.22       1.1506964     0.012582981
      4984.20       1.1442433     0.012711077
      4989.18       1.1352565     0.012817858
      4994.17       1.1317738     0.012898976
      4999.16       1.1325125     0.012950916
      5004.16       1.1314824     0.012903925
      5009.17       1.1280171     0.012834625
      5014.18       1.1252043     0.012736534
      5019.19       1.1187169     0.012612642
      5024.21       1.1197889     0.012467174
      5029.23       1.1255146     0.012154891
      5034.26       1.1282608     0.011988687
      5039.30       1.1303558     0.011817611
      5044.34       1.1352905     0.011646499
      5049.39       1.1454635     0.011479497
      5054.43       1.1531578     0.011320320
      5059.49       1.1559048     0.011173121
      5064.55       1.1601166     0.011043186
      5069.61       1.1742573     0.010937060
      5074.68       1.1782559     0.010864401
      5079.76       1.1818263     0.010840428
      5084.84       1.1928022     0.010892880
      5089.92       1.2036958     0.011083593
      5095.01       1.2120018     0.011585434
      5100.11       1.2204574     0.011411884
      5105.21       1.2286746     0.011104195
      5110.31       1.2372354     0.010908387
      5115.42       1.2463449     0.010766476
      5120.54       1.2520885     0.010629204
      5125.66       1.2543628     0.010623754
      5130.79       1.2588392     0.010744868
      5135.92       1.2650776     0.010738115
      5141.05       1.2726849     0.010731677
      5146.20       1.2846697     0.010725237
      5151.34       1.2956707     0.010718729
      5156.49       1.3029769     0.010712084
      5161.65       1.3120260     0.010705456
      5166.81       1.3210577     0.010575187
      5171.98       1.3258578     0.010568165
      5177.15       1.3292511     0.010560757
      5182.33       1.3316970     0.010552918
      5187.51       1.3338202     0.010544618
      5192.70       1.3372555     0.010535879
      5197.89       1.3399291     0.010526727
      5203.09       1.3403791     0.010517228
      5208.29       1.3397539     0.010507468
      5213.50       1.3384505     0.010497554
      5218.72       1.3395613     0.010487637
      5223.93       1.3466021     0.010346900
      5229.16       1.3503345     0.010335430
      5234.39       1.3500232     0.010445373
      5239.62       1.3499133     0.010435506
      5244.86       1.3516350     0.010426450
      5250.11       1.3542868     0.010417745
      5255.36       1.3518934     0.010408934
      5260.61       1.3509808     0.010400265
      5265.87       1.3542327     0.010392062
      5271.14       1.3592132     0.010265242
      5276.41       1.3578394     0.010257161
      5281.69       1.3585543     0.010249727
      5286.97       1.3594871     0.010242408
      5292.26       1.3588350     0.010235959
      5297.55       1.3636157     0.010231152
      5302.85       1.3676377     0.010227269
      5308.15       1.3652990     0.010223010
      5313.46       1.3646027     0.010339769
      5318.77       1.3612397     0.010224841
      5324.09       1.3579328     0.010220137
      5329.42       1.3572681     0.010215771
      5334.75       1.3559107     0.010211843
      5340.08       1.3586119     0.010208514
      5345.42       1.3593048     0.010205799
      5350.77       1.3617737     0.010203522
      5356.12       1.3611213     0.010201814
      5361.48       1.3628988     0.010092178
      5366.83       1.3648060     0.010092022
      5372.20       1.3625519     0.010092628
      5377.58       1.3602061     0.010211015
      5382.95       1.3540950     0.010212445
      5388.34       1.3507142     0.010215806
      5393.72       1.3482912     0.010217393
      5399.12       1.3414006     0.010217317
      5404.52       1.3385655     0.010110635
      5409.92       1.3290721     0.010112137
      5415.33       1.3214729     0.010114893
      5420.75       1.3161985     0.010119285
      5426.17       1.3148424     0.010125449
      5431.60       1.3135106     0.010133442
      5437.03       1.3085023     0.010256652
      5442.47       1.3044131     0.010162098
      5447.91       1.2969077     0.010173037
      5453.36       1.2909777     0.010185191
      5458.81       1.2928875     0.010198398
      5464.27       1.2929180     0.010212481
      5469.73       1.2927972     0.010227239
      5475.20       1.2965710     0.010136102
      5480.68       1.2965812     0.010147627
      5486.16       1.2960928     0.010159307
      5491.65       1.2942236     0.010294766
      5497.14       1.2942013     0.010306527
      5502.64       1.2949669     0.010318066
      5508.14       1.2914622     0.010329314
      5513.65       1.2873575     0.010229197
      5519.16       1.2804354     0.010235473
      5524.68       1.2783168     0.010241489
      5530.20       1.2751758     0.010247318
      5535.73       1.2742707     0.010375837
      5541.27       1.2742236     0.010381441
      5546.81       1.2666526     0.010278894
      5552.36       1.2646861     0.010282074
      5557.91       1.2610053     0.010285961
      5563.47       1.2599362     0.010290429
      5569.04       1.2553494     0.010295830
      5574.60       1.2499022     0.010302659
      5580.18       1.2428859     0.010333256
      5585.76       1.2342908     0.010343886
      5591.35       1.2274479     0.010358417
      5596.94       1.2192404     0.010375365
      5602.53       1.2106087     0.010391600
      5608.14       1.2041874     0.010307685
      5613.75       1.1956652     0.010323989
      5619.36       1.1930952     0.010343136
      5624.98       1.1758982     0.010483887
      5630.60       1.1684889     0.010501754
      5636.23       1.1617398     0.010521124
      5641.87       1.1527297     0.010444866
      5647.51       1.1438075     0.010466821
      5653.16       1.1320513     0.010490113
      5658.82       1.1213543     0.010514704
      5664.47       1.1100125     0.010662091
      5670.14       1.1045883     0.010587309
      5675.81       1.1026219     0.010611084
      5681.48       1.0917726     0.010635727
      5687.17       1.0802134     0.010661216
      5692.85       1.0726056     0.010687479
      5698.55       1.0584155     0.010738311
      5704.25       1.0491835     0.010761544
      5709.95       1.0389989     0.010785770
      5715.66       1.0281889     0.010810942
      5721.38       1.0184305     0.010837093
      5727.10       1.0128425     0.010759357
      5732.83       1.0102647     0.010782820
      5738.56      0.99946988     0.010940127
      5744.30      0.99205043     0.010966744
      5750.04      0.98659146     0.010995016
      5755.79      0.98441595     0.010922267
      5761.55      0.97975199     0.010949379
      5767.31      0.96941576     0.010978295
      5773.08      0.96773886     0.011146084
      5778.85      0.97136207     0.011081997
      5784.63      0.97403135     0.011109645
      5790.41      0.97493281     0.011138715
      5796.21      0.97660425     0.011169513
      5802.00      0.97684991     0.011202356
      5807.81      0.97714625     0.011284434
      5813.61      0.97906141     0.011316720
      5819.43      0.98011324     0.011349555
      5825.25      0.98198949     0.011384428
      5831.07      0.98711300     0.011328926
      5836.90      0.98965123     0.011511920
      5842.74      0.98832656     0.011548142
      5848.58      0.98244421     0.011585750
      5854.43      0.98046020     0.011625010
      5860.29      0.97670286     0.011572052
      5866.15      0.97709015     0.011614580
      5872.01      0.97892411     0.011799378
      5877.89      0.97748582     0.011840459
      5883.76      0.97524461     0.011794088
      5889.65      0.97241011     0.011854681
      5895.54      0.96810674     0.011925561
      5901.43      0.96529536     0.012126921
      5907.34      0.96243687     0.012076056
      5913.24      0.95603131     0.012118951
      5919.16      0.95218293     0.012164417
      5925.08      0.94406969     0.012212543
      5931.00      0.93896415     0.012318272
      5936.93      0.93159831     0.012378927
      5942.87      0.92500265     0.012449573
      5948.81      0.91889775     0.012530230
      5954.76      0.91275183     0.012548933
      5960.72      0.90232546     0.012811803
      5966.68      0.89305922     0.012915162
      5972.64      0.88776479     0.013024063
      5978.62      0.88160976     0.013068680
      5984.60      0.87617897     0.013176837
      5990.58      0.86687741     0.013479069
      5996.57      0.86105727     0.013596136
      6002.57      0.86018614     0.013628341
      6008.57      0.85711047     0.013730431
      6014.58      0.85136901     0.013829587
      6020.60      0.84442891     0.014130187
      6026.62      0.84299338     0.014103935
      6032.65      0.84065299     0.014175487
      6038.68      0.84120439     0.014241104
      6044.72      0.84563974     0.014366656
      6050.76      0.85001416     0.014406899
      6056.81      0.85307480     0.014441920
      6062.87      0.85553822     0.014472209
      6068.93      0.85762748     0.014533757
      6075.00      0.85966072     0.014546485
      6081.08      0.86144667     0.014558967
      6087.16      0.86704435     0.014460515
      6093.25      0.87485356     0.014479574
      6099.34      0.88866554     0.014644529
      6105.44      0.89090468     0.014675819
      6111.54      0.89425046     0.014613958
      6117.66      0.89856031     0.014678524
      6123.78      0.91302614     0.014984589
      6129.90      0.91276288     0.014948016
      6136.03      0.91982126     0.014996925
      6142.17      0.92524577     0.015044253
      6148.31      0.92195026     0.015292368
      6154.46      0.91912752     0.015254044
      6160.61      0.91767552     0.015322167
      6166.77      0.91565131     0.015393934
      6172.94      0.90620866     0.015538070
      6179.11      0.90235854     0.015607692
      6185.29      0.89932585     0.015678514
      6191.48      0.89863191     0.015751866
      6197.67      0.89112482     0.015909996
      6203.87      0.88674158     0.016003406
      6210.07      0.88159724     0.016108560
      6216.28      0.87507094     0.016123273
      6222.50      0.86755175     0.016452407
      6228.72      0.86014031     0.016578811
      6234.95      0.84592363     0.016624533
      6241.19      0.83806362     0.016756225
      6247.42      0.82978230     0.017126610
      6253.67      0.83271300     0.017188431
      6259.93      0.83543705     0.017329557
      6266.19      0.83685318     0.017475905
      6272.46      0.84150227     0.017790067
      6278.73      0.84247190     0.017932712
      6285.01      0.84336114     0.018077919
      6291.29      0.84287422     0.018389732
      6297.58      0.84420330     0.018525048
      6303.88      0.84651248     0.018660724
      6310.19      0.84617729     0.018674830
      6316.50      0.85353815     0.019067748
      6322.81      0.85911592     0.019181628
      6329.14      0.86599832     0.019158020
      6335.47      0.86879436     0.019261450
      6341.80      0.87151744     0.019591144
      6348.14      0.87283423     0.019528696
      6354.49      0.87985407     0.019603947
      6360.85      0.88666188     0.019894494
      6367.21      0.89812713     0.019807700
      6373.57      0.90719470     0.019869752
      6379.95      0.92165937     0.019936524
      6386.33      0.93888009     0.020076640
      6392.72      0.94141161     0.020153690
      6399.11      0.94861062     0.020236009
      6405.51      0.96650720     0.020376784
      6411.92      0.97282622     0.020431315
      6418.32      0.97534736     0.020480343
      6424.74      0.97909044     0.020561207
      6431.17      0.98217963     0.020596126
      6437.60      0.98923515     0.020644074
      6444.04      0.98912645     0.020537517
      6450.48      0.99243631     0.020860189
      6456.94      0.99345263     0.020939456
      6463.39      0.99335322     0.020849638
      6469.85      0.98932854     0.021154029
      6476.33      0.99100354     0.021081323
      6482.80      0.98883399     0.021156538
      6489.28       1.0010034     0.021488410
      6495.77       1.0205085     0.021425097
      6502.27       1.0284330     0.021507321
      6508.77       1.0301893     0.021860348
      6515.28       1.0268919     0.021898445
      6521.80       1.0310918     0.022072901
      6528.32       1.0295443     0.022546059
      6534.85       1.0289238     0.022491603
      6541.38       1.0272070     0.022559859
      6547.92       1.0282288     0.022777922
      6554.47       1.0231857     0.022854932
      6561.03       1.0189841     0.022941825
      6567.59       1.0112365     0.022928838
      6574.16       1.0107351     0.023399239
      6580.73       1.0037245     0.023548574
      6587.31      0.99272911     0.023845039
      6593.90      0.98878568     0.024604461
      6600.50      0.98671012     0.024933849
      6607.10      0.98722708     0.025350115
      6613.70      0.99302422     0.026304637
      6620.32      0.98445343     0.026693470
      6626.94      0.98519988     0.027745015
      6633.57      0.97921350     0.028098259
      6640.20      0.95961798     0.028553433
      6646.84      0.92879815     0.029603255
      6653.49      0.89512985     0.029791186
      6660.14      0.87518714     0.030136927
      6666.80      0.84053822     0.030683882
      6673.47      0.81840147     0.030870618
      6680.14      0.79560530     0.031001660
      6686.82      0.76072168     0.031069010
      6693.51      0.75395512     0.031011096
      6700.20      0.76531151     0.030404158
      6706.90      0.76797321     0.030522232
      6713.61      0.75594112     0.029770946
      6720.32      0.75685459     0.029490863
      6727.05      0.75840999     0.029387582
      6733.77      0.76929310     0.028604310
      6740.51      0.76212626     0.028300546
      6747.25      0.74953365     0.027764690
      6754.00      0.75026147     0.027518876
      6760.75      0.74240867     0.027513061
      6767.51      0.73877095     0.027185820
      6774.28      0.73672735     0.027302823
      6781.05      0.75917758     0.027736141
      6787.84      0.77629159     0.027722709
      6794.62      0.78868548     0.027395218
      6801.42      0.78223861     0.027683202
      6808.22      0.77403373     0.027729511
      6815.03      0.76875778     0.027738623
      6821.85      0.76445328     0.027706493
      6828.67      0.74573628     0.027477610
      6835.50      0.74611279     0.027728960
      6842.33      0.75158410     0.027551360
      6849.17      0.75903162     0.027872688
      6856.02      0.77062861     0.027726124
      6862.88      0.77653169     0.027796421
      6869.74      0.77989198     0.028154536
      6876.61      0.77331011     0.028026514
      6883.49      0.76958109     0.028109098
      6890.37      0.76716430     0.028264256
      6897.27      0.75627983     0.028342918
      6904.16      0.72381809     0.028496320
      6911.07      0.71895204     0.028568412
      6917.98      0.71670180     0.028424584
      6924.89      0.72191401     0.028788422
      6931.82      0.72863260     0.028643999
      6938.75      0.72529996     0.029003603
      6945.69      0.72229361     0.029074000
      6952.64      0.73257781     0.028912990
      6959.59      0.75585910     0.029274762
      6966.55      0.76772932     0.029110610
      6973.52      0.75856670     0.029469876
      6980.49      0.75826849     0.029311270
      6987.47      0.77111207     0.029671288
      6994.46      0.77240511     0.029508434
      7001.46      0.77719673     0.029562657
      7008.46      0.77074694     0.029694767
      7015.46      0.77794240     0.029736142
      7022.48      0.80201000     0.029859967
      7029.51      0.81123583     0.029901069
      7036.53      0.81405520     0.029737006
      7043.57      0.82915635     0.030089905
      7050.62      0.84395785     0.029969821
      7057.66      0.85435147     0.030385976
      7064.72      0.84911724     0.030300513
      7071.79      0.82730290     0.030708322
      7078.86      0.82990847     0.030582903
      7085.94      0.83847314     0.030693254
      7093.03      0.84306329     0.030939477
      7100.12      0.84521224     0.031071579
      7107.22      0.86411245     0.031333571
      7114.33      0.88198954     0.031668480
      7121.44      0.88869975     0.032055534
      7128.56      0.89787001     0.031831616
      7135.69      0.90598365     0.031999068
      7142.83      0.90371571     0.032078566
      7149.97      0.90931881     0.031904837
      7157.12      0.93091868     0.032322733
      7164.28      0.94161055     0.032138003
      7171.44      0.94992322     0.032535478
      7178.62      0.94904267     0.032328250
      7185.80      0.95054450     0.032688831
      7192.98      0.95052947     0.032447262
      7200.17      0.95846168     0.032766830
      7207.38      0.95555198     0.032489162
      7214.58      0.94635994     0.032499044
      7221.80      0.93227139     0.032456980
      7229.02      0.94129092     0.032443064
      7236.25      0.93081313     0.032364948
      7243.49      0.91855925     0.032338282
      7250.73      0.90182162     0.032241092
      7257.98      0.89774703     0.032182214
      7265.24      0.88962965     0.032086194
      7272.51      0.87523987     0.032013315
      7279.78      0.86329445     0.031876201
      7287.06      0.86017397     0.031775931
      7294.35      0.84824849     0.031588606
      7301.64      0.83729555     0.031475562
      7308.94      0.82225803     0.031279719
      7316.25      0.80311628     0.030867633
      7323.57      0.78700843     0.031006234
      7330.89      0.77106365     0.030645340
      7338.22      0.75759469     0.030817319
      7345.56      0.74836201     0.030446231
      7352.91      0.72933118     0.030560099
      7360.26      0.71836811     0.030231686
      7367.62      0.70986213     0.030181033
      7374.99      0.69538478     0.030178409
      7382.37      0.68632966     0.030171724
      7389.75      0.67674049     0.030245970
      7397.14      0.66876221     0.030029043
      7404.53      0.66172382     0.030079819
      7411.94      0.66440944     0.029819844
      7419.35      0.66622705     0.030051273
      7426.77      0.66886257     0.029795436
      7434.20      0.67286631     0.030024864
      7441.63      0.67368183     0.029766609
      7449.07      0.67242514     0.029763201
      7456.52      0.66187701     0.029748994
      7463.98      0.64970066     0.029749818
      7471.45      0.64489715     0.029985359
      7478.92      0.65075222     0.029740095
      7486.40      0.64990714     0.029982680
      7493.88      0.65006692     0.029740279
      7501.38      0.65199588     0.029759152
      7508.88      0.65210030     0.029747139
      7516.39      0.65517491     0.029766600
      7523.91      0.65146824     0.029759378
      7531.43      0.66583581     0.029780850
      7538.96      0.67469999     0.029777746
      7546.50      0.67473381     0.029803194
      7554.05      0.67126781     0.029584890
      7561.60      0.67291722     0.029836236
      7569.16      0.66982885     0.029624165
      7576.73      0.67860956     0.029878110
      7584.31      0.67773775     0.029671847
      7591.89      0.68667925     0.029707292
      7599.49      0.68508390     0.029728226
      7607.09      0.67779351     0.029768232
      7614.70      0.68527793     0.030038475
      7622.31      0.72003033     0.029840508
      7629.93      0.72685317     0.029893855
      7637.56      0.71932167     0.029919525
      7645.20      0.72802357     0.029979214
      7652.85      0.74141469     0.030013948
      7660.50      0.73926431     0.030084400
      7668.16      0.72131093     0.029909980
      7675.83      0.72107885     0.030214171
      7683.50      0.73159118     0.030054907
      7691.19      0.73505208     0.030176548
      7698.88      0.72691581     0.030497998
      7706.58      0.72640133     0.030345787
      7714.29      0.73243903     0.030691042
      7722.00      0.72915398     0.030531866
      7729.73      0.71388949     0.030663528
      7737.45      0.70951548     0.030717295
      7745.19      0.70221200     0.030869455
      7752.94      0.69463241     0.031053044
      7760.69      0.69184912     0.031139531
      7768.45      0.69286768     0.031408320
      7776.22      0.69268197     0.031404056
      7784.00      0.68661215     0.031903330
      7791.78      0.69498340     0.031937992
      7799.57      0.69108538     0.032464019
      7807.37      0.68451435     0.032864284
      7815.18      0.68477648     0.032890301
      7822.99      0.70046762     0.033462190
      7830.82      0.70117335     0.033508594
      7838.65      0.68283466     0.033944813
      7846.49      0.66367499     0.034159308
      7854.34      0.65919365     0.034586697
      7862.19      0.66502905     0.035007726
      7870.05      0.65923498     0.035213195
      7877.93      0.67781621     0.035614404
      7885.80      0.68353140     0.035603337
      7893.69      0.69154539     0.036165079
      7901.58      0.68644178     0.036524034
      7909.49      0.69287016     0.036507004
      7917.40      0.71466114     0.037047440
      7925.31      0.70997512     0.037011730
      7933.24      0.68771206     0.037341315
      7941.17      0.68051452     0.037858477
      7949.11      0.69176632     0.037786343
      7957.06      0.69507393     0.038119415
      7965.02      0.67792628     0.038282064
      7972.98      0.67635322     0.038662598
      7980.96      0.70102847     0.039096524
      7988.94      0.70702653     0.039309606
      7996.93      0.66562296     0.039792380
      8004.93      0.64600793     0.040635396
      8012.93      0.64754771     0.041232469
      8020.95      0.65285997     0.042233599
      8028.97      0.64480777     0.042759507
      8036.99      0.63536709     0.043845743
      8045.03      0.63446342     0.045049466
      8053.08      0.62668039     0.046581799
      8061.13      0.63227629     0.048290842
      8069.20      0.63397418     0.050434708
      8077.26      0.62974349     0.052300059
      8085.34      0.62302501     0.055586546
      8093.43      0.62091480     0.060965366
      8101.52      0.61527381     0.066540511
      8109.62      0.59655626     0.073565838
      8117.73      0.58165101     0.080207783
      8125.85      0.57049489     0.091174075
      8133.98      0.54653199      0.10555368
      8142.11      0.52714417      0.12826927
      8150.25      0.53833156      0.15351864
