# starting wavelength =        3020.0688
# ending wavelength =        7249.3711
# O2 telluric scale =        0
# O2 telluric shift =        0
# H2O telluric scale =        0
# H2O telluric shift =        0
      3020.73      0.83271874     0.032883825
      3023.75      0.82793585     0.032636338
      3026.78      0.83097482     0.031982303
      3029.80      0.82725806     0.031568458
      3032.83      0.82342333     0.031416919
      3035.87      0.82156595     0.030879061
      3038.90      0.82039886     0.030475294
      3041.94      0.82501542     0.029991300
      3044.98      0.82214332     0.029941752
      3048.03      0.82013530     0.029545247
      3051.08      0.82076411     0.029136180
      3054.13      0.81853201     0.029132955
      3057.18      0.81897995     0.028902017
      3060.24      0.81503663     0.028518800
      3063.30      0.81254618     0.028304700
      3066.36      0.81432766     0.028453499
      3069.43      0.81499910     0.028076655
      3072.50      0.81694716     0.027867360
      3075.57      0.81765152     0.028017986
      3078.65      0.82109989     0.027647368
      3081.73      0.81991922     0.027443106
      3084.81      0.82694312     0.027246136
      3087.89      0.82700275     0.027231073
      3090.98      0.83754454     0.027031357
      3094.07      0.83617972     0.026838803
      3097.17      0.83614439     0.026499618
      3100.26      0.83060928     0.026632053
      3103.36      0.83405670     0.026444056
      3106.47      0.82926216     0.026115019
      3109.58      0.82670168     0.025927373
      3112.68      0.83367114     0.026061586
      3115.80      0.83451615     0.025742671
      3118.91      0.84127781     0.025559227
      3122.03      0.84567942     0.025691252
      3125.15      0.85291251     0.025518192
      3128.28      0.85921632     0.025203093
      3131.41      0.85614668     0.025030531
      3134.54      0.86383892     0.025164026
      3137.67      0.85943585     0.024859055
      3140.81      0.86510801     0.024690325
      3143.95      0.87111646     0.024527900
      3147.10      0.87301867     0.024526880
      3150.24      0.87405397     0.024361928
      3153.39      0.87852082     0.024203158
      3156.55      0.88073155     0.023910787
      3159.70      0.87978927     0.024045165
      3162.86      0.88256730     0.023889961
      3166.03      0.88481677     0.023601666
      3169.19      0.87998782     0.023458404
      3172.36      0.88109748     0.023588445
      3175.54      0.87348723     0.023303965
      3178.71      0.86772981     0.023164113
      3181.89      0.87473451     0.023029603
      3185.07      0.87091792     0.023155921
      3188.26      0.87414081     0.022880889
      3191.45      0.87860158     0.022749683
      3194.64      0.87955661     0.022623746
      3197.83      0.88053748     0.022608792
      3201.03      0.88946837     0.022480628
      3204.23      0.89467251     0.022357594
      3207.44      0.88938946     0.022101725
      3210.64      0.89341296     0.022222436
      3213.85      0.89522632     0.022102271
      3217.07      0.89439729     0.021987320
      3220.28      0.89354577     0.021736019
      3223.51      0.89383255     0.021857806
      3226.73      0.89110442     0.021745494
      3229.96      0.89295763     0.021503708
      3233.19      0.88869302     0.021391258
      3236.42      0.88896784     0.021514128
      3239.66      0.88557733     0.021281772
      3242.90      0.88572360     0.021172052
      3246.14      0.89097536     0.021067036
      3249.39      0.89289687     0.021190973
      3252.64      0.89053657     0.020963276
      3255.89      0.89443559     0.020860700
      3259.14      0.89502416     0.020762744
      3262.40      0.89204844     0.020539388
      3265.67      0.89759502     0.020664446
      3268.93      0.90361953     0.020568787
      3272.20      0.90113779     0.020477425
      3275.47      0.90294217     0.020260209
      3278.75      0.90302540     0.020384883
      3282.03      0.90624455     0.020295858
      3285.31      0.91080926     0.020080540
      3288.60      0.91372788     0.019999376
      3291.88      0.91633795     0.020124067
      3295.18      0.91101412     0.020041084
      3298.47      0.91813499     0.019831323
      3301.77      0.92001774     0.019756004
      3305.07      0.92670384     0.019684638
      3308.38      0.92942798     0.019672844
      3311.69      0.92979796     0.019599557
      3315.00      0.93516808     0.019529963
      3318.31      0.94104761     0.019464080
      3321.63      0.94447007     0.019452439
      3324.95      0.95292325     0.019384586
      3328.28      0.95853031     0.019320348
      3331.61      0.95789570     0.019130103
      3334.94      0.96345073     0.019065408
      3338.27      0.97061646     0.019185880
      3341.61      0.97352699     0.019126870
      3344.95      0.97874232     0.018941418
      3348.30      0.97545507     0.018881831
      3351.65      0.97437573     0.018825485
      3355.00      0.97858147     0.018948898
      3358.35      0.98629221     0.018768273
      3361.71      0.99281549     0.018713435
      3365.07      0.99897991     0.018661851
      3368.44       1.0030894     0.018663672
      3371.81       1.0057279     0.018610313
      3375.18       1.0133311     0.018560027
      3378.56       1.0156417     0.018512954
      3381.94       1.0206391     0.018339938
      3385.32       1.0205251     0.018466869
      3388.70       1.0211602     0.018420970
      3392.09       1.0308795     0.018378068
      3395.48       1.0348300     0.018208117
      3398.88       1.0423807     0.018170655
      3402.28       1.0471011     0.018295940
      3405.68       1.0504583     0.018257010
      3409.09       1.0557675     0.018089819
      3412.49       1.0665412     0.018056102
      3415.91       1.0741307     0.018025112
      3419.32       1.0781789     0.018149180
      3422.74       1.0835464     0.017984366
      3426.17       1.0879187     0.017954203
      3429.59       1.0961959     0.017926746
      3433.02       1.1011602     0.017770186
      3436.45       1.1062684     0.017741761
      3439.89       1.1167012     0.017864824
      3443.33       1.1238663     0.017840571
      3446.78       1.1308156     0.017688850
      3450.22       1.1388173     0.017663494
      3453.67       1.1407207     0.017640647
      3457.13       1.1416139     0.017766123
      3460.58       1.1463042     0.017619272
      3464.04       1.1509185     0.017596971
      3467.51       1.1493009     0.017577085
      3470.98       1.1455826     0.017559373
      3474.45       1.1492346     0.017561080
      3477.92       1.1537073     0.017541614
      3481.40       1.1535017     0.017524299
      3484.88       1.1543056     0.017509273
      3488.37       1.1518692     0.017496489
      3491.86       1.1567375     0.017353214
      3495.35       1.1619115     0.017482289
      3498.84       1.1619312     0.017469737
      3502.34       1.1650545     0.017459148
      3505.84       1.1697721     0.017316865
      3509.35       1.1796393     0.017309835
      3512.86       1.1859586     0.017304745
      3516.37       1.1841958     0.017431650
      3519.89       1.1953954     0.017290173
      3523.41       1.2011061     0.017285140
      3526.93       1.2034792     0.017281994
      3530.46       1.2082914     0.017280719
      3533.99       1.2119327     0.017272766
      3537.53       1.2213286     0.017269531
      3541.06       1.2211398     0.017268175
      3544.60       1.1931394     0.024371274
      3548.15       1.1890347     0.024389452
      3551.70       1.1879853     0.023997352
      3555.25       1.1885341     0.024349259
      3558.80       1.1923310     0.024359328
      3562.36       1.1951697     0.024375301
      3565.92       1.1902009     0.024397161
      3569.49       1.1960578     0.024009595
      3573.06       1.2048065     0.024017215
      3576.64       1.2139972     0.024376353
      3580.21       1.2259430     0.024395004
      3583.79       1.2460108     0.024419873
      3587.38       1.2664302     0.024039103
      3590.96       1.2745666     0.024049196
      3594.55       1.2833090     0.024409241
      3598.15       1.2861262     0.024429972
      3601.75       1.2965906     0.024456070
      3605.35       1.3045260     0.024083392
      3608.96       1.3087329     0.024095928
      3612.56       1.3289543     0.024112636
      3616.18       1.3408291     0.024478411
      3619.79       1.3463454     0.024505581
      3623.41       1.3546891     0.024142536
      3627.04       1.3600477     0.024155840
      3630.66       1.3663442     0.024173037
      3634.29       1.3670031     0.024195051
      3637.93       1.3614592     0.024565791
      3641.57       1.3548535     0.024214758
      3645.21       1.3402066     0.024228041
      3648.86       1.3361580     0.024245949
      3652.50       1.3260987     0.024267452
      3656.16       1.3123752     0.024293437
      3659.81       1.3021655     0.023930714
      3663.47       1.2855154     0.024311794
      3667.14       1.2754883     0.024328720
      3670.80       1.2571686     0.024349938
      3674.48       1.2252376     0.024374399
      3678.15       1.2073290     0.024008409
      3681.83       1.1856137     0.024039571
      3685.51       1.1713523     0.024422616
      3689.20       1.1567672     0.024441879
      3692.88       1.1405257     0.024464106
      3696.58       1.1231991     0.024490250
      3700.27       1.1105578     0.024122902
      3703.98       1.1004648     0.024155042
      3707.68       1.0818522     0.024190220
      3711.39       1.0726179     0.024562997
      3715.10       1.0634288     0.024585923
      3718.81       1.0512272     0.024213626
      3722.53       1.0420269     0.024242269
      3726.26       1.0285700     0.024273793
      3729.98       1.0162015     0.024308085
      3733.71      0.99748294     0.024345746
      3737.45      0.98988064     0.024710818
      3741.18      0.98900798     0.024335575
      3744.93      0.99394747     0.024363177
      3748.67      0.99415168     0.024393361
      3752.42      0.99167407     0.024425994
      3756.17      0.99965011     0.024461624
      3759.93      0.99533349     0.024499595
      3763.69      0.99063550     0.024137540
      3767.45      0.99803473     0.024483616
      3771.22       1.0018391     0.024511359
      3774.99      0.99675630     0.024541201
      3778.77       1.0010978     0.024573183
      3782.54      0.99991622     0.024607283
      3786.33       1.0059818     0.024255154
      3790.11       1.0178692     0.024277208
      3793.90       1.0496887     0.024300558
      3797.70       1.0607815     0.024650641
      3801.50       1.0875177     0.024678486
      3805.30       1.1056865     0.024708267
      3809.10       1.1202188     0.024739662
      3812.91       1.1459280     0.024385885
      3816.73       1.1684486     0.024404920
      3820.54       1.1785498     0.024425835
      3824.36       1.2165527     0.024447697
      3828.19       1.2409681     0.024799921
      3832.02       1.2628331     0.024825737
      3835.85       1.2768861     0.024488143
      3839.68       1.2963467     0.024502001
      3843.52       1.3146238     0.024516640
      3847.37       1.3324384     0.024532832
      3851.22       1.3391293     0.024550541
      3855.07       1.3548942     0.024568879
      3858.92       1.3695251     0.024588586
      3862.78       1.3779866     0.024590121
      3866.64       1.3827080     0.024598640
      3870.51       1.3868210     0.024608501
      3874.38       1.3903386     0.024618852
      3878.26       1.4018469     0.024630483
      3882.13       1.4116837     0.024642818
      3886.02       1.4226170     0.024655883
      3889.90       1.4270080     0.024299232
      3893.79       1.4292481     0.024313884
      3897.69       1.4228905     0.024329112
      3901.59       1.4182302     0.024681389
      3905.49       1.4069419     0.024686079
      3909.39       1.4046674     0.024691838
      3913.30       1.3956025     0.024698686
      3917.22       1.3939377     0.024705697
      3921.13       1.3825492     0.024344808
      3925.06       1.3620076     0.024353277
      3928.98       1.3580912     0.024362154
      3932.91       1.3555581     0.024371548
      3936.84       1.3578127     0.024381354
      3940.78       1.3630162     0.024719174
      3944.72       1.3610027     0.024719807
      3948.67       1.3413774     0.024720460
      3952.61       1.3418800     0.024355588
      3956.57       1.3345365     0.024357622
      3960.52       1.3351809     0.024359934
      3964.48       1.3353243     0.024362701
      3968.45       1.3376154     0.024365746
      3972.42       1.3268646     0.024369524
      3976.39       1.3253676     0.024373627
      3980.37       1.3134808     0.024377955
      3984.35       1.3084327     0.024019261
      3988.33       1.3072170     0.024331503
      3992.32       1.3004243     0.024327262
      3996.31       1.3015303     0.024323453
      4000.31       1.2967375     0.024319765
      4004.31       1.2883518     0.024316767
      4008.31       1.2959345     0.024313947
      4012.32       1.2897535     0.024310819
      4016.33       1.2826125     0.024308984
      4020.35       1.2734176     0.023962789
      4024.37       1.2716760     0.023951954
      4028.40       1.2765895     0.023941711
      4032.42       1.2779670     0.023931579
      4036.46       1.2769528     0.023921490
      4040.50       1.2739279     0.023911964
      4044.54       1.2686627     0.024221353
      4048.58       1.2636235     0.024212227
      4052.63       1.2546025     0.024203120
      4056.68       1.2441330     0.023876277
      4060.74       1.2354045     0.023860137
      4064.80       1.2360124     0.023844036
      4068.86       1.2230968     0.023828023
      4072.93       1.2189462     0.023812459
      4077.01       1.2116762     0.023796580
      4081.08       1.2063881     0.023781167
      4085.17       1.2140456     0.023765431
      4089.25       1.2134185     0.023750106
      4093.34       1.1934061     0.023734815
      4097.43       1.1892937     0.023719384
      4101.53       1.1843909     0.023381146
      4105.63       1.1796739     0.023366250
      4109.74       1.1875669     0.023351293
      4113.85       1.1812592     0.023662279
      4117.96       1.1796731     0.023641276
      4122.08       1.1723379     0.023620268
      4126.20       1.1655010     0.023599205
      4130.33       1.1479146     0.023578115
      4134.46       1.1440308     0.023557427
      4138.59       1.1474103     0.023536343
      4142.73       1.1477780     0.023515629
      4146.88       1.1457595     0.023494561
      4151.02       1.1457150     0.023156277
      4155.18       1.1605554     0.023135991
      4159.33       1.1588960     0.023115321
      4163.49       1.1494620     0.023094799
      4167.65       1.1474198     0.023074290
      4171.82       1.1452904     0.023053732
      4175.99       1.1418902     0.023033310
      4180.17       1.1361991     0.023012415
      4184.35       1.1375446     0.022991715
      4188.54       1.1394924     0.022970514
      4192.72       1.1363814     0.022949645
      4196.92       1.1367723     0.022928461
      4201.11       1.1344869     0.022907219
      4205.31       1.1317136     0.022579827
      4209.52       1.1277020     0.022554852
      4213.73       1.1250073     0.022529786
      4217.94       1.1210772     0.022504626
      4222.16       1.1237770     0.022771394
      4226.38       1.1258653     0.022745940
      4230.61       1.1221874     0.022720523
      4234.84       1.1244495     0.022695013
      4239.08       1.1201158     0.022669653
      4243.32       1.1126581     0.022643886
      4247.56       1.1100305     0.022618247
      4251.81       1.1023422     0.022592202
      4256.06       1.0929737     0.022566345
      4260.32       1.0952851     0.022540345
      4264.58       1.0810843     0.022514293
      4268.84       1.0721223     0.022488391
      4273.11       1.0635338     0.022462049
      4277.38       1.0564132     0.022164105
      4281.66       1.0474244     0.022135509
      4285.94       1.0357870     0.022107266
      4290.23       1.0299215     0.022078684
      4294.52       1.0252854     0.022050366
      4298.81       1.0190552     0.022022034
      4303.11       1.0160726     0.021993601
      4307.42       1.0087197     0.021965155
      4311.72       1.0022095     0.021936604
      4316.04      0.99529230     0.021908033
      4320.35      0.98692003     0.021879367
      4324.67      0.97521943     0.021850996
      4329.00      0.97613778     0.021822595
      4333.33      0.97559918     0.021794102
      4337.66      0.98305719     0.021765584
      4342.00      0.96818295     0.021736991
      4346.34      0.97045026     0.021708717
      4350.69      0.97254121     0.021680111
      4355.04      0.97764403     0.021651834
      4359.39      0.97601236     0.021623520
      4363.75      0.98256494     0.021595159
      4368.12      0.97544545     0.021566780
      4372.48      0.98707430     0.021538365
      4376.86      0.99611771     0.021510273
      4381.23       1.0226078     0.021481891
      4385.61       1.0296547     0.021453876
      4390.00       1.0459663     0.021156340
      4394.39       1.0609123     0.021128466
      4398.79       1.0721692     0.021101004
      4403.18       1.0861159     0.021073163
      4407.59       1.0945503     0.021045743
      4412.00       1.1137474     0.021018377
      4416.41       1.1343834     0.020990994
      4420.82       1.1605167     0.020964052
      4425.25       1.1692002     0.020936763
      4429.67       1.1846732     0.020909924
      4434.10       1.2016850     0.020882757
      4438.54       1.2217978     0.020856060
      4442.97       1.2509605     0.020573254
      4447.42       1.2670667     0.020547236
      4451.86       1.2855486     0.020521356
      4456.32       1.3005048     0.020495593
      4460.77       1.3241077     0.020469913
      4465.24       1.3382780     0.020445123
      4469.70       1.3646345     0.020419019
      4474.17       1.3878724     0.020394092
      4478.65       1.3986818     0.020369330
      4483.12       1.4184432     0.020344721
      4487.61       1.4393911     0.020320309
      4492.09       1.4628221     0.020296060
      4496.59       1.4872723     0.020272015
      4501.08       1.5083716     0.020248182
      4505.58       1.5179465     0.020224876
      4510.09       1.5303340     0.020201790
      4514.60       1.5341930     0.020178952
      4519.12       1.5521690     0.020156368
      4523.63       1.5597927     0.020134043
      4528.16       1.5685199     0.020111981
      4532.69       1.5779881     0.020090225
      4537.22       1.5954713     0.020069070
      4541.76       1.5981716     0.020048207
      4546.30       1.6160517     0.020027680
      4550.85       1.6279983     0.020007452
      4555.40       1.6348333     0.019987608
      4559.95       1.6253505     0.019714174
      4564.51       1.6145775     0.019693557
      4569.08       1.6053846     0.019673495
      4573.65       1.6024131     0.019653565
      4578.22       1.5907854     0.019634187
      4582.80       1.5760770     0.019614965
      4587.38       1.5688237     0.019596344
      4591.97       1.5584961     0.019578116
      4596.56       1.5397486     0.019560264
      4601.16       1.5096964     0.019543043
      4605.76       1.4855668     0.019526189
      4610.37       1.4656490     0.019510410
      4614.98       1.4451273     0.019495792
      4619.59       1.4375978     0.019482505
      4624.21       1.4293064     0.019469301
      4628.84       1.4059143     0.019696582
      4633.47       1.4004439     0.019454884
      4638.10       1.3930875     0.019439308
      4642.74       1.3821560     0.019425446
      4647.38       1.3739580     0.019412496
      4652.03       1.3599503     0.019399740
      4656.68       1.3523337     0.019389058
      4661.34       1.3451202     0.019381933
      4666.00       1.3306520     0.019376082
      4670.67       1.3206921     0.019370110
      4675.33       1.3071419     0.019364594
      4680.01       1.2887907     0.019360883
      4684.69       1.2731048     0.019358741
      4689.38       1.2599847     0.019357744
      4694.07       1.2416014     0.019141586
      4698.76       1.2301354     0.019142299
      4703.46       1.2289594     0.019143507
      4708.16       1.2263717     0.019145005
      4712.87       1.2230448     0.019146947
      4717.58       1.2176893     0.019148846
      4722.30       1.2095590     0.019151093
      4727.03       1.2049144     0.019153279
      4731.75       1.1984439     0.019155285
      4736.48       1.1804566     0.019156896
      4741.22       1.1732692     0.019158100
      4745.96       1.1449812     0.019155282
      4750.71       1.1408629     0.019150661
      4755.46       1.1344425     0.019145649
      4760.22       1.1209503     0.019140323
      4764.97       1.1156483     0.019134936
      4769.74       1.1127808     0.019129678
      4774.51       1.1031622     0.019125065
      4779.29       1.0842159     0.019121225
      4784.07       1.0727223     0.019118570
      4788.85       1.0704511     0.019117470
      4793.64       1.0763136     0.018898176
      4798.43       1.0752489     0.018896914
      4803.23       1.0831580     0.018896291
      4808.03       1.0777097     0.018895388
      4812.84       1.0716668     0.018895052
      4817.66       1.0689285     0.018895400
      4822.48       1.0672262     0.019127646
      4827.30       1.0684659     0.019132584
      4832.12       1.0617729     0.019137931
      4836.96       1.0451738     0.018940857
      4841.79       1.0404440     0.018946730
      4846.63       1.0268811     0.018954153
      4851.48       1.0110695     0.018961076
      4856.33       1.0030130     0.018967523
      4861.19      0.99171129     0.018976335
      4866.05      0.97915931     0.018986982
      4870.92      0.96811255     0.018998793
      4875.79      0.95385842     0.018815523
      4880.66      0.94183376     0.018829084
      4885.55      0.93510210     0.019072889
      4890.43      0.93457061     0.019083140
      4895.32      0.92302299     0.019094358
      4900.22      0.91331018     0.019106679
      4905.12      0.90920905     0.019120450
      4910.02      0.90626796     0.019135160
      4914.94      0.90106578     0.018956965
      4919.85      0.89223534     0.018978210
      4924.77      0.88837083     0.019004115
      4929.70      0.88689053     0.019027313
      4934.62      0.88307419     0.019046500
      4939.56      0.88902924     0.019285763
      4944.50      0.88944965     0.019301002
      4949.44      0.88193258     0.019122414
      4954.39      0.87752368     0.019142487
      4959.35      0.87701483     0.019165385
      4964.31      0.87817123     0.019191644
      4969.27      0.87988679     0.019221131
      4974.24      0.88676170     0.019253757
      4979.22      0.89484563     0.019289368
      4984.20      0.89454629     0.019129339
      4989.18      0.90446246     0.019398908
      4994.17      0.91814821     0.019435081
      4999.16      0.91998800     0.019472296
      5004.16      0.93265881     0.019510210
      5009.17      0.93744598     0.019548769
      5014.18      0.94821369     0.019392144
      5019.19      0.95673177     0.019421787
      5024.21      0.95864721     0.019450887
      5029.23      0.96347434     0.019479356
      5034.26      0.97702723     0.019749512
      5039.30      0.97116678     0.019776243
      5044.34      0.97219299     0.019801613
      5049.39      0.98461625     0.019618200
      5054.43      0.98987255     0.019633156
      5059.49      0.99346138     0.019647419
      5064.55       1.0013967     0.019661523
      5069.61       1.0102687     0.019675537
      5074.68       1.0186411     0.019926761
      5079.76       1.0230823     0.019738363
      5084.84       1.0291108     0.019746725
      5089.92       1.0306952     0.019756097
      5095.01       1.0400899     0.019767647
      5100.11       1.0513727     0.019781914
      5105.21       1.0631526     0.019611690
      5110.31       1.0682862     0.019638115
      5115.42       1.0737900     0.019907697
      5120.54       1.0833631     0.019934350
      5125.66       1.0925169     0.019955731
      5130.79       1.1034874     0.019978347
      5135.92       1.1029710     0.019817563
      5141.05       1.1089870     0.019848389
      5146.20       1.1149142     0.019880673
      5151.34       1.1258010     0.020145250
      5156.49       1.1421470     0.020174263
      5161.65       1.1583526     0.020013551
      5166.81       1.1652158     0.020045879
      5171.98       1.1812008     0.020079641
      5177.15       1.1923794     0.020115206
      5182.33       1.1953513     0.020151922
      5187.51       1.2140546     0.020221548
      5192.70       1.2233038     0.020251708
      5197.89       1.2293471     0.020282855
      5203.09       1.2391765     0.020314481
      5208.29       1.2373506     0.020347092
      5213.50       1.2434940     0.020173824
      5218.72       1.2425794     0.020198275
      5223.93       1.2514416     0.020462046
      5229.16       1.2491235     0.020488335
      5234.39       1.2465277     0.020515445
      5239.62       1.2539584     0.020337731
      5244.86       1.2572472     0.020358472
      5250.11       1.2565985     0.020380757
      5255.36       1.2562361     0.020644301
      5260.61       1.2582135     0.020671321
      5265.87       1.2570073     0.020496764
      5271.14       1.2540994     0.020519432
      5276.41       1.2485464     0.020544259
      5281.69       1.2415963     0.020571083
      5286.97       1.2377773     0.020645843
      5292.26       1.2465484     0.020664274
      5297.55       1.2531991     0.020684822
      5302.85       1.2541701     0.020707916
      5308.15       1.2543393     0.020734432
      5313.46       1.2473551     0.020814716
      5318.77       1.2478447     0.020834449
      5324.09       1.2442845     0.020855974
      5329.42       1.2454718     0.020881156
      5334.75       1.2455579     0.020717794
      5340.08       1.2447817     0.020748326
      5345.42       1.2462320     0.021011250
      5350.77       1.2482508     0.021034634
      5356.12       1.2546444     0.020866494
      5361.48       1.2656081     0.020893418
      5366.83       1.2666084     0.020922412
      5372.20       1.2715724     0.021181925
      5377.58       1.2786942     0.021205649
      5382.95       1.2762097     0.021061505
      5388.34       1.2768544     0.021134388
      5393.72       1.2847605     0.021207589
      5399.12       1.2846166     0.021463840
      5404.52       1.2802560     0.021281519
      5409.92       1.2813785     0.021299759
      5415.33       1.2772838     0.021320452
      5420.75       1.2793912     0.021346850
      5426.17       1.2735413     0.021418732
      5431.60       1.2720746     0.021471375
      5437.03       1.2631251     0.021540946
      5442.47       1.2608549     0.021626851
      5447.91       1.2657262     0.021573222
      5453.36       1.2530653     0.021934371
      5458.81       1.2466703     0.022048493
      5464.27       1.2404634     0.022025467
      5469.73       1.2320219     0.022133218
      5475.20       1.2231082     0.022244017
      5480.68       1.2141959     0.022641411
      5486.16       1.1995335     0.022585233
      5491.65       1.1884736     0.022672631
      5497.14       1.1830007     0.022752450
      5502.64       1.1714407     0.023115438
      5508.14       1.1601400     0.022947282
      5513.65       1.1504159     0.022973702
      5519.16       1.1458803     0.022988280
      5524.68       1.1381556     0.022992666
      5530.20       1.1362115     0.022983249
      5535.73       1.1294146     0.022946207
      5541.27       1.1227237     0.022901260
      5546.81       1.1153198     0.022616824
      5552.36       1.1076351     0.022746385
      5557.91       1.0957187     0.022673127
      5563.47       1.0877655     0.022601524
      5569.04       1.0905346     0.022315851
      5574.60       1.0898138     0.022258222
      5580.18       1.0770614     0.022378423
      5585.76       1.0745179     0.022131752
      5591.35       1.0607191     0.022118616
      5596.94       1.0573667     0.022131845
      5602.53       1.0613918     0.022426178
      5608.14       1.0564646     0.022190146
      5613.75       1.0463934     0.022159669
      5619.36       1.0423742     0.022148288
      5624.98       1.0447034     0.022160068
      5630.60       1.0430057     0.022160775
      5636.23       1.0387281     0.022163920
      5641.87       1.0387045     0.021945987
      5647.51       1.0376274     0.022161158
      5653.16       1.0366158     0.022152770
      5658.82       1.0333762     0.022142462
      5664.47       1.0289793     0.021909578
      5670.14       1.0152099     0.018711173
      5675.81       1.0121166     0.018732083
      5681.48       1.0104011     0.018650201
      5687.17       1.0091398     0.018671188
      5692.85       1.0020666     0.018832589
      5698.55       1.0062438     0.018764818
      5704.25       1.0082222     0.018798506
      5709.95       1.0069585     0.018835916
      5715.66      0.99893424     0.018921972
      5721.38      0.98985321     0.018959633
      5727.10      0.98630056     0.018999867
      5732.83      0.98723788     0.018931337
      5738.56      0.98649454     0.019131995
      5744.30      0.98393840     0.019173941
      5750.04      0.98070364     0.019099086
      5755.79      0.97344077     0.019296515
      5761.55      0.96446522     0.019325803
      5767.31      0.96384705     0.019229581
      5773.08      0.96073458     0.019254426
      5778.85      0.96179053     0.019423064
      5784.63      0.95058106     0.019305518
      5790.41      0.94605304     0.019314756
      5796.21      0.93235746     0.019322467
      5802.00      0.92032227     0.019322298
      5807.81      0.90566288     0.019316466
      5813.61      0.89192280     0.019163526
      5819.43      0.88386001     0.019278949
      5825.25      0.87818051     0.019259302
      5831.07      0.86649048     0.019089651
      5836.90      0.86078908     0.019062196
      5842.74      0.84908099     0.019158873
      5848.58      0.83365071     0.018981224
      5854.43      0.82529273     0.018948493
      5860.29      0.81921285     0.019038495
      5866.15      0.80643723     0.018864483
      5872.01      0.80674449     0.018834720
      5877.89      0.80400785     0.018809091
      5883.76      0.79847527     0.018774141
      5889.65      0.79640288     0.018756985
      5895.54      0.79959856     0.018625598
      5901.43      0.79599197     0.018749772
      5907.34      0.79069769     0.018771241
      5913.24      0.78476448     0.018797925
      5919.16      0.78059216     0.018866513
      5925.08      0.77332565     0.018981685
      5931.00      0.76403969     0.018895245
      5936.93      0.76138844     0.018894194
      5942.87      0.76700873     0.018888337
      5948.81      0.76693301     0.018866082
      5954.76      0.76217294     0.018830550
      5960.72      0.76315862     0.018739449
      5966.68      0.75673407     0.018712026
      5972.64      0.74806203     0.018606576
      5978.62      0.74594117     0.018778083
      5984.60      0.75211225     0.018844620
      5990.58      0.75392373     0.018897031
      5996.57      0.74950733     0.019138644
      6002.57      0.74882266     0.019258094
      6008.57      0.74818358     0.019389782
      6014.58      0.74556668     0.019530044
      6020.60      0.74361762     0.019829202
      6026.62      0.74453139     0.019977976
      6032.65      0.74439290     0.020064932
      6038.68      0.73411600     0.020457344
      6044.72      0.72828193     0.020616122
      6050.76      0.72159778     0.020689456
      6056.81      0.72948500     0.021086424
      6062.87      0.71456450     0.021126333
      6068.93      0.71121710     0.021258690
      6075.00      0.69558169     0.021623328
      6081.08      0.69058746     0.021605263
      6087.16      0.68930092     0.021701534
      6093.25      0.68807456     0.021856260
      6099.34      0.69441378     0.021915061
      6105.44      0.69476566     0.021794614
      6111.54      0.68789401     0.022012599
      6117.66      0.67433504     0.022018818
      6123.78      0.66976614     0.021992174
      6129.90      0.66391147     0.021958985
      6136.03      0.66739684     0.021706493
      6142.17      0.66872588     0.021797012
      6148.31      0.67695893     0.021510015
      6154.46      0.68064320     0.021423202
      6160.61      0.67403617     0.021453979
      6166.77      0.66752354     0.021142092
      6172.94      0.66460640     0.021037451
      6179.11      0.64880660     0.020836001
      6185.29      0.64195366     0.020730601
      6191.48      0.63255100     0.020510486
      6197.67      0.62522515     0.020453284
      6203.87      0.62050522     0.020367629
      6210.07      0.61975772     0.020235223
      6216.28      0.62241696     0.020179961
      6222.50      0.62921831     0.020045776
      6228.72      0.62794934     0.020148900
      6234.95      0.62765025     0.020093692
      6241.19      0.62330794     0.020184879
      6247.42      0.62412823     0.020541891
      6253.67      0.62469368     0.020731911
      6259.93      0.62052502     0.020761403
      6266.19      0.62248655     0.020814066
      6272.46      0.62921565     0.020824123
      6278.73      0.64395676     0.020893096
      6285.01      0.64727029     0.020904702
      6291.29      0.65110072     0.020827524
      6297.58      0.65469567     0.020923698
      6303.88      0.65518110     0.020861799
      6310.19      0.65644614     0.021024254
      6316.50      0.65435501     0.020990934
      6322.81      0.65454342     0.021047902
      6329.14      0.65460923     0.021194320
      6335.47      0.65129985     0.021266025
      6341.80      0.65238292     0.021265554
      6348.14      0.65190835     0.021513737
      6354.49      0.65416093     0.021516126
      6360.85      0.65956916     0.021767472
      6367.21      0.66481849     0.021761498
      6373.57      0.66633807     0.021843319
      6379.95      0.66461514     0.022095865
      6386.33      0.66856801     0.022089394
      6392.72      0.67356716     0.022356475
      6399.11      0.68575494     0.022382132
      6405.51      0.69588977     0.022676739
      6411.92      0.70658356     0.022700245
      6418.32      0.72186777     0.022805290
      6424.74      0.75121391     0.023025613
      6431.17      0.77374389     0.023144196
      6437.60      0.79383390     0.023396849
      6444.04      0.80696543     0.023530497
      6450.48      0.81427334     0.023601971
      6456.94      0.82814737     0.023947773
      6463.39      0.83259032     0.024028510
      6469.85      0.84415073     0.024392193
      6476.33      0.85830204     0.024485835
      6482.80      0.87647945     0.024864501
      6489.28      0.88745506     0.024962759
      6495.77      0.89277973     0.025121810
      6502.27      0.90003355     0.025452410
      6508.77      0.89878531     0.025613550
      6515.28      0.89144338     0.025950647
      6521.80      0.89386963     0.026029138
      6528.32      0.88517692     0.026453414
      6534.85      0.87685063     0.026528666
      6541.38      0.86847430     0.026697275
      6547.92      0.86474296     0.027031427
      6554.47      0.86314966     0.027193527
      6561.03      0.86565279     0.027507477
      6567.59      0.86820418     0.027661098
      6574.16      0.88101425     0.027963706
      6580.73      0.88164775     0.028109476
      6587.31      0.87706697     0.028391404
      6593.90      0.87055892     0.028524109
      6600.50      0.86335399     0.028532170
      6607.10      0.85328170     0.028900654
      6613.70      0.84933795     0.028889843
      6620.32      0.83025877     0.029242685
      6626.94      0.81822362     0.029215381
      6633.57      0.81828622     0.029428053
      6640.20      0.80382312     0.029522986
      6646.84      0.78556594     0.029731119
      6653.49      0.77483030     0.029825126
      6660.14      0.75611394     0.030035991
      6666.80      0.73920946     0.030134256
      6673.47      0.72692284     0.030127190
      6680.14      0.70690291     0.030470807
      6686.82      0.69850124     0.030474577
      6693.51      0.68936475     0.030726559
      6700.20      0.67259336     0.030852797
      6706.90      0.66736047     0.031102947
      6713.61      0.66120341     0.031225077
      6720.32      0.64024917     0.031452812
      6727.05      0.63163690     0.031560597
      6733.77      0.62209059     0.031778412
      6740.51      0.61268177     0.031892085
      6747.25      0.60836092     0.032124929
      6754.00      0.60324354     0.032130806
      6760.75      0.59855432     0.032540801
      6767.51      0.59596706     0.032575257
      6774.28      0.59503904     0.032949304
      6781.05      0.59916024     0.032930838
      6787.84      0.60051790     0.033184882
      6794.62      0.59713036     0.033321248
      6801.42      0.59373519     0.033627872
      6808.22      0.58170332     0.033773733
      6815.03      0.56593659     0.034075535
      6821.85      0.55785794     0.034208071
      6828.67      0.56362365     0.034490492
      6835.50      0.56027103     0.034498552
      6842.33      0.56541894     0.034917120
      6849.17      0.56584268     0.034924746
      6856.02      0.57226367     0.035333508
      6862.88      0.56982430     0.035337901
      6869.74      0.55197931     0.035618031
      6876.61      0.55324389     0.035757832
      6883.49      0.53974917     0.036037891
      6890.37      0.53220787     0.036177329
      6897.27      0.53275843     0.036453812
      6904.16      0.52955421     0.036451452
      6911.07      0.51807580     0.036869325
      6917.98      0.52140111     0.036861367
      6924.89      0.52635356     0.037280212
      6931.82      0.52366597     0.037264701
      6938.75      0.54475706     0.037539283
      6945.69      0.55207787     0.037668066
      6952.64      0.55539385     0.037941965
      6959.59      0.55870225     0.037935903
      6966.55      0.56144215     0.038356242
      6973.52      0.54239851     0.038648468
      6980.49      0.53605128     0.038780544
      6987.47      0.53152881     0.039063026
      6994.46      0.53102908     0.039062607
      7001.46      0.52565198     0.039467780
      7008.46      0.54270391     0.039437952
      7015.46      0.54579756     0.039673573
      7022.48      0.54196592     0.039784951
      7029.51      0.53631553     0.039995565
      7036.53      0.52875808     0.040104658
      7043.57      0.52384181     0.040339533
      7050.62      0.52196331     0.040328985
      7057.66      0.52596083     0.040773489
      7064.72      0.53983338     0.041093500
      7071.79      0.54432997     0.041118643
      7078.86      0.54186896     0.041578165
      7085.94      0.52888389     0.041599428
      7093.03      0.52689099     0.041933630
      7100.12      0.52261755     0.042097834
      7107.22      0.49894087     0.042461475
      7114.33      0.50317784     0.042826062
      7121.44      0.50007136     0.042997643
      7128.56      0.49798151     0.043366143
      7135.69      0.49048140     0.043383127
      7142.83      0.48110238     0.043904860
      7149.97      0.47500404     0.043903166
      7157.12      0.48459337     0.044238580
      7164.28      0.47841696     0.044409570
      7171.44      0.47020696     0.044756269
      7178.62      0.44502593     0.045104595
      7185.80      0.44639834     0.045276812
      7192.98      0.44002848     0.045616678
      7200.17      0.43622000     0.045603785
      7207.38      0.44812576     0.046082553
      7214.58      0.47214991     0.046784117
      7221.80      0.47182515     0.047163943
      7229.02      0.45624873     0.047917095
      7236.25      0.44943246     0.048422903
      7243.49      0.44186463     0.049266723
