# starting wavelength =        2922.4200
# ending wavelength =        7359.7000
# O2 telluric scale =        0
# O2 telluric shift =        0
# H2O telluric scale =        0
# H2O telluric shift =        0
      2922.72       1.3694178     0.072863368
      2925.64       1.3631665     0.062792920
      2928.57       1.3600082     0.047515109
      2931.50       1.3483033     0.045644672
      2934.43       1.3362268     0.040167745
      2937.36       1.3231112     0.032890150
      2940.30       1.3061937     0.032173583
      2943.24       1.2949072     0.029411798
      2946.18       1.3161137     0.026019966
      2949.13       1.3028649     0.025573289
      2952.08       1.2973039     0.024288635
      2955.03       1.3082220     0.022646934
      2957.99       1.3036177     0.022120551
      2960.94       1.3049632     0.021658778
      2963.90       1.3034480     0.020768929
      2966.87       1.2978075     0.020575947
      2969.84       1.2853984     0.020112859
      2972.81       1.2858963     0.019560615
      2975.78       1.2790353     0.019531689
      2978.76       1.2753281     0.019427595
      2981.73       1.2665559     0.018986682
      2984.72       1.2593914     0.019316288
      2987.70       1.2422521     0.019212795
      2990.69       1.2344512     0.019226682
      2993.68       1.2249304     0.019106558
      2996.67       1.2179310     0.019004693
      2999.67       1.2094799     0.019333952
      3002.67       1.2007637     0.018903684
      3005.67       1.1890543     0.018803028
      3008.68       1.1846361     0.019127270
      3011.69       1.1702912     0.018707451
      3014.70       1.1550465     0.018607615
      3017.71       1.1466253     0.018926687
      3020.73       1.1251241     0.018863357
      3023.75       1.1120364     0.018418376
      3026.78       1.0976288     0.018732071
      3029.80       1.0852142     0.018668093
      3032.83       1.0772287     0.018235282
      3035.87       1.0645932     0.018543509
      3038.90       1.0663984     0.018478535
      3041.94       1.0536049     0.018432440
      3044.98       1.0494742     0.018361034
      3048.03       1.0443273     0.018294817
      3051.08       1.0569886     0.018654036
      3054.13       1.0501147     0.018567116
      3057.18       1.0615204     0.018117174
      3060.24       1.0742720     0.018482990
      3063.30       1.0689538     0.018394562
      3066.36       1.0730616     0.017945791
      3069.43       1.0767381     0.018319073
      3072.50       1.0885733     0.018228949
      3075.57       1.0967878     0.018158267
      3078.65       1.1034801     0.018162627
      3081.73       1.1108332     0.018070645
      3084.81       1.1245185     0.017997761
      3087.89       1.1308664     0.018351489
      3090.98       1.1399255     0.017920062
      3094.07       1.1641530     0.017843371
      3097.17       1.1719592     0.018188458
      3100.26       1.1779397     0.018149748
      3103.36       1.1878858     0.017696788
      3106.47       1.1899956     0.018033437
      3109.58       1.1992324     0.017990325
      3112.68       1.1943372     0.017557910
      3115.80       1.1980923     0.017886367
      3118.91       1.2067999     0.017838614
      3122.03       1.2024128     0.017810174
      3125.15       1.2007167     0.017747215
      3128.28       1.1940100     0.017694604
      3131.41       1.1814653     0.017660642
      3134.54       1.1782090     0.018037795
      3137.67       1.1741352     0.017558446
      3140.81       1.1452403     0.017518860
      3143.95       1.1402352     0.017913208
      3147.10       1.1441407     0.017849863
      3150.24       1.1430585     0.017385141
      3153.39       1.1356759     0.017797757
      3156.55       1.1256745     0.017728309
      3159.70       1.1241643     0.017676766
      3162.86       1.1191801     0.017691990
      3166.03       1.1211081     0.017616249
      3169.19       1.1072791     0.017558154
      3172.36       1.1099939     0.017939313
      3175.54       1.1138936     0.017921949
      3178.71       1.1050921     0.017449651
      3181.89       1.1004014     0.017403965
      3185.07       1.1026949     0.017792525
      3188.26       1.1020245     0.017786379
      3191.45       1.0936569     0.017298501
      3194.64       1.0961411     0.017673409
      3197.83       1.0805345     0.017657235
      3201.03       1.0687547     0.017662800
      3204.23       1.0663653     0.017565917
      3207.44       1.0742906     0.017539819
      3210.64       1.0612132     0.017534376
      3213.85       1.0507771     0.017950147
      3217.07       1.0531034     0.017434544
      3220.28       1.0483449     0.017417726
      3223.51       1.0464190     0.017865620
      3226.73       1.0379849     0.017819568
      3229.96       1.0492754     0.017792900
      3233.19       1.0508117     0.017796488
      3236.42       1.0593113     0.017739328
      3239.66       1.0649454     0.017701028
      3242.90       1.0684328     0.017683545
      3246.14       1.0697323     0.017674191
      3249.39       1.0718408     0.017623921
      3252.64       1.0682947     0.017594065
      3255.89       1.0733993     0.018035212
      3259.14       1.0659003     0.018050834
      3262.40       1.0723342     0.017519859
      3265.67       1.0770310     0.017941292
      3268.93       1.0839757     0.017939815
      3272.20       1.0778664     0.017961290
      3275.47       1.0776955     0.017865818
      3278.75       1.0716411     0.017847907
      3282.03       1.0846977     0.017851978
      3285.31       1.0920068     0.017878755
      3288.60       1.0868977     0.018339115
      3291.88       1.0857824     0.017763533
      3295.18       1.0878983     0.017772532
      3298.47       1.0816116     0.018288913
      3301.77       1.0779988     0.018259013
      3305.07       1.0829294     0.018251718
      3308.38       1.0821649     0.018261756
      3311.69       1.0849292     0.018213143
      3315.00       1.0783193     0.018186639
      3318.31       1.0794407     0.018182029
      3321.63       1.0729950     0.018715695
      3324.95       1.0691339     0.018146645
      3328.28       1.0696137     0.018122578
      3331.61       1.0664273     0.018624144
      3334.94       1.0741693     0.018650028
      3338.27       1.0660144     0.018704328
      3341.61       1.0642014     0.018564092
      3344.95       1.0507288     0.018564695
      3348.30       1.0483238     0.018591100
      3351.65       1.0495232     0.018644243
      3355.00       1.0464448     0.019198027
      3358.35       1.0512180     0.018514038
      3361.71       1.0535968     0.018538597
      3365.07       1.0567668     0.019184380
      3368.44       1.0664842     0.019155247
      3371.81       1.0855425     0.019154669
      3375.18       1.0934700     0.018491105
      3378.56       1.1003846     0.019152563
      3381.94       1.1089643     0.019121832
      3385.32       1.1200249     0.019115031
      3388.70       1.1266904     0.018448858
      3392.09       1.1269251     0.018490031
      3395.48       1.1384190     0.019096009
      3398.88       1.1389644     0.019086915
      3402.28       1.1421222     0.018415287
      3405.68       1.1447679     0.018451121
      3409.09       1.1449516     0.019083698
      3412.49       1.1587498     0.019067133
      3415.91       1.1626556     0.019074754
      3419.32       1.1631247     0.018417263
      3422.74       1.1653466     0.018468975
      3426.17       1.1736755     0.019057654
      3429.59       1.1935618     0.019057208
      3433.02       1.2013614     0.018392765
      3436.45       1.2099025     0.018433940
      3439.89       1.2162184     0.019059788
      3443.33       1.2267722     0.019050273
      3446.78       1.2321719     0.018375898
      3450.22       1.2449342     0.018407890
      3453.67       1.2552791     0.018461347
      3457.13       1.2579719     0.019055092
      3460.58       1.2583258     0.019056902
      3464.04       1.2765064     0.018392493
      3467.51       1.2867861     0.018434758
      3470.98       1.3024696     0.018497711
      3474.45       1.3139255     0.019066032
      3477.92       1.3235493     0.018388208
      3481.40       1.3330283     0.018417848
      3484.88       1.3419959     0.018467448
      3488.37       1.3608215     0.018537438
      3491.86       1.3787902     0.019085877
      3495.35       1.3823545     0.018412693
      3498.84       1.3894601     0.018448116
      3502.34       1.3908904     0.018503174
      3505.84       1.3867454     0.018578369
      3509.35       1.3927493     0.018421433
      3512.86       1.3942183     0.018444210
      3516.37       1.4088433     0.018484919
      3519.89       1.4063703     0.018542650
      3523.41       1.3876079     0.018621570
      3526.93       1.3891083     0.018456646
      3530.46       1.4063330     0.018480781
      3533.99       1.3982014     0.018523407
      3537.53       1.3943121     0.018582429
      3541.06       1.4003898     0.018661026
      3544.60       1.4017488     0.018495108
      3548.15       1.4076371     0.018520808
      3551.70       1.4176472     0.018563072
      3555.25       1.4179825     0.018622583
      3558.80       1.4160601     0.018700198
      3562.36       1.4149154     0.018057090
      3565.92       1.4200285     0.018565092
      3569.49       1.4137738     0.018605438
      3573.06       1.4190316     0.018661858
      3576.64       1.4370123     0.018735392
      3580.21       1.4423136     0.018104817
      3583.79       1.4540286     0.018609927
      3587.38       1.4504451     0.018646691
      3590.96       1.4555443     0.018698360
      3594.55       1.4810721     0.018766635
      3598.15       1.4924706     0.018155662
      3601.75       1.5044923     0.018171273
      3605.35       1.5128596     0.018689996
      3608.96       1.5271270     0.018736954
      3612.56       1.5321494     0.018797560
      3616.18       1.5314569     0.018212673
      3619.79       1.5366336     0.018224294
      3623.41       1.5346782     0.018736050
      3627.04       1.5356906     0.018775514
      3630.66       1.5404205     0.018827635
      3634.29       1.5362992     0.018896037
      3637.93       1.5214441     0.018280799
      3641.57       1.5178702     0.018297038
      3645.21       1.5076461     0.018816640
      3648.86       1.5010756     0.018859094
      3652.50       1.4852257     0.018915643
      3656.16       1.4790559     0.018343025
      3659.81       1.4759577     0.018351278
      3663.47       1.4611951     0.018371009
      3667.14       1.4511229     0.018894928
      3670.80       1.4433182     0.018940036
      3674.48       1.4318305     0.018997658
      3678.15       1.4151923     0.018414263
      3681.83       1.4001246     0.018424613
      3685.51       1.3798857     0.018442850
      3689.20       1.3670384     0.018471552
      3692.88       1.3516669     0.019012338
      3696.58       1.3274007     0.018484845
      3700.27       1.3108791     0.018484923
      3703.98       1.2747318     0.018492366
      3707.68       1.2481126     0.018510108
      3711.39       1.2384712     0.018535406
      3715.10       1.2265605     0.019075479
      3718.81       1.2134187     0.018557488
      3722.53       1.1975257     0.018554424
      3726.26       1.1992136     0.018559989
      3729.98       1.1873401     0.018573697
      3733.71       1.1827171     0.018595412
      3737.45       1.1958430     0.018625380
      3741.18       1.1945779     0.018630351
      3744.93       1.2074829     0.018623263
      3748.67       1.2105320     0.018623903
      3752.42       1.2129731     0.018632289
      3756.17       1.2070263     0.018648212
      3759.93       1.2081655     0.018670382
      3763.69       1.1946542     0.018702098
      3767.45       1.1946655     0.018691247
      3771.22       1.1919863     0.018685113
      3774.99       1.1884167     0.018687570
      3778.77       1.1844326     0.018695611
      3782.54       1.1858722     0.018711967
      3786.33       1.1926363     0.018733353
      3790.11       1.2010313     0.018164924
      3793.90       1.2087556     0.018748790
      3797.70       1.2179390     0.018740946
      3801.50       1.2197895     0.018741201
      3805.30       1.2269683     0.018746126
      3809.10       1.2396568     0.018758647
      3812.91       1.2505886     0.018775943
      3816.73       1.2695102     0.018202893
      3820.54       1.2774871     0.018231025
      3824.36       1.2859708     0.018783930
      3828.19       1.3054410     0.018780387
      3832.02       1.3264051     0.018781436
      3835.85       1.3412232     0.018788061
      3839.68       1.3667243     0.018800244
      3843.52       1.3781634     0.018221985
      3847.37       1.3987145     0.018242502
      3851.22       1.4136072     0.018269298
      3855.07       1.4311381     0.018806972
      3858.92       1.4364831     0.018800989
      3862.78       1.4387289     0.018800100
      3866.64       1.4433356     0.018804122
      3870.51       1.4414463     0.018218865
      3874.38       1.4388979     0.018231207
      3878.26       1.4276933     0.018248433
      3882.13       1.4293824     0.018269676
      3886.02       1.4285821     0.018295440
      3889.90       1.4271274     0.018797206
      3893.79       1.4222905     0.018792684
      3897.69       1.4231328     0.019303406
      3901.59       1.4141761     0.019431689
      3905.49       1.4033588     0.020774290
      3909.39       1.3938638     0.021452331
      3913.30       1.3822485     0.024387015
      3917.22       1.3594360     0.020099795
      3921.13       1.3512528     0.020755777
      3925.06       1.3337657     0.022259019
      3928.98       1.3043735     0.023902294
      3932.91       1.3005366     0.025278467
      3936.84       1.2908396     0.026608169
      3940.78       1.2921982     0.027532080
      3944.72       1.2867186     0.027093820
      3948.67       1.2876679     0.026081757
      3952.61       1.2676969     0.024683404
      3956.57       1.2670755     0.023292068
      3960.52       1.2628231     0.022164480
      3964.48       1.2661866     0.023302632
      3968.45       1.2803838     0.019540746
      3972.42       1.2807176     0.023537910
      3976.39       1.2791951     0.022514396
      3980.37       1.2940642     0.020337887
      3984.35       1.3026867     0.019630847
      3988.33       1.3012248     0.018661507
      3992.32       1.3023856     0.018083248
      3996.31       1.3043286     0.018092407
      4000.31       1.3140615     0.018104087
      4004.31       1.3182434     0.017546387
      4008.31       1.3226153     0.017533140
      4012.32       1.3160803     0.017957994
      4016.33       1.3227143     0.017948328
      4020.35       1.3138940     0.017940844
      4024.37       1.3002181     0.017935215
      4028.40       1.2819068     0.017931708
      4032.42       1.2797161     0.017930150
      4036.46       1.2737350     0.017930494
      4040.50       1.2756592     0.017933029
      4044.54       1.2710967     0.017408200
      4048.58       1.2656811     0.017388111
      4052.63       1.2622029     0.017370816
      4056.68       1.2647805     0.017354138
      4060.74       1.2637913     0.017338904
      4064.80       1.2571085     0.017760710
      4068.86       1.2585540     0.017748140
      4072.93       1.2561383     0.017738585
      4077.01       1.2626848     0.017729122
      4081.08       1.2680140     0.017722537
      4085.17       1.2610633     0.017715993
      4089.25       1.2585089     0.017711256
      4093.34       1.2578211     0.017203484
      4097.43       1.2481827     0.017179404
      4101.53       1.2506323     0.017157679
      4105.63       1.2492939     0.017135937
      4109.74       1.2570760     0.017116250
      4113.85       1.2556840     0.017096438
      4117.96       1.2558144     0.017078434
      4122.08       1.2570187     0.017060274
      4126.20       1.2619541     0.017475230
      4130.33       1.2656717     0.017459909
      4134.46       1.2710495     0.017445352
      4138.59       1.2768139     0.017431744
      4142.73       1.2706862     0.017418937
      4146.88       1.2693012     0.016949019
      4151.02       1.2636301     0.016920491
      4155.18       1.2665963     0.016893761
      4159.33       1.2657555     0.016866934
      4163.49       1.2551945     0.016842033
      4167.65       1.2512593     0.016817031
      4171.82       1.2428390     0.016792682
      4175.99       1.2383262     0.016768863
      4180.17       1.2419196     0.016745645
      4184.35       1.2358520     0.016722874
      4188.54       1.2406613     0.016699910
      4192.72       1.2382262     0.016678562
      4196.92       1.2337405     0.016656863
      4201.11       1.2296330     0.016636509
      4205.31       1.2265467     0.016615761
      4209.52       1.2123944     0.016141803
      4213.73       1.2037254     0.016122218
      4217.94       1.1943729     0.016562820
      4222.16       1.1835383     0.016533225
      4226.38       1.1732997     0.016502132
      4230.61       1.1668497     0.016473720
      4234.84       1.1586529     0.016444140
      4239.08       1.1492509     0.016415734
      4243.32       1.1295928     0.016386762
      4247.56       1.1178701     0.016359066
      4251.81       1.1071338     0.016330741
      4256.06       1.1024029     0.016303773
      4260.32       1.0996422     0.016276199
      4264.58       1.0894802     0.016250114
      4268.84       1.0878624     0.016223423
      4273.11       1.0823560     0.016197030
      4277.38       1.0698334     0.016170730
      4281.66       1.0577817     0.016144700
      4285.94       1.0442056     0.016118673
      4290.23       1.0305165     0.016092909
      4294.52       1.0220963     0.016067128
      4298.81       1.0198843     0.016040882
      4303.11       1.0146828     0.015579805
      4307.42       1.0058454     0.015555007
      4311.72      0.99839088     0.015530445
      4316.04      0.98522141     0.015505832
      4320.35      0.97687429     0.015481388
      4324.67      0.96533389     0.015456810
      4329.00      0.95817250     0.015432283
      4333.33      0.95953958     0.015407665
      4337.66      0.96986619     0.015382881
      4342.00      0.98638921     0.015358218
      4346.34      0.99877033     0.015333309
      4350.69       1.0082310     0.015308501
      4355.04       1.0227872     0.015283549
      4359.39       1.0316171     0.015258680
      4363.75       1.0474930     0.015233660
      4368.12       1.0529339     0.015208851
      4372.48       1.0702571     0.015183992
      4376.86       1.0880737     0.015159376
      4381.23       1.1023406     0.015134896
      4385.61       1.1085185     0.015109511
      4390.00       1.1149913     0.015084903
      4394.39       1.1140251     0.015059431
      4398.79       1.1133957     0.015034740
      4403.18       1.1139994     0.015009272
      4407.59       1.1060366     0.014984536
      4412.00       1.1148799     0.014958940
      4416.41       1.1350515     0.014933670
      4420.82       1.1444123     0.014908422
      4425.25       1.1683876     0.014883337
      4429.67       1.1922272     0.014858266
      4434.10       1.2070955     0.014833257
      4438.54       1.2324159     0.014808300
      4442.97       1.2499524     0.014783304
      4447.42       1.2743072     0.014758227
      4451.86       1.2837905     0.014733244
      4456.32       1.3074656     0.014708117
      4460.77       1.3271447     0.014683093
      4465.24       1.3373390     0.014657986
      4469.70       1.3481385     0.014633109
      4474.17       1.3662784     0.014608124
      4478.65       1.3734937     0.014583386
      4483.12       1.3766696     0.014558662
      4487.61       1.3820218     0.014534384
      4492.09       1.3883617     0.014510142
      4496.59       1.3979488     0.014486424
      4501.08       1.4070892     0.014462979
      4505.58       1.4197074     0.014438979
      4510.09       1.4351619     0.014415894
      4514.60       1.4548540     0.014392378
      4519.12       1.4618370     0.014369260
      4523.63       1.4599693     0.014346685
      4528.16       1.4586900     0.014324376
      4532.69       1.4598106     0.014302545
      4537.22       1.4556178     0.013958981
      4541.76       1.4457273     0.013938147
      4546.30       1.4489612     0.013918440
      4550.85       1.4408065     0.013898280
      4555.40       1.4461635     0.013879236
      4559.95       1.4471362     0.013859870
      4564.51       1.4404451     0.013841537
      4569.08       1.4352327     0.013822925
      4573.65       1.4278220     0.013805461
      4578.22       1.4253000     0.013787776
      4582.80       1.4121755     0.013771344
      4587.38       1.4008255     0.013754750
      4591.97       1.3925587     0.013739521
      4596.56       1.3736400     0.013724239
      4601.16       1.3654559     0.013710501
      4605.76       1.3397793     0.013696796
      4610.37       1.3114057     0.013683853
      4614.98       1.2987054     0.013671526
      4619.59       1.2813794     0.013660080
      4624.21       1.2635451     0.013649192
      4628.84       1.2399208     0.013941987
      4633.47       1.2386363     0.013610927
      4638.10       1.2261649     0.013595261
      4642.74       1.2264843     0.013579506
      4647.38       1.2223853     0.013565442
      4652.03       1.2139895     0.013551573
      4656.68       1.2047617     0.013539971
      4661.34       1.1914686     0.013529242
      4666.00       1.1939969     0.013519949
      4670.67       1.1823360     0.013510082
      4675.33       1.1641777     0.013502208
      4680.01       1.1597893     0.013495766
      4684.69       1.1448143     0.013494084
      4689.38       1.1250703     0.013496687
      4694.07       1.1135859     0.013503264
      4698.76       1.1055178     0.013509894
      4703.46       1.1054284     0.013200657
      4708.16       1.0954731     0.013201484
      4712.87       1.0854339     0.013200062
      4717.58       1.0843464     0.013196495
      4722.30       1.0823076     0.013191559
      4727.03       1.0853785     0.013526628
      4731.75       1.0848651     0.013519924
      4736.48       1.0814594     0.013512019
      4741.22       1.0664724     0.013505541
      4745.96       1.0554355     0.013500569
      4750.71       1.0484550     0.013498417
      4755.46       1.0477733     0.013496100
      4760.22       1.0304832     0.013190612
      4764.97       1.0187713     0.013176051
      4769.74       1.0137497     0.013161520
      4774.51       1.0017647     0.013148606
      4779.29      0.99707916     0.013137409
      4784.07       1.0031192     0.013126239
      4788.85      0.99942455     0.013114701
      4793.64      0.99609421     0.013106624
      4798.43      0.98751846     0.013441265
      4803.23      0.98151397     0.013437843
      4808.03      0.98256554     0.013435676
      4812.84      0.96785795     0.013152966
      4817.66      0.95442480     0.013145087
      4822.48      0.94181020     0.013139012
      4827.30      0.93075649     0.013135571
      4832.12      0.92304455     0.013133643
      4836.96      0.92154925     0.013134846
      4841.79      0.92655256     0.013137324
      4846.63      0.93489567     0.013141837
      4851.48      0.93905536     0.013148179
      4856.33      0.95152104     0.013242502
      4861.19      0.95614030     0.013238223
      4866.05      0.96147878     0.013236039
      4870.92      0.97210888     0.013235959
      4875.79      0.97514397     0.013237850
      4880.66      0.96480400     0.013241980
      4885.55      0.95431804     0.013248004
      4890.43      0.94135347     0.013256200
      4895.32      0.92887265     0.013266671
      4900.22      0.92170557     0.013020175
      4905.12      0.90636504     0.013034752
      4910.02      0.88685205     0.013378469
      4914.94      0.88164285     0.013381231
      4919.85      0.87803640     0.013386454
      4924.77      0.87719902     0.013394207
      4929.70      0.87240939     0.013404566
      4934.62      0.86826352     0.013417573
      4939.56      0.85721895     0.013172907
      4944.50      0.85623866     0.013190636
      4949.44      0.85632046     0.013211430
      4954.39      0.85528359     0.013234178
      4959.35      0.85525597     0.013568537
      4964.31      0.86381590     0.013579679
      4969.27      0.86149562     0.013595133
      4974.24      0.85238972     0.013616923
      4979.22      0.84869098     0.013379907
      4984.20      0.84721058     0.013402626
      4989.18      0.83936118     0.013433752
      4994.17      0.84533489     0.013474025
      4999.16      0.85155660     0.013848439
      5004.16      0.86398108     0.013890295
      5009.17      0.87946617     0.013938869
      5014.18      0.88462739     0.013731601
      5019.19      0.89051702     0.013782648
      5024.21      0.89068131     0.013831384
      5029.23      0.89579907     0.013877187
      5034.26      0.90133941     0.013917617
      5039.30      0.91904658     0.014262098
      5044.34      0.93496031     0.013984952
      5049.39      0.95136766     0.013987533
      5054.43      0.96504180     0.013991184
      5059.49      0.98046124     0.014001138
      5064.55      0.98331560     0.014020347
      5069.61      0.98279169     0.014050496
      5074.68      0.98886750     0.014081852
      5079.76      0.98545762     0.014120256
      5084.84      0.98683575     0.014141445
      5089.92       1.0062499     0.014166238
      5095.01       1.0182696     0.014196199
      5100.11       1.0289492     0.014230541
      5105.21       1.0398650     0.014270346
      5110.31       1.0472142     0.013999481
      5115.42       1.0564341     0.014372739
      5120.54       1.0593455     0.014406261
      5125.66       1.0663772     0.014444234
      5130.79       1.0707917     0.014487989
      5135.92       1.0745122     0.014535950
      5141.05       1.0825318     0.014277173
      5146.20       1.0870002     0.014671456
      5151.34       1.0874561     0.014715705
      5156.49       1.0952267     0.014766700
      5161.65       1.0954093     0.014826298
      5166.81       1.1016032     0.014602062
      5171.98       1.1060682     0.014641989
      5177.15       1.1050203     0.014686495
      5182.33       1.1082163     0.015108010
      5187.51       1.1142024     0.015161083
      5192.70       1.1085294     0.015215853
      5197.89       1.1118562     0.014963604
      5203.09       1.1187964     0.014995665
      5208.29       1.1188903     0.015031848
      5213.50       1.1132464     0.015451070
      5218.72       1.1065963     0.015499800
      5223.93       1.1050684     0.015260346
      5229.16       1.0966114     0.015295155
      5234.39       1.0908794     0.015334215
      5239.62       1.0839987     0.015376646
      5244.86       1.0739602     0.015809294
      5250.11       1.0634769     0.015570986
      5255.36       1.0600379     0.015602596
      5260.61       1.0533744     0.015641875
      5265.87       1.0537554     0.015685086
      5271.14       1.0537665     0.016125053
      5276.41       1.0565141     0.015892767
      5281.69       1.0583983     0.015926919
      5286.97       1.0601448     0.015968858
      5292.26       1.0534956     0.016017818
      5297.55       1.0538982     0.016073750
      5302.85       1.0593082     0.016256571
      5308.15       1.0559843     0.016295381
      5313.46       1.0515550     0.016340885
      5318.77       1.0501450     0.016393528
      5324.09       1.0525501     0.016178836
      5329.42       1.0440384     0.016642838
      5334.75       1.0420094     0.016684751
      5340.08       1.0412719     0.016734094
      5345.42       1.0360626     0.016791290
      5350.77       1.0353784     0.016575722
      5356.12       1.0398991     0.017047656
      5361.48       1.0468031     0.017093613
      5366.83       1.0557333     0.017147798
      5372.20       1.0555373     0.016925074
      5377.58       1.0581953     0.016995067
      5382.95       1.0646718     0.017471136
      5388.34       1.0620763     0.017522336
      5393.72       1.0602779     0.017582561
      5399.12       1.0571980     0.017359679
      5404.52       1.0543014     0.017436883
      5409.92       1.0442543     0.017913783
      5415.33       1.0420132     0.017972120
      5420.75       1.0449445     0.017742190
      5426.17       1.0505243     0.017818466
      5431.60       1.0623467     0.017905906
      5437.03       1.0733900     0.018390813
      5442.47       1.0951168     0.018251185
      5447.91       1.1002733     0.018338138
      5453.36       1.1090504     0.018402809
      5458.81       1.1201486     0.018916253
      5464.27       1.1132992     0.018824106
      5469.73       1.1066747     0.019042793
      5475.20       1.0923207     0.019313149
      5480.68       1.0823270     0.020222687
      5486.16       1.0579422     0.020292819
      5491.65       1.0315146     0.020619179
      5497.14       1.0073103     0.020932778
      5502.64      0.97972174     0.021212111
      5508.14      0.94414126     0.021559417
      5513.65      0.92581238     0.021617483
      5519.16      0.91513756     0.021612777
      5524.68      0.91930343     0.021560939
      5530.20      0.92283805     0.021344782
      5535.73      0.92802585     0.021232132
      5541.27      0.93525046     0.021177366
      5546.81      0.94641270     0.021196260
      5552.36      0.95416271     0.021165788
      5557.91      0.95555089     0.021123656
      5563.47      0.95417356     0.021141680
      5569.04      0.95045306     0.020802065
      5574.60      0.94844621     0.021274864
      5580.18      0.94094340     0.021322432
      5585.76      0.92881718     0.021395566
      5591.35      0.92204370     0.021097109
      5596.94      0.91106176     0.021665878
      5602.53      0.90300856     0.021761621
      5608.14      0.88835864     0.021871570
      5613.75      0.87238228     0.021566178
      5619.36      0.86259021     0.022148716
      5624.98      0.85362220     0.022231126
      5630.60      0.85209604     0.021920192
      5636.23      0.83859189     0.021982411
      5641.87      0.83263454     0.022586838
      5647.51      0.82818137     0.022682599
      5653.16      0.82679024     0.022363654
      5658.82      0.81631426     0.022437247
      5664.47      0.81587426     0.023060285
      5670.14      0.81569476     0.022771711
      5675.81      0.82317538     0.022851147
      5681.48      0.83380679     0.023504812
      5687.17      0.83953368     0.023265730
      5692.85      0.84554040     0.023355789
      5698.55      0.85143113     0.023470796
      5704.25      0.85027414     0.024204867
      5709.95      0.85612074     0.024045606
      5715.66      0.85476440     0.024249897
      5721.38      0.85236573     0.024512326
      5727.10      0.85296086     0.025211161
      5732.83      0.85049573     0.025504345
      5738.56      0.85024155     0.025797382
      5744.30      0.84146004     0.026403464
      5750.04      0.84113904     0.026569443
      5755.79      0.83706543     0.026721282
      5761.55      0.82554110     0.026454161
      5767.31      0.80382878     0.027117500
      5773.08      0.79974991     0.027153821
      5778.85      0.80425884     0.026806163
      5784.63      0.80611347     0.027469780
      5790.41      0.80418489     0.027570748
      5796.21      0.79793460     0.027272893
      5802.00      0.79298675     0.028087145
      5807.81      0.78552893     0.028169018
      5813.61      0.77965568     0.028247563
      5819.43      0.76833238     0.027846152
      5825.25      0.76102861     0.028401649
      5831.07      0.74492447     0.028404399
      5836.90      0.73282983     0.027966042
      5842.74      0.71026048     0.028560488
      5848.58      0.69650328     0.028539188
      5854.43      0.66853942     0.028043555
      5860.29      0.66633468     0.028569682
      5866.15      0.65729785     0.028072203
      5872.01      0.64422890     0.028091696
      5877.89      0.63507467     0.028678307
      5883.76      0.63907360     0.028225494
      5889.65      0.64869598     0.028281872
      5895.54      0.64609441     0.028944153
      5901.43      0.64848672     0.028522155
      5907.34      0.64274641     0.028591944
      5913.24      0.64550950     0.020332715
      5919.16      0.64897991     0.020555535
      5925.08      0.64172006     0.021022186
      5931.00      0.63829607     0.021277881
      5936.93      0.63747864     0.021678094
      5942.87      0.64281422     0.022273456
      5948.81      0.64637717     0.022635109
      5954.76      0.64521632     0.023353774
      5960.72      0.64841894     0.024205660
      5966.68      0.64764849     0.024781746
      5972.64      0.64514104     0.026173178
      5978.62      0.64795041     0.027605335
      5984.60      0.64835700     0.028714728
      5990.58      0.64414026     0.031652683
      5996.57      0.64249593     0.034561438
      6002.57      0.63584731     0.036919117
      6008.57      0.62784769     0.043133774
      6014.58      0.62059723     0.049392275
      6020.60      0.61966258     0.035285647
      6026.62      0.61023471     0.032857124
      6032.65      0.62196943     0.035972242
      6038.68      0.61910773     0.035319175
      6044.72      0.61141291     0.037291638
      6050.76      0.60590073     0.041519989
      6056.81      0.60113976     0.041195695
      6062.87      0.60348257     0.043590174
      6068.93      0.56743337     0.045405269
      6075.00      0.55530405     0.047627226
      6081.08      0.53571576     0.049661341
      6087.16      0.49857200     0.054222544
      6093.25      0.48566631     0.053031792
      6099.34      0.49811672     0.049191522
      6105.44      0.50517610     0.051277715
      6111.54      0.50732303     0.048932181
      6117.66      0.50823568     0.044346453
      6123.78      0.51212104     0.045429093
      6129.90      0.53512557     0.041115617
      6136.03      0.53794507     0.042306469
      6142.17      0.52629250     0.038595174
      6148.31      0.52883267     0.037093874
      6154.46      0.51968058     0.059335006
      6160.61      0.53591247     0.051881075
      6166.77      0.54863802     0.044202421
      6172.94      0.55482305     0.040148876
      6179.11      0.55939069     0.038032221
      6185.29      0.57599261     0.035333089
      6191.48      0.57918960     0.032435818
      6197.67      0.58211340     0.031414175
      6203.87      0.59500249     0.030052711
      6210.07      0.60366492     0.028679331
      6216.28      0.61003805     0.027804293
      6222.50      0.61835878     0.027338826
      6228.72      0.62312084     0.026642519
      6234.95      0.63293132     0.026082107
      6241.19      0.63704275     0.025786930
      6247.42      0.63562809     0.025299760
      6253.67      0.63704442     0.025011099
      6259.93      0.64144664     0.024602572
      6266.19      0.64783034     0.024626760
      6272.46      0.65188811     0.024687962
      6278.73      0.65473875     0.024723937
      6285.01      0.65504755     0.024803836
      6291.29      0.65956242     0.024839812
      6297.58      0.65655889     0.024883002
      6303.88      0.66379227     0.024956292
      6310.19      0.66571807     0.024994597
      6316.50      0.67039676     0.025063848
      6322.81      0.67432582     0.025095951
      6329.14      0.67964242     0.024920293
      6335.47      0.69147429     0.025191123
      6341.80      0.69226979     0.025014187
      6348.14      0.69007546     0.025279047
      6354.49      0.68832754     0.025098716
      6360.85      0.68490282     0.025115725
      6367.21      0.68356273     0.025173333
      6373.57      0.68819522     0.025185775
      6379.95      0.68339065     0.025448138
      6386.33      0.68708737     0.025258481
      6392.72      0.69347018     0.025518957
      6399.11      0.70081473     0.025325275
      6405.51      0.70251265     0.025338841
      6411.92      0.70166927     0.025375265
      6418.32      0.70652851     0.025376923
      6424.74      0.71541791     0.025409086
      6431.17      0.72451175     0.025412086
      6437.60      0.73054575     0.025221383
      6444.04      0.73577408     0.025470433
      6450.48      0.74438581     0.025337732
      6456.94      0.74540281     0.025638139
      6463.39      0.74036839     0.025502419
      6469.85      0.73479264     0.025786216
      6476.33      0.72300916     0.025633170
      6482.80      0.72172166     0.025954898
      6489.28      0.71166245     0.025827045
      6495.77      0.70737475     0.025901673
      6502.27      0.70334748     0.026030127
      6508.77      0.70293522     0.026087238
      6515.28      0.70277085     0.026186741
      6521.80      0.70003632     0.026230270
      6528.32      0.69874145     0.026304972
      6534.85      0.69659044     0.026327457
      6541.38      0.70060859     0.026349224
      6547.92      0.70078449     0.026344867
      6554.47      0.68950394     0.026087499
      6561.03      0.68316816     0.026292239
      6567.59      0.66854772     0.026001021
      6574.16      0.66066153     0.026170624
      6580.73      0.64198681     0.025849059
      6587.31      0.63105168     0.025988353
      6593.90      0.61370911     0.025646246
      6600.50      0.60775840     0.025763155
      6607.10      0.60886328     0.025407828
      6613.70      0.60751070     0.025511931
      6620.32      0.60800788     0.025157178
      6626.94      0.60660560     0.025008126
      6633.57      0.60875031     0.024916791
      6640.20      0.61101554     0.024593339
      6646.84      0.60533602     0.024679175
      6653.49      0.60272830     0.024352485
      6660.14      0.60564422     0.024423395
      6666.80      0.61025772     0.024088710
      6673.47      0.60747647     0.024138487
      6680.14      0.60354481     0.023809074
      6686.82      0.60174467     0.023857855
      6693.51      0.60209960     0.023541324
      6700.20      0.60215319     0.023620567
      6706.90      0.59971887     0.023333115
      6713.61      0.59646381     0.023192501
      6720.32      0.59156360     0.023102440
      6727.05      0.59068544     0.022940432
      6733.77      0.59257476     0.022874095
      6740.51      0.59247480     0.022756904
      6747.25      0.58992208     0.022703564
      6754.00      0.59301559     0.022599391
      6760.75      0.59422415     0.022546029
      6767.51      0.59319450     0.022435404
      6774.28      0.58513801     0.022180027
      6781.05      0.58148526     0.022285452
      6787.84      0.59567312     0.022035658
      6794.62      0.59693533     0.022141007
      6801.42      0.59646120     0.021890782
      6808.22      0.59650306     0.022000321
      6815.03      0.58676350     0.021752326
      6821.85      0.58116218     0.021673329
      6828.67      0.57214306     0.021620705
      6835.50      0.57100543     0.021542725
      6842.33      0.56421401     0.021493941
      6849.17      0.56145916     0.021419808
      6856.02      0.55760947     0.021375458
      6862.88      0.56210838     0.021303649
      6869.74      0.54976101     0.021081553
      6876.61      0.55414179     0.021192254
      6883.49      0.54885061     0.020976243
      6890.37      0.54302799     0.021087045
      6897.27      0.53036475     0.021028775
      6904.16      0.52419780     0.020815548
      6911.07      0.51135033     0.020936458
      6917.98      0.50892706     0.020729602
      6924.89      0.50040149     0.020852184
      6931.82      0.48680923     0.020651608
      6938.75      0.48021925     0.020604731
      6945.69      0.48202921     0.020581162
      6952.64      0.48235049     0.020538881
      6959.59      0.48903119     0.020520990
      6966.55      0.50909049     0.020483484
      6973.52      0.51389096     0.020297782
      6980.49      0.51064602     0.020435334
      6987.47      0.50656085     0.020410581
      6994.46      0.50723697     0.020399576
      7001.46      0.51183528     0.020383171
      7008.46      0.50958690     0.020219714
      7015.46      0.51086578     0.020375412
      7022.48      0.50812282     0.020223301
      7029.51      0.50063655     0.020248962
      7036.53      0.49688317     0.020251360
      7043.57      0.49178350     0.020277342
      7050.62      0.50232902     0.020462590
      7057.66      0.51112927     0.020325023
      7064.72      0.50238660     0.020360228
      7071.79      0.50359501     0.020367448
      7078.86      0.51112579     0.020416095
      7085.94      0.50252176     0.020302055
      7093.03      0.49659706     0.020508462
      7100.12      0.49718909     0.020626832
      7107.22      0.49787776     0.020583677
      7114.33      0.49313764     0.020873623
      7121.44      0.49660700     0.020869721
      7128.56      0.50384811     0.021182496
      7135.69      0.49980892     0.021184157
      7142.83      0.49405437     0.021402383
      7149.97      0.50434935     0.021745115
      7157.12      0.49854208     0.021747991
      7164.28      0.48999524     0.022003030
      7171.44      0.48228438     0.022130051
      7178.62      0.48959046     0.022379327
      7185.80      0.48498498     0.022633363
      7192.98      0.48257357     0.022754384
      7200.17      0.47792227     0.022999308
      7207.38      0.48541435     0.022986176
      7214.58      0.50306879     0.023337421
      7221.80      0.51154065     0.023687952
      7229.02      0.51406592     0.023971537
      7236.25      0.52952504     0.024520991
      7243.49      0.53307748     0.024836125
      7250.73      0.51796914     0.025458372
      7257.98      0.50546005     0.026139461
      7265.24      0.50806032     0.026872894
      7272.51      0.51303137     0.027796388
      7279.78      0.50894351     0.028500332
      7287.06      0.49005617     0.029756769
      7294.35      0.47756212     0.031309827
      7301.64      0.46869684     0.033780590
      7308.94      0.45968180     0.036481919
      7316.25      0.45702673     0.039923611
      7323.57      0.45508730     0.042954295
      7330.89      0.45861560     0.048303262
      7338.22      0.45690985     0.057019510
      7345.56      0.45587004     0.065920374
      7352.91      0.44079386     0.077419367
