# starting wavelength =        1879.4035
# ending wavelength =        3524.5900
# O2 telluric scale =        0
# O2 telluric shift =        0
# H2O telluric scale =        0
# H2O telluric shift =        0
      1880.83       1.5035877      0.31976926
      1882.71       1.5112005      0.28829032
      1884.59       1.5132642      0.26144041
      1886.48       1.5252919      0.24307356
      1888.37       1.5324037      0.23036290
      1890.25       1.5172879      0.21843464
      1892.15       1.4873706      0.20859002
      1894.04       1.4718745      0.20019341
      1895.93       1.4578723      0.19345649
      1897.83       1.4515105      0.18750565
      1899.73       1.4308767      0.18331967
      1901.62       1.4046584      0.17857432
      1903.53       1.3889258      0.17492279
      1905.43       1.3427232      0.17120336
      1907.34       1.3327590      0.16777907
      1909.24       1.3375919      0.16568129
      1911.15       1.3536191      0.16405426
      1913.06       1.3534661      0.16205006
      1914.98       1.3165248      0.16114783
      1916.89       1.2787886      0.15916667
      1918.81       1.2184240      0.15761722
      1920.73       1.1814016      0.15644850
      1922.65       1.1622451      0.15484848
      1924.57       1.1612716      0.15288188
      1926.50       1.1644410      0.15206863
      1928.42       1.1795337      0.15018897
      1930.35       1.1776342      0.14872514
      1932.28       1.1816747      0.14793324
      1934.21       1.1922839      0.14611454
      1936.15       1.2054640      0.14461078
      1938.08       1.2156653      0.14347235
      1940.02       1.2265025      0.14207419
      1941.96       1.2224878      0.14033497
      1943.91       1.2187802      0.13901002
      1945.85       1.2104675      0.13802117
      1947.79       1.1821726      0.13662344
      1949.74       1.1789382      0.13526433
      1951.69       1.1822123      0.13424630
      1953.64       1.1957242      0.13293238
      1955.60       1.2362055      0.13131218
      1957.55       1.2592256      0.12987187
      1959.51       1.2607571      0.12924029
      1961.47       1.2479961      0.12771777
      1963.43       1.2394149      0.12639805
      1965.40       1.2405456      0.12485981
      1967.36       1.2424605      0.12417427
      1969.33       1.2574316      0.12282645
      1971.30       1.2661271      0.12129423
      1973.27       1.2676709      0.12020258
      1975.24       1.2747924      0.11911586
      1977.22       1.2850128      0.11774852
      1979.20       1.2877938      0.11651360
      1981.18       1.2834316      0.11499135
      1983.16       1.2685825      0.11375273
      1985.14       1.2669982      0.11300826
      1987.12       1.2414078      0.11156879
      1989.11       1.2068356      0.11091529
      1991.10       1.1722164      0.10929635
      1993.09       1.1605081      0.10759973
      1995.09       1.1682447      0.10680215
      1997.08       1.2073773      0.10544329
      1999.08       1.2401383      0.10396715
      2001.08       1.2759301      0.10284408
      2003.08       1.3044970      0.10168590
      2005.08       1.3056198      0.10084497
      2007.09       1.2964624     0.099742519
      2009.09       1.2860885     0.098625896
      2011.10       1.2777046     0.097266196
      2013.11       1.2929657     0.096095474
      2015.13       1.3137697     0.095011351
      2017.14       1.3208635     0.093765372
      2019.16       1.3206903     0.093137480
      2021.18       1.3370797     0.092049248
      2023.20       1.3495139     0.090756280
      2025.22       1.3575518     0.089691711
      2027.25       1.3876926     0.088656693
      2029.28       1.4036455     0.087549317
      2031.31       1.4224093     0.086308667
      2033.34       1.4390884     0.085219182
      2035.37       1.4435532     0.084579804
      2037.41       1.4553912     0.083518352
      2039.44       1.4734859     0.082328463
      2041.48       1.4906816     0.081289381
      2043.53       1.5105982     0.080273616
      2045.57       1.5134808     0.079324211
      2047.61       1.5192204     0.078226184
      2049.66       1.5255991     0.077263177
      2051.71       1.5263851     0.076358941
      2053.76       1.5112898     0.075423519
      2055.82       1.5064822     0.074778327
      2057.87       1.5055167     0.073933370
      2059.93       1.4921332     0.073085852
      2061.99       1.4868611     0.072293651
      2064.05       1.5001299     0.071486989
      2066.12       1.4868237     0.070617299
      2068.18       1.4808081     0.069952321
      2070.25       1.4882224     0.068990664
      2072.32       1.4969537     0.068202878
      2074.39       1.4919398     0.067331026
      2076.47       1.4923735     0.066548205
      2078.55       1.4763834     0.065867176
      2080.62       1.4707952     0.065178825
      2082.71       1.4598249     0.064476402
      2084.79       1.4562248     0.063765139
      2086.87       1.4501638     0.089630403
      2088.96       1.4351941     0.088249388
      2091.05       1.4422767     0.087279657
      2093.14       1.4393758     0.086325911
      2095.23       1.4187506     0.085434518
      2097.33       1.4251863     0.084422240
      2099.43       1.4039255     0.084221417
      2101.52       1.3961034     0.083269672
      2103.63       1.4007752     0.082313081
      2105.73       1.4065768     0.080946362
      2107.84       1.4057924     0.080051507
      2109.94       1.3953744     0.079073893
      2112.05       1.4032181     0.078126479
      2114.17       1.3720590     0.077318778
      2116.28       1.3603835     0.076580373
      2118.40       1.3552234     0.075693274
      2120.52       1.3405354     0.074892053
      2122.64       1.3431159     0.074145223
      2124.76       1.2806630     0.073479815
      2126.88       1.2201604     0.072820734
      2129.01       1.2020441     0.072161133
      2131.14       1.1629816     0.071499610
      2133.27       1.1436199     0.070396929
      2135.40       1.1019166     0.070017446
      2137.54       1.0862534     0.069753426
      2139.68       1.0933772     0.069039135
      2141.82       1.1215567     0.068104111
      2143.96       1.1348445     0.067708133
      2146.10       1.1545876     0.067789709
      2148.25       1.1814578     0.068071212
      2150.40       1.2042110     0.069141975
      2152.55       1.2350512     0.070462948
      2154.70       1.2344814     0.069374530
      2156.86       1.2542962     0.068943899
      2159.01       1.2438011     0.069427158
      2161.17       1.2323756     0.070194654
      2163.33       1.2260714     0.070933706
      2165.50       1.1679957     0.070949438
      2167.66       1.1426614     0.070763628
      2169.83       1.0982798     0.070218693
      2172.00       1.0396193     0.069165081
      2174.17       1.0324548     0.067753834
      2176.35       1.0099019     0.066341594
      2178.52      0.99348273     0.065408665
      2180.70      0.99714069     0.063494286
      2182.88      0.98316413     0.061518884
      2185.07      0.98366334     0.059293559
      2187.25      0.99219807     0.058009805
      2189.44       1.0095221     0.057224897
      2191.63       1.0174336     0.057413075
      2193.82       1.0171228     0.057382902
      2196.01       1.0187083     0.056043281
      2198.21       1.0294255     0.055151145
      2200.41      0.98932306     0.054417424
      2202.61       1.0032202     0.053929442
      2204.81      0.99895839     0.053572256
      2207.02      0.98871231     0.053187284
      2209.22      0.98256233     0.052851684
      2211.43      0.98087609     0.052833611
      2213.64      0.99904136     0.052118022
      2215.86       1.0194442     0.051754732
      2218.07       1.0269169     0.051463980
      2220.29       1.0514043     0.051127125
      2222.51       1.0638796     0.050798932
      2224.73       1.0777794     0.050102852
      2226.96       1.0928038     0.049783554
      2229.19       1.1031510     0.049431255
      2231.42       1.1298005     0.049327465
      2233.65       1.1437956     0.048975481
      2235.88       1.1456428     0.048300542
      2238.12       1.1471709     0.047943374
      2240.36       1.1465712     0.047610402
      2242.60       1.1394171     0.047315981
      2244.84       1.1715055     0.046917136
      2247.08       1.1711167     0.046677931
      2249.33       1.1966204     0.046413690
      2251.58       1.2051426     0.046205771
      2253.83       1.2339141     0.045681938
      2256.09       1.2386948     0.045491344
      2258.34       1.2415993     0.045714786
      2260.60       1.2616859     0.045397610
      2262.86       1.2826329     0.044958298
      2265.12       1.3018669     0.044814146
      2267.39       1.2840343     0.044648067
      2269.66       1.2990073     0.044526993
      2271.93       1.3131714     0.044790481
      2274.20       1.3249864     0.044943424
      2276.47       1.3345851     0.044379857
      2278.75       1.3420369     0.044345323
      2281.03       1.3370305     0.044897707
      2283.31       1.3481316     0.045309241
      2285.59       1.3640193     0.045476737
      2287.88       1.3773102     0.045845648
      2290.17       1.3798912     0.046450326
      2292.46       1.3992147     0.046149334
      2294.75       1.3980308     0.046068117
      2297.04       1.3898915     0.045870917
      2299.34       1.3796836     0.045328656
      2301.64       1.3699646     0.044823421
      2303.94       1.3664476     0.043915777
      2306.25       1.3669276     0.043307412
      2308.55       1.3783490     0.042782015
      2310.86       1.3713428     0.041877073
      2313.17       1.3741295     0.041455782
      2315.49       1.3604061     0.041703280
      2317.80       1.3510863     0.041116335
      2320.12       1.3602111     0.040510371
      2322.44       1.3335523     0.039769912
      2324.76       1.2888669     0.039676097
      2327.09       1.2665294     0.039329950
      2329.41       1.2522249     0.038613420
      2331.74       1.2310522     0.038396283
      2334.08       1.2086682     0.037722579
      2336.41       1.1949530     0.037269862
      2338.75       1.1763572     0.037123239
      2341.08       1.1567720     0.036579600
      2343.43       1.1386118     0.036319991
      2345.77       1.1149478     0.035927572
      2348.12       1.1113559     0.035615607
      2350.46       1.1300473     0.035133129
      2352.81       1.1336064     0.035128818
      2355.17       1.1277236     0.034961454
      2357.52       1.1167902     0.034774408
      2359.88       1.1099414     0.034600658
      2362.24       1.0946260     0.034199505
      2364.60       1.0806704     0.034118449
      2366.97       1.0348576     0.033931176
      2369.33       1.0236126     0.033502553
      2371.70       1.0206945     0.033113645
      2374.08       1.0235123     0.032868220
      2376.45       1.0172636     0.032665659
      2378.83       1.0297397     0.032560277
      2381.20       1.0426685     0.032358033
      2383.59       1.0516717     0.032475343
      2385.97       1.0585298     0.032241117
      2388.36       1.0575066     0.032410402
      2390.75       1.0676792     0.032088981
      2393.14       1.0826590     0.032032231
      2395.53       1.0873261     0.031584607
      2397.93       1.0718915     0.031504893
      2400.32       1.0615741     0.031136984
      2402.72       1.0585423     0.030772702
      2405.13       1.0538214     0.030545147
      2407.53       1.0389115     0.030271106
      2409.94       1.0263880     0.030314243
      2412.35       1.0221986     0.030226723
      2414.76       1.0323526     0.030308892
      2417.18       1.0309683     0.030162138
      2419.59       1.0381852     0.030295686
      2422.01       1.0445423     0.030191192
      2424.44       1.0621482     0.030294192
      2426.86       1.0664116     0.030435726
      2429.29       1.0695011     0.030545000
      2431.72       1.0725090     0.030704566
      2434.15       1.0834757     0.030356665
      2436.58       1.0916984     0.029887640
      2439.02       1.0855243     0.030072198
      2441.46       1.0734683     0.030083426
      2443.90       1.0608931     0.030342594
      2446.34       1.0666796     0.030277707
      2448.79       1.0670994     0.030231869
      2451.24       1.0735428     0.030301874
      2453.69       1.0812913     0.030305446
      2456.14       1.0867738     0.029938763
      2458.60       1.0921506     0.029417349
      2461.06       1.0899360     0.029090638
      2463.52       1.0913669     0.028559715
      2465.98       1.0936056     0.028262176
      2468.45       1.0892072     0.027766337
      2470.92       1.0952436     0.027611184
      2473.39       1.0961229     0.027336525
      2475.86       1.0944815     0.027225741
      2478.34       1.0959395     0.027174555
      2480.82       1.1028459     0.026765309
      2483.30       1.1108407     0.026325705
      2485.78       1.1165317     0.025930102
      2488.27       1.1114083     0.025861417
      2490.76       1.1119940     0.025563617
      2493.25       1.1188094     0.025178818
      2495.74       1.1326025     0.025199222
      2498.24       1.1463548     0.025069139
      2500.74       1.1535041     0.024801927
      2503.24       1.1527071     0.024784105
      2505.74       1.1598197     0.024869799
      2508.25       1.1634533     0.024977871
      2510.75       1.1642357     0.025078147
      2513.26       1.1646028     0.024975808
      2515.78       1.1734817     0.025194756
      2518.29       1.1845419     0.025341262
      2520.81       1.1887382     0.025412052
      2523.33       1.1863205     0.025455306
      2525.86       1.1891976     0.025607063
      2528.38       1.1897204     0.025501579
      2530.91       1.1936994     0.025447030
      2533.44       1.1895089     0.025346264
      2535.98       1.1905885     0.025211542
      2538.51       1.1846752     0.025238699
      2541.05       1.1897751     0.025220536
      2543.59       1.1776220     0.025341435
      2546.13       1.1516627     0.025262155
      2548.68       1.1288511     0.025192589
      2551.23       1.1109896     0.025193232
      2553.78       1.0983881     0.025123114
      2556.34       1.0826248     0.024925337
      2558.89       1.0838401     0.024575087
      2561.45       1.0915651     0.024142881
      2564.01       1.0764273     0.023740935
      2566.58       1.0480549     0.023275725
      2569.14       1.0181470     0.023075304
      2571.71       1.0009076     0.022635484
      2574.28       1.0164210     0.022247701
      2576.86      0.98850015     0.021915189
      2579.44      0.95750388     0.021702518
      2582.01      0.93180041     0.021477122
      2584.60      0.91889874     0.021210645
      2587.18      0.89119385     0.021026213
      2589.77      0.87509221     0.020813950
      2592.36      0.85260745     0.020650960
      2594.95      0.84075697     0.020537358
      2597.55      0.84596182     0.020429005
      2600.14      0.84682063     0.020305309
      2602.74      0.86110813     0.020131941
      2605.35      0.88196649     0.020064417
      2607.95      0.90272603     0.019996349
      2610.56      0.91569630     0.019909065
      2613.17      0.91242781     0.019842210
      2615.79      0.91841232     0.019769030
      2618.40      0.93077001     0.019578523
      2621.02      0.94014278     0.019456017
      2623.64      0.94771369     0.019299165
      2626.26      0.92652921     0.019281497
      2628.89      0.91277987     0.019155376
      2631.52      0.90174286     0.019031765
      2634.15      0.89269422     0.019051284
      2636.79      0.87522970     0.019062091
      2639.42      0.86647289     0.018773844
      2642.06      0.86382243     0.018607057
      2644.70      0.85328520     0.018627575
      2647.35      0.85470816     0.018871538
      2650.00      0.85886591     0.019180933
      2652.65      0.87291109     0.019309303
      2655.30      0.88147844     0.019519109
      2657.96      0.88429708     0.019870080
      2660.61      0.88988020     0.020221120
      2663.27      0.89886365     0.020544561
      2665.94      0.90282940     0.020873989
      2668.60      0.90404036     0.021138493
      2671.27      0.90713290     0.021412497
      2673.94      0.92192366     0.021360209
      2676.62      0.93979926     0.021291627
      2679.29      0.93625177     0.021351004
      2681.97      0.93617382     0.021434770
      2684.66      0.93723632     0.021364599
      2687.34      0.93948594     0.021351925
      2690.03      0.93846930     0.021135776
      2692.72      0.93358625     0.020951427
      2695.41      0.92940421     0.020681385
      2698.11      0.94004833     0.020597175
      2700.81      0.95224055     0.020504677
      2703.51      0.95921733     0.020227469
      2706.21      0.95753600     0.020026168
      2708.92      0.96209526     0.019814721
      2711.62      0.97001526     0.019615639
      2714.34      0.97822678     0.019406666
      2717.05      0.98106769     0.019202476
      2719.77      0.98856100     0.019202586
      2722.49       1.0076824     0.018905074
      2725.21       1.0203236     0.018615756
      2727.94       1.0378203     0.018478580
      2730.66       1.0382905     0.018434102
      2733.39       1.0405727     0.018381712
      2736.13       1.0360917     0.018189262
      2738.86       1.0309211     0.018047300
      2741.60       1.0303538     0.018075147
      2744.34       1.0353659     0.018081143
      2747.09       1.0446588     0.017985158
      2749.84       1.0466940     0.017931583
      2752.59       1.0439495     0.017822311
      2755.34       1.0473365     0.017880723
      2758.09       1.0436457     0.017819898
      2760.85       1.0519923     0.017666897
      2763.61       1.0604340     0.017608740
      2766.38       1.0691757     0.017403370
      2769.14       1.0721765     0.017455515
      2771.91       1.0808168     0.017424271
      2774.69       1.0908616     0.017325798
      2777.46       1.0980343     0.017342721
      2780.24       1.1099162     0.017356090
      2783.02       1.1038061     0.017366187
      2785.80       1.1016271     0.017356917
      2788.59       1.1023389     0.017216202
      2791.38       1.1041580     0.017173325
      2794.17       1.1085688     0.017345981
      2796.96       1.1079713     0.017093959
      2799.76       1.0940361     0.016819989
      2802.56       1.0774553     0.016727127
      2805.36       1.0635152     0.016879632
      2808.17       1.0530627     0.017203339
      2810.98       1.0466828     0.017580564
      2813.79       1.0455965     0.017803838
      2816.60       1.0393223     0.018223275
      2819.42       1.0328109     0.018690809
      2822.24       1.0190028     0.019423636
      2825.06       1.0238878     0.019611949
      2827.88       1.0288783     0.019862277
      2830.71       1.0361024     0.020061875
      2833.54       1.0331737     0.020283835
      2836.38       1.0364078     0.020060151
      2839.21       1.0417800     0.020068458
      2842.05       1.0524115     0.020022662
      2844.90       1.0543226     0.020267510
      2847.74       1.0608900     0.020257712
      2850.59       1.0645312     0.020184886
      2853.44       1.0639455     0.020059919
      2856.29       1.0628169     0.020032230
      2859.15       1.0644736     0.019809915
      2862.01       1.0672024     0.019741968
      2864.87       1.0732942     0.019452317
      2867.74       1.0712148     0.019168784
      2870.60       1.0710181     0.018837379
      2873.47       1.0765994     0.018435819
      2876.35       1.0854885     0.017967705
      2879.22       1.0963397     0.017738219
      2882.10       1.1057452     0.017510490
      2884.99       1.1133299     0.017317252
      2887.87       1.1117992     0.017107982
      2890.76       1.1149823     0.016706516
      2893.65       1.1187598     0.016556224
      2896.54       1.1215374     0.016562471
      2899.44       1.1217530     0.016705302
      2902.34       1.1178158     0.016672022
      2905.24       1.1140868     0.016910973
      2908.15       1.1021625     0.016831371
      2911.06       1.0940936     0.016796323
      2913.97       1.0831079     0.016645811
      2916.88       1.0711571     0.016690565
      2919.80       1.0677015     0.016731203
      2922.72       1.0593126     0.016777487
      2925.64       1.0601783     0.016625844
      2928.57       1.0587058     0.016470580
      2931.50       1.0594153     0.016591178
      2934.43       1.0598673     0.016847190
      2937.36       1.0658857     0.016891486
      2940.30       1.0629210     0.016914626
      2943.24       1.0603468     0.017137418
      2946.18       1.0580824     0.017320243
      2949.13       1.0621325     0.017657799
      2952.08       1.0580246     0.018064948
      2955.03       1.0552260     0.018815355
      2957.99       1.0388902     0.019630192
      2960.94       1.0298055     0.020129382
      2963.90       1.0212567     0.020103931
      2966.87       1.0085419     0.020026870
      2969.84      0.99321807     0.019589097
      2972.81      0.97900999     0.019124915
      2975.78      0.96776288     0.018725451
      2978.76      0.95534360     0.018010862
      2981.73      0.94667106     0.016951093
      2984.72      0.93388840     0.016137267
      2987.70      0.92454414     0.015978485
      2990.69      0.91759968     0.016193527
      2993.68      0.90885135     0.016094614
      2996.67      0.90068780     0.015985984
      2999.67      0.89771339     0.016417402
      3002.67      0.89713294     0.016616084
      3005.67      0.89609244     0.016963948
      3008.68      0.88280395     0.017238308
      3011.69      0.87987050     0.017426579
      3014.70      0.87902070     0.017509691
      3017.71      0.87623358     0.017661830
      3020.73      0.87579815     0.017485648
      3023.75      0.87363441     0.017402974
      3026.78      0.87315170     0.017545620
      3029.80      0.86697913     0.017790757
      3032.83      0.86949681     0.018122822
      3035.87      0.86518350     0.018044164
      3038.90      0.86960348     0.017794934
      3041.94      0.87074569     0.017638409
      3044.98      0.86672969     0.017875448
      3048.03      0.86840082     0.018235552
      3051.08      0.86513647     0.018499498
      3054.13      0.86198407     0.018854970
      3057.18      0.85944491     0.018984824
      3060.24      0.86116010     0.019130884
      3063.30      0.86293763     0.018924822
      3066.36      0.85090426     0.019205672
      3069.43      0.84510082     0.018906614
      3072.50      0.84393847     0.019168438
      3075.57      0.83901218     0.018896640
      3078.65      0.83110347     0.018420972
      3081.73      0.82682259     0.017944723
      3084.81      0.82228707     0.018043338
      3087.89      0.81877098     0.017529112
      3090.98      0.81388853     0.017525820
      3094.07      0.80795733     0.017492243
      3097.17      0.81071818     0.017618533
      3100.26      0.81290204     0.017156947
      3103.36      0.80779882     0.017064561
      3106.47      0.81287731     0.016932925
      3109.58      0.81300512     0.017092076
      3112.68      0.82221494     0.017251883
      3115.80      0.82502841     0.016775548
      3118.91      0.82007192     0.016453938
      3122.03      0.82261834     0.016128972
      3125.15      0.81832433     0.015936161
      3128.28      0.81364335     0.015510282
      3131.41      0.81022633     0.015267280
      3134.54      0.80949845     0.014980010
      3137.67      0.80469415     0.014745729
      3140.81      0.80789751     0.014530530
      3143.95      0.81152370     0.014378138
      3147.10      0.80711181     0.013929593
      3150.24      0.80326061     0.013749404
      3153.39      0.79755753     0.013703806
      3156.55      0.79445858     0.013603497
      3159.70      0.79079714     0.013320120
      3162.86      0.78503180     0.013114882
      3166.03      0.77565754     0.013035724
      3169.19      0.76807823     0.012958963
      3172.36      0.76761959     0.012824425
      3175.54      0.76375471     0.012646540
      3178.71      0.75535577     0.012606724
      3181.89      0.75292927     0.012604158
      3185.07      0.74307553     0.012610179
      3188.26      0.73604531     0.012550579
      3191.45      0.73141915     0.012435597
      3194.64      0.72968916     0.012580014
      3197.83      0.72956906     0.012734043
      3201.03      0.73646883     0.012820909
      3204.23      0.73531574     0.012715373
      3207.44      0.73194129     0.012737131
      3210.64      0.73455410     0.012948184
      3213.85      0.73601414     0.013374576
      3217.07      0.74197969     0.013927245
      3220.28      0.74431606     0.014656237
      3223.51      0.74521836     0.015259673
      3226.73      0.74592754     0.015651299
      3229.96      0.75919749     0.016005772
      3233.19      0.77392126     0.016492301
      3236.42      0.78260568     0.016780994
      3239.66      0.78277996     0.017106306
      3242.90      0.78700898     0.017156945
      3246.14      0.78886643     0.017057428
      3249.39      0.79784180     0.016894589
      3252.64      0.79974906     0.017130851
      3255.89      0.80302171     0.017449595
      3259.14      0.80748672     0.017915594
      3262.40      0.80994535     0.018235775
      3265.67      0.80850089     0.018295550
      3268.93      0.81601674     0.017927754
      3272.20      0.82134718     0.017596421
      3275.47      0.81839805     0.017602008
      3278.75      0.82020443     0.017787890
      3282.03      0.81128973     0.018651001
      3285.31      0.81348861     0.017737667
      3288.60      0.81812240     0.017330789
      3291.88      0.82260773     0.017087917
      3295.18      0.82047138     0.017026694
      3298.47      0.81674300     0.016858261
      3301.77      0.81730671     0.016335516
      3305.07      0.81895892     0.016019735
      3308.38      0.81999361     0.015690348
      3311.69      0.82101123     0.015501825
      3315.00      0.81726607     0.015437496
      3318.31      0.81794277     0.015013385
      3321.63      0.81362601     0.014735194
      3324.95      0.81824631     0.014778597
      3328.28      0.81501480     0.014717786
      3331.61      0.81054783     0.014594671
      3334.94      0.80078388     0.014231532
      3338.27      0.79191280     0.014421042
      3341.61      0.79048671     0.014870145
      3344.95      0.79158194     0.015187400
      3348.30      0.79583549     0.015360961
      3351.65      0.79352031     0.016011436
      3355.00      0.79083626     0.016830498
      3358.35      0.78563551     0.017960455
      3361.71      0.78668658     0.018506428
      3365.07      0.78449462     0.018650045
      3368.44      0.78778618     0.018321397
      3371.81      0.77718534     0.018049865
      3375.18      0.77508035     0.017671162
      3378.56      0.77355727     0.017421866
      3381.94      0.77081533     0.016906320
      3385.32      0.77335555     0.015540720
      3388.70      0.76391987     0.014510807
      3392.09      0.75509223     0.014101276
      3395.48      0.75227670     0.013941201
      3398.88      0.74262127     0.014167808
      3402.28      0.73615802     0.014223952
      3405.68      0.72355468     0.014296501
      3409.09      0.71834817     0.014346470
      3412.49      0.71231562     0.014649921
      3415.91      0.70425847     0.015095178
      3419.32      0.70452759     0.015173247
      3422.74      0.70223091     0.015400676
      3426.17      0.70112845     0.015389010
      3429.59      0.69796902     0.015383206
      3433.02      0.69522490     0.015289572
      3436.45      0.69694650     0.015344812
      3439.89      0.69711348     0.015471770
      3443.33      0.70292582     0.015281356
      3446.78      0.70031700     0.015234831
      3450.22      0.70138528     0.015305986
      3453.67      0.70200391     0.015354007
      3457.13      0.69637269     0.015153889
      3460.58      0.69114964     0.015149750
      3464.04      0.69784938     0.015237717
      3467.51      0.70113022     0.015569146
      3470.98      0.70094663     0.015895786
      3474.45      0.70052477     0.016056036
      3477.92      0.69967338     0.016233393
      3481.40      0.69720853     0.016418609
      3484.88      0.69355364     0.016771499
      3488.37      0.68819478     0.017153879
      3491.86      0.68709608     0.017761325
      3495.35      0.68824722     0.018814661
      3498.84      0.68409999     0.020203175
      3502.34      0.67766335     0.023145285
      3505.84      0.67745310     0.024632374
      3509.35      0.67682805     0.026986823
      3512.86      0.67596154     0.030141232
      3516.37      0.67772878     0.034001314
      3519.89      0.67903796     0.040393128
      3523.41      0.69092656     0.048362094
