# starting wavelength =        1889.7663
# ending wavelength =        3288.6400
# O2 telluric scale =        0
# O2 telluric shift =        0
# H2O telluric scale =        0
# H2O telluric shift =        0
      1890.25      0.54443864      0.15843251
      1892.15      0.55065400      0.15500490
      1894.04      0.52565025      0.15165706
      1895.93      0.53622242      0.14847432
      1897.83      0.49408877      0.14542652
      1899.73      0.51057413      0.14214811
      1901.62      0.51086554      0.13958288
      1903.53      0.50069657      0.13699593
      1905.43      0.53305197      0.13469328
      1907.34      0.49979916      0.13206875
      1909.24      0.46821591      0.12990622
      1911.15      0.47730507      0.12785708
      1913.06      0.44760933      0.12558043
      1914.98      0.43102305      0.12392938
      1916.89      0.45629988      0.12233190
      1918.81      0.46414851      0.12067801
      1920.73      0.45112163      0.11870498
      1922.65      0.44590843      0.11722961
      1924.57      0.42684616      0.11580090
      1926.50      0.42383004      0.11395365
      1928.42      0.44294107      0.11237213
      1930.35      0.49293840      0.11087674
      1932.28      0.49364337      0.10928295
      1934.21      0.44457688      0.10706671
      1936.15      0.45455932      0.10562843
      1938.08      0.43291585      0.10457058
      1940.02      0.40956120      0.10338463
      1941.96      0.42786382      0.10251558
      1943.91      0.43834398      0.10166985
      1945.85      0.44809316      0.10056076
      1947.79      0.44053066     0.099619174
      1949.74      0.42609031     0.098146148
      1951.69      0.45686779     0.096851291
      1953.64      0.45200846     0.095860538
      1955.60      0.47384442     0.094910577
      1957.55      0.48918424     0.094269362
      1959.51      0.47656079     0.093614026
      1961.47      0.48407869     0.092745249
      1963.43      0.48822594     0.092115393
      1965.40      0.46850458     0.091186128
      1967.36      0.44412011     0.090480372
      1969.33      0.44002386     0.089758498
      1971.30      0.42681689     0.088763759
      1973.27      0.42719523     0.088027023
      1975.24      0.42814397     0.087062515
      1977.22      0.43570280     0.086323429
      1979.20      0.45094342     0.085553546
      1981.18      0.47305311     0.084614345
      1983.16      0.49285732     0.083847342
      1985.14      0.47677872     0.082941797
      1987.12      0.49287678     0.082292936
      1989.11      0.48220352     0.081448859
      1991.10      0.45969598     0.080874454
      1993.09      0.45888547     0.080329530
      1995.09      0.45040237     0.079609599
      1997.08      0.46463082     0.079130498
      1999.08      0.47022018     0.078492023
      2001.08      0.48334406     0.078061710
      2003.08      0.51436213     0.077524704
      2005.08      0.53503517     0.077174015
      2007.09      0.51123863     0.076792606
      2009.09      0.49905415     0.076517038
      2011.10      0.49327163     0.076143008
      2013.11      0.48919891     0.075881672
      2015.13      0.50017735     0.075438171
      2017.14      0.49907100     0.075109929
      2019.16      0.50743366     0.074809529
      2021.18      0.52720881     0.074624287
      2023.20      0.51733582     0.074381440
      2025.22      0.49861795     0.074225056
      2027.25      0.50614213     0.073915286
      2029.28      0.51389081     0.073723980
      2031.31      0.53099690     0.073465465
      2033.34      0.54961330     0.073276186
      2035.37      0.55973167     0.073028487
      2037.41      0.60031393     0.072873339
      2039.44      0.61812382     0.072585066
      2041.48      0.64703087     0.072398983
      2043.53      0.66383477     0.072262112
      2045.57      0.66969724     0.072046429
      2047.61      0.65812670     0.071920196
      2049.66      0.64459329     0.071609631
      2051.71      0.62815373     0.071496961
      2053.76      0.62329888     0.071139152
      2055.82      0.61440870     0.070819550
      2057.87      0.63002678     0.070627921
      2059.93      0.59881035     0.070326745
      2061.99      0.61852744     0.070131591
      2064.05      0.60536403     0.069729579
      2066.12      0.61209496     0.069302034
      2068.18      0.61426683     0.069137058
      2070.25      0.61173312     0.068773721
      2072.32      0.61485658     0.068374632
      2074.39      0.62800884     0.068064216
      2076.47      0.59137503     0.067667703
      2078.55      0.58088315     0.067240500
      2080.62      0.56536136     0.066738237
      2082.71      0.55179296     0.066264586
      2084.79      0.53684332     0.065856969
      2086.87      0.54675622     0.065331518
      2088.96      0.54612292     0.064845738
      2091.05      0.52469859     0.064437951
      2093.14      0.52247095     0.063925951
      2095.23      0.52146562     0.063474227
      2097.33      0.50381940     0.063262021
      2099.43      0.51878269     0.062800656
      2101.52      0.50894249     0.062254041
      2103.63      0.50861012     0.061941815
      2105.73      0.51343924     0.061456638
      2107.84      0.50501803     0.060962913
      2109.94      0.49144757     0.060484795
      2112.05      0.49630947     0.060159179
      2114.17      0.48683892     0.059793921
      2116.28      0.50557992     0.059337714
      2118.40      0.50126464     0.058878603
      2120.52      0.49716634     0.058619645
      2122.64      0.50110854     0.058313216
      2124.76      0.50098358     0.058021548
      2126.88      0.49638098     0.057767415
      2129.01      0.50418586     0.057390389
      2131.14      0.51245750     0.057092908
      2133.27      0.52036102     0.056647339
      2135.40      0.54159181     0.056169602
      2137.54      0.53445637     0.055929387
      2139.68      0.53088210     0.055526282
      2141.82      0.52173603     0.055137140
      2143.96      0.51136325     0.054741854
      2146.10      0.48453430     0.054444720
      2148.25      0.49513971     0.054056566
      2150.40      0.48149266     0.053597348
      2152.55      0.47709280     0.053164215
      2154.70      0.47436294     0.052700637
      2156.86      0.48380410     0.052343285
      2159.01      0.48212712     0.051904890
      2161.17      0.48589053     0.051523774
      2163.33      0.47727517     0.051129480
      2165.50      0.47535304     0.050731412
      2167.66      0.47132738     0.050365608
      2169.83      0.46712797     0.050104967
      2172.00      0.46283159     0.049763757
      2174.17      0.47959486     0.049413879
      2176.35      0.48356089     0.049086945
      2178.52      0.47653498     0.048731115
      2180.70      0.47758914     0.048388494
      2182.88      0.48233735     0.048042129
      2185.07      0.48224699     0.047755947
      2187.25      0.47605875     0.047538646
      2189.44      0.46174500     0.047259382
      2191.63      0.46769350     0.046916658
      2193.82      0.47609295     0.046620934
      2196.01      0.48589495     0.046331330
      2198.21      0.47394042     0.046096381
      2200.41      0.47840915     0.045848957
      2202.61      0.46507093     0.045654222
      2204.81      0.46633117     0.045437838
      2207.02      0.46286608     0.045213671
      2209.22      0.46348668     0.045034733
      2211.43      0.45438425     0.044894988
      2213.64      0.44734740     0.044745378
      2215.86      0.45006029     0.044565398
      2218.07      0.45167764     0.044695314
      2220.29      0.45617977     0.044877659
      2222.51      0.46201402     0.045120442
      2224.73      0.46347350     0.045208774
      2226.96      0.49322782     0.044575244
      2229.19      0.49620668     0.044108398
      2231.42      0.51060986     0.043728565
      2233.65      0.49531698     0.043466364
      2235.88      0.48189534     0.043252238
      2238.12      0.48261833     0.043037746
      2240.36      0.48484041     0.042893454
      2242.60      0.48723779     0.042785331
      2244.84      0.48039860     0.042662429
      2247.08      0.48224840     0.042594290
      2249.33      0.49511017     0.042492382
      2251.58      0.50560148     0.042469283
      2253.83      0.51190431     0.042433419
      2256.09      0.52428969     0.042450041
      2258.34      0.53868124     0.042430739
      2260.60      0.55820956     0.042388642
      2262.86      0.55625536     0.042308692
      2265.12      0.56965350     0.042290038
      2267.39      0.57786241     0.042219348
      2269.66      0.58249438     0.042152408
      2271.93      0.59111130     0.042127338
      2274.20      0.59981736     0.042096145
      2276.47      0.63094627     0.042041240
      2278.75      0.63009110     0.042008462
      2281.03      0.63610322     0.041950309
      2283.31      0.64620619     0.041890905
      2285.59      0.65700787     0.041779702
      2287.88      0.66383963     0.041713065
      2290.17      0.67624092     0.041657308
      2292.46      0.68151882     0.041517112
      2294.75      0.68518158     0.041461054
      2297.04      0.68590538     0.041424994
      2299.34      0.68263117     0.041350013
      2301.64      0.67152203     0.041205119
      2303.94      0.68300974     0.041110280
      2306.25      0.68962602     0.040999711
      2308.55      0.69023774     0.040785331
      2310.86      0.68385229     0.040602366
      2313.17      0.68079079     0.040482956
      2315.49      0.68163864     0.040322969
      2317.80      0.68561204     0.040151809
      2320.12      0.68570501     0.039951498
      2322.44      0.68553755     0.039696739
      2324.76      0.69938770     0.039485252
      2327.09      0.68737098     0.039267276
      2329.41      0.69499710     0.039053855
      2331.74      0.69211798     0.038814949
      2334.08      0.68690150     0.038529701
      2336.41      0.67763359     0.038347880
      2338.75      0.67919443     0.038129924
      2341.08      0.67874690     0.037911624
      2343.43      0.70068109     0.037674010
      2345.77      0.71167284     0.037358129
      2348.12      0.71639953     0.037153021
      2350.46      0.72354407     0.036935029
      2352.81      0.71038984     0.036721961
      2355.17      0.69716838     0.036439338
      2357.52      0.69041459     0.036227761
      2359.88      0.68553633     0.036013101
      2362.24      0.68344952     0.035721460
      2364.60      0.67542581     0.035514490
      2366.97      0.67042617     0.035318262
      2369.33      0.66995469     0.035130298
      2371.70      0.66836684     0.034884213
      2374.08      0.66782217     0.034718146
      2376.45      0.66418242     0.034569471
      2378.83      0.64998303     0.034379334
      2381.20      0.65237924     0.034240477
      2383.59      0.65164922     0.034078061
      2385.97      0.66356249     0.033908807
      2388.36      0.66896307     0.033801922
      2390.75      0.67311737     0.033683517
      2393.14      0.66267526     0.033583837
      2395.53      0.67319655     0.033559799
      2397.93      0.67352424     0.033568547
      2400.32      0.66611717     0.033553447
      2402.72      0.66023995     0.033336076
      2405.13      0.67054410     0.033051949
      2407.53      0.68503274     0.032748673
      2409.94      0.69050192     0.032529612
      2412.35      0.68165947     0.032383460
      2414.76      0.67969811     0.032276527
      2417.18      0.67640748     0.032172574
      2419.59      0.68581751     0.031987574
      2422.01      0.69864509     0.031873377
      2424.44      0.70921331     0.031728760
      2426.86      0.71949329     0.031623551
      2429.29      0.71495626     0.031514617
      2431.72      0.72591680     0.031369371
      2434.15      0.72094573     0.031272664
      2436.58      0.72704689     0.031117426
      2439.02      0.73304743     0.031005175
      2441.46      0.74750276     0.030864241
      2443.90      0.75453425     0.030730219
      2446.34      0.77448278     0.030574849
      2448.79      0.77061024     0.030473476
      2451.24      0.77478959     0.030359880
      2453.69      0.78198649     0.030217405
      2456.14      0.78643794     0.030112586
      2458.60      0.79013240     0.029965359
      2461.06      0.80504472     0.029855149
      2463.52      0.80308165     0.029704590
      2465.98      0.80038250     0.029597569
      2468.45      0.80607127     0.029472816
      2470.92      0.80750580     0.029381959
      2473.39      0.81649961     0.029250901
      2475.86      0.82715746     0.029171889
      2478.34      0.83607219     0.029038209
      2480.82      0.83822049     0.028922467
      2483.30      0.84271736     0.028838931
      2485.78      0.83848748     0.028732459
      2488.27      0.84609528     0.028667569
      2490.76      0.85648791     0.040054313
      2493.25      0.86642650     0.039944423
      2495.74      0.86866849     0.039769274
      2498.24      0.85952094     0.039683292
      2500.74      0.84856558     0.039624849
      2503.24      0.86454388     0.039567170
      2505.74      0.85422032     0.039437680
      2508.25      0.86688475     0.039396741
      2510.75      0.84881045     0.039366183
      2513.26      0.85276772     0.039329029
      2515.78      0.84624946     0.039180327
      2518.29      0.85070480     0.039249635
      2520.81      0.84525293     0.039120323
      2523.33      0.85620746     0.039079505
      2525.86      0.87147484     0.038992386
      2528.38      0.86649738     0.038898712
      2530.91      0.85507150     0.038704306
      2533.44      0.84157027     0.038667229
      2535.98      0.82538040     0.038497069
      2538.51      0.82040678     0.038448682
      2541.05      0.81469313     0.038319665
      2543.59      0.80270349     0.038112011
      2546.13      0.79113828     0.037979756
      2548.68      0.79498297     0.037810078
      2551.23      0.79389617     0.037705980
      2553.78      0.76470876     0.037508726
      2556.34      0.72871570     0.037433938
      2558.89      0.69772746     0.037172898
      2561.45      0.68332680     0.036996989
      2564.01      0.66663625     0.036880688
      2566.58      0.65793091     0.036671079
      2569.14      0.63136253     0.036543559
      2571.71      0.60581462     0.036426557
      2574.28      0.56176974     0.036309197
      2576.86      0.54048385     0.036223618
      2579.44      0.51986083     0.036050576
      2582.01      0.50656779     0.035955622
      2584.60      0.51006131     0.035876111
      2587.18      0.49345032     0.035818844
      2589.77      0.47995813     0.035637395
      2592.36      0.47815563     0.035595415
      2594.95      0.45408284     0.035443044
      2597.55      0.43633973     0.035391220
      2600.14      0.45572555     0.035227211
      2602.74      0.44330406     0.035199734
      2605.35      0.42407924     0.035123523
      2607.95      0.42093418     0.034984216
      2610.56      0.40787313     0.034930620
      2613.17      0.41343484     0.034734133
      2615.79      0.41725841     0.034591787
      2618.40      0.42224371     0.034402478
      2621.02      0.42291350     0.034344404
      2623.64      0.43644297     0.034127210
      2626.26      0.42861702     0.034005687
      2628.89      0.44288259     0.033892411
      2631.52      0.45579102     0.033801230
      2634.15      0.45859584     0.033687422
      2636.79      0.48003110     0.033528725
      2639.42      0.49265699     0.033389533
      2642.06      0.50400196     0.033284174
      2644.70      0.51998966     0.033215549
      2647.35      0.54232603     0.033109877
      2650.00      0.54927389     0.033070469
      2652.65      0.55130712     0.033066889
      2655.30      0.55460338     0.033035620
      2657.96      0.56936175     0.032981607
      2660.61      0.57769123     0.032885184
      2663.27      0.58787815     0.032876369
      2665.94      0.59700570     0.032854208
      2668.60      0.61691319     0.032732050
      2671.27      0.62882325     0.032732930
      2673.94      0.66080664     0.032623726
      2676.62      0.68315542     0.032597438
      2679.29      0.71400906     0.032545351
      2681.97      0.73386767     0.032438136
      2684.66      0.76358623     0.032395301
      2687.34      0.81328086     0.032326897
      2690.03      0.82113994     0.032169071
      2692.72      0.84602048     0.032119055
      2695.41      0.87433769     0.032017664
      2698.11      0.88345794     0.031902520
      2700.81      0.90302370     0.031843715
      2703.51      0.91999928     0.031745801
      2706.21      0.92225351     0.031640681
      2708.92      0.93522467     0.031565000
      2711.62      0.96648429     0.031485486
      2714.34      0.99191244     0.031392831
      2717.05       1.0168319     0.031271556
      2719.77       1.0355173     0.031202363
      2722.49       1.0543141     0.031129695
      2725.21       1.0768189     0.030986969
      2727.94       1.1110400     0.030931845
      2730.66       1.1302534     0.030869156
      2733.39       1.1514818     0.030802391
      2736.13       1.1707377     0.030654075
      2738.86       1.1824077     0.030563206
      2741.60       1.2036891     0.030471937
      2744.34       1.2198484     0.030363529
      2747.09       1.2342670     0.030228713
      2749.84       1.2436008     0.030162280
      2752.59       1.2554370     0.030103878
      2755.34       1.2579013     0.030030737
      2758.09       1.2657404     0.029979583
      2760.85       1.2737753     0.029852007
      2763.61       1.2868057     0.029785021
      2766.38       1.2832751     0.029744255
      2769.14       1.2928929     0.029692890
      2771.91       1.3026775     0.029617249
      2774.69       1.3019051     0.029555951
      2777.46       1.3081226     0.029441479
      2780.24       1.3237420     0.029406441
      2783.02       1.3279252     0.029361296
      2785.80       1.3368085     0.029234329
      2788.59       1.3419141     0.029193953
      2791.38       1.3471499     0.029147093
      2794.17       1.3542860     0.029082783
      2796.96       1.3344318     0.029279626
      2799.76       1.3233033     0.029078792
      2802.56       1.3033146     0.028935685
      2805.36       1.2873064     0.028825259
      2808.17       1.2826093     0.028669108
      2810.98       1.2730426     0.028633045
      2813.79       1.2709504     0.028592491
      2816.60       1.2767276     0.028550286
      2819.42       1.2738683     0.028540586
      2822.24       1.2748012     0.028542046
      2825.06       1.2776802     0.028480534
      2827.88       1.2863086     0.028468748
      2830.71       1.2928554     0.028468600
      2833.54       1.3021545     0.028462749
      2836.38       1.3050410     0.028458143
      2839.21       1.3105234     0.028378522
      2842.05       1.3191226     0.028371217
      2844.90       1.3344447     0.028354451
      2847.74       1.3371411     0.028275255
      2850.59       1.3502492     0.028181129
      2853.44       1.3470034     0.028155747
      2856.29       1.3470201     0.028151736
      2859.15       1.3483436     0.028067146
      2862.01       1.3618107     0.027914812
      2864.87       1.3706393     0.027832737
      2867.74       1.3753641     0.027767513
      2870.60       1.3773443     0.027704376
      2873.47       1.3817520     0.027577046
      2876.35       1.3823205     0.027518214
      2879.22       1.3751864     0.027463211
      2882.10       1.3712835     0.027344172
      2884.99       1.3796532     0.027294916
      2887.87       1.3767577     0.027259760
      2890.76       1.3812405     0.027174387
      2893.65       1.3758860     0.027148866
      2896.54       1.3808893     0.027126692
      2899.44       1.3816121     0.027067529
      2902.34       1.3647780     0.027160667
      2905.24       1.3623427     0.027216296
      2908.15       1.3308759     0.027274652
      2911.06       1.3306098     0.027045648
      2913.97       1.3051315     0.026996252
      2916.88       1.2987849     0.026922071
      2919.80       1.2852456     0.026906905
      2922.72       1.2762023     0.026834467
      2925.64       1.2747082     0.026850864
      2928.57       1.2665352     0.026818839
      2931.50       1.2606167     0.026745018
      2934.43       1.2752332     0.026713382
      2937.36       1.2685648     0.026629911
      2940.30       1.2697057     0.026617014
      2943.24       1.2671196     0.026627162
      2946.18       1.2609175     0.026597681
      2949.13       1.2563313     0.026514276
      2952.08       1.2584082     0.026572514
      2955.03       1.2648283     0.026626214
      2957.99       1.2565909     0.026670042
      2960.94       1.2524927     0.026621008
      2963.90       1.2570193     0.026554393
      2966.87       1.2479582     0.026600264
      2969.84       1.2560797     0.026613879
      2972.81       1.2588365     0.026647677
      2975.78       1.2526854     0.026686096
      2978.76       1.2468397     0.026694250
      2981.73       1.2412249     0.026848675
      2984.72       1.2420635     0.026902981
      2987.70       1.2483704     0.026980204
      2990.69       1.2430585     0.027080674
      2993.68       1.2404260     0.027175125
      2996.67       1.2462896     0.027225152
      2999.67       1.2488258     0.027298328
      3002.67       1.2504356     0.027377163
      3005.67       1.2654459     0.027386028
      3008.68       1.2718401     0.027442694
      3011.69       1.2854791     0.027476802
      3014.70       1.2855262     0.027494560
      3017.71       1.2695384     0.027454264
      3020.73       1.2825840     0.027441133
      3023.75       1.2733901     0.027424496
      3026.78       1.2735829     0.027371881
      3029.80       1.2555683     0.027317020
      3032.83       1.2705006     0.027171811
      3035.87       1.2720629     0.027063925
      3038.90       1.2675574     0.026961625
      3041.94       1.2726735     0.026822328
      3044.98       1.2789071     0.026634988
      3048.03       1.2865219     0.026502194
      3051.08       1.2988743     0.026347433
      3054.13       1.2814806     0.026175548
      3057.18       1.2903113     0.026112644
      3060.24       1.2867764     0.025957130
      3063.30       1.2812244     0.025822918
      3066.36       1.2835142     0.025692319
      3069.43       1.2914923     0.025650135
      3072.50       1.2949707     0.025572835
      3075.57       1.3034403     0.025355078
      3078.65       1.3045314     0.025223782
      3081.73       1.3006426     0.025175427
      3084.81       1.2969645     0.025116386
      3087.89       1.3056033     0.024990942
      3090.98       1.2931728     0.024950465
      3094.07       1.2909472     0.024941714
      3097.17       1.2962719     0.024890172
      3100.26       1.3120332     0.024820923
      3103.36       1.3179228     0.024808736
      3106.47       1.3323964     0.024800228
      3109.58       1.3295670     0.024813762
      3112.68       1.3425678     0.024840800
      3115.80       1.3514902     0.024815514
      3118.91       1.3609594     0.024842421
      3122.03       1.3738337     0.024822423
      3125.15       1.3802791     0.024923819
      3128.28       1.3895983     0.024978802
      3131.41       1.3997257     0.025019008
      3134.54       1.4042838     0.025038843
      3137.67       1.4004535     0.025087860
      3140.81       1.4157019     0.025160052
      3143.95       1.4069389     0.025182023
      3147.10       1.4126468     0.025245055
      3150.24       1.4102043     0.025346561
      3153.39       1.4085390     0.025424658
      3156.55       1.4024225     0.025497179
      3159.70       1.3990056     0.025770179
      3162.86       1.4143699     0.025769840
      3166.03       1.4044367     0.025750211
      3169.19       1.4047031     0.025793837
      3172.36       1.3975111     0.025834462
      3175.54       1.3866354     0.025962094
      3178.71       1.3928473     0.026049874
      3181.89       1.3857941     0.026115153
      3185.07       1.3943328     0.026244355
      3188.26       1.3884614     0.026389955
      3191.45       1.3825509     0.026557247
      3194.64       1.3755000     0.026597966
      3197.83       1.3697047     0.026666015
      3201.03       1.3644507     0.026752851
      3204.23       1.3511658     0.026758130
      3207.44       1.3455944     0.026772637
      3210.64       1.3498083     0.026803167
      3213.85       1.3399193     0.026821175
      3217.07       1.3341044     0.026782254
      3220.28       1.3295187     0.026758082
      3223.51       1.3280557     0.026692197
      3226.73       1.3166057     0.026915719
      3229.96       1.3137702     0.027286952
      3233.19       1.3006476     0.027652799
      3236.42       1.3039437     0.028079770
      3239.66       1.2991775     0.028594083
      3242.90       1.2994726     0.029147780
      3246.14       1.3007844     0.029869701
      3249.39       1.3000381     0.030679980
      3252.64       1.2936220     0.031667991
      3255.89       1.2825129     0.032872467
      3259.14       1.2687205     0.034257262
      3262.40       1.2589828     0.036493921
      3265.67       1.2532748     0.038761363
      3268.93       1.2411679     0.042218499
      3272.20       1.2367725     0.046153819
      3275.47       1.2312562     0.051809792
      3278.75       1.2327690     0.060529808
      3282.03       1.2331427     0.069404924
      3285.31       1.2273316     0.085352276
      3288.60       1.2258414     0.094644158
