# starting wavelength =        3017.8580
# ending wavelength =        4752.8549
# O2 telluric scale =        0
# O2 telluric shift =        0
# H2O telluric scale =        0
# H2O telluric shift =        0
      3020.73      0.80131307     0.073898488
      3023.75      0.78547389     0.065501623
      3026.78      0.77053166     0.058143953
      3029.80      0.76102473     0.052305134
      3032.83      0.74894386     0.047383271
      3035.87      0.75664684     0.043877388
      3038.90      0.75279474     0.041362319
      3041.94      0.74129275     0.039159809
      3044.98      0.74252269     0.037374096
      3048.03      0.72869627     0.035718776
      3051.08      0.71963457     0.034517540
      3054.13      0.71654948     0.033474711
      3057.18      0.74476727     0.032585583
      3060.24      0.73523708     0.031845668
      3063.30      0.74756826     0.031040959
      3066.36      0.74888594     0.030453933
      3069.43      0.76328816     0.029809756
      3072.50      0.76880504     0.029429356
      3075.57      0.78630016     0.028974316
      3078.65      0.78957444     0.028711885
      3081.73      0.80506962     0.028550592
      3084.81      0.82595314     0.028252721
      3087.89      0.83686672     0.028038480
      3090.98      0.84524251     0.027804971
      3094.07      0.86067828     0.027669450
      3097.17      0.86480239     0.027427571
      3100.26      0.87382284     0.027318581
      3103.36      0.87645492     0.027089714
      3106.47      0.88624077     0.026958221
      3109.58      0.88904800     0.026760511
      3112.68      0.88465369     0.026763903
      3115.80      0.88671558     0.026589731
      3118.91      0.89838532     0.026509984
      3122.03      0.91357602     0.026410556
      3125.15      0.92873692     0.026347162
      3128.28      0.94163350     0.026324951
      3131.41      0.94903508     0.026346000
      3134.54      0.96300330     0.026104128
      3137.67      0.96868226     0.026064057
      3140.81      0.95127521     0.026085789
      3143.95      0.95541663     0.026028211
      3147.10      0.97663260     0.025931169
      3150.24      0.97609997     0.025818679
      3153.39      0.96995333     0.025893521
      3156.55      0.97170800     0.025961370
      3159.70      0.96150866     0.026185022
      3162.86      0.94995320     0.026271999
      3166.03      0.94701765     0.026239674
      3169.19      0.94257765     0.026059700
      3172.36      0.94717025     0.026185262
      3175.54      0.95297562     0.026267213
      3178.71      0.95255102     0.026287052
      3181.89      0.93343612     0.026517653
      3185.07      0.93771483     0.026624055
      3188.26      0.93272053     0.026922240
      3191.45      0.92787637     0.027164012
      3194.64      0.91483163     0.027384687
      3197.83      0.91665073     0.027430445
      3201.03      0.91624782     0.027493283
      3204.23      0.92325728     0.027602807
      3207.44      0.92465240     0.027624615
      3210.64      0.92041173     0.027669896
      3213.85      0.91259623     0.027702953
      3217.07      0.91355947     0.027727669
      3220.28      0.90289909     0.027612755
      3223.51      0.90050897     0.027570553
      3226.73      0.89326326     0.027346617
      3229.96      0.88791541     0.027161238
      3233.19      0.88692764     0.026982792
      3236.42      0.88519631     0.026731007
      3239.66      0.88657275     0.026406928
      3242.90      0.89228610     0.026322368
      3246.14      0.89886095     0.026021024
      3249.39      0.88953796     0.025603545
      3252.64      0.88696174     0.025117871
      3255.89      0.89394598     0.024736407
      3259.14      0.89852027     0.024463210
      3262.40      0.89457524     0.024209833
      3265.67      0.90015329     0.023884282
      3268.93      0.89872716     0.023486896
      3272.20      0.90045930     0.023181668
      3275.47      0.88998985     0.023070819
      3278.75      0.89024403     0.023058792
      3282.03      0.89534302     0.022946538
      3285.31      0.91368611     0.022929911
      3288.60      0.91477990     0.022710276
      3291.88      0.92877443     0.022511274
      3295.18      0.94445862     0.022373202
      3298.47      0.94685522     0.022418998
      3301.77      0.94823270     0.022354539
      3305.07      0.94673171     0.022343800
      3308.38      0.94952159     0.022431610
      3311.69      0.94979435     0.022563830
      3315.00      0.94608182     0.022741593
      3318.31      0.93984335     0.022838262
      3321.63      0.96513873     0.022774639
      3324.95      0.97179842     0.022752186
      3328.28      0.97750737     0.022770639
      3331.61      0.98222435     0.022773885
      3334.94      0.98122657     0.022678804
      3338.27      0.98194203     0.022709638
      3341.61      0.98217194     0.022667322
      3344.95      0.98023666     0.022538116
      3348.30      0.96330530     0.022435373
      3351.65      0.96732887     0.022278714
      3355.00      0.96436724     0.022069692
      3358.35      0.96124947     0.021975723
      3361.71      0.95840646     0.021811865
      3365.07      0.95188301     0.021606201
      3368.44      0.94351615     0.021442464
      3371.81      0.93983850     0.021264509
      3375.18      0.92881996     0.021000445
      3378.56      0.92609505     0.020743529
      3381.94      0.92894894     0.020607523
      3385.32      0.92903163     0.020394897
      3388.70      0.92278352     0.020274909
      3392.09      0.92065391     0.020082824
      3395.48      0.91768756     0.019887298
      3398.88      0.91088072     0.019728484
      3402.28      0.91463123     0.019643074
      3405.68      0.91997466     0.019576112
      3409.09      0.92520461     0.019458164
      3412.49      0.92641655     0.019358016
      3415.91      0.93741873     0.019313612
      3419.32      0.93153743     0.019266886
      3422.74      0.93945003     0.019225141
      3426.17      0.94164298     0.019331205
      3429.59      0.94388452     0.019352669
      3433.02      0.94330477     0.019187980
      3436.45      0.93772201     0.018975713
      3439.89      0.94349993     0.018937629
      3443.33      0.94621088     0.019056269
      3446.78      0.95742853     0.019060620
      3450.22      0.96688025     0.018987896
      3453.67      0.97717847     0.018924531
      3457.13      0.97111654     0.018984987
      3460.58      0.97930673     0.019040717
      3464.04      0.99132522     0.019087553
      3467.51      0.99614479     0.019230764
      3470.98       1.0038557     0.019333105
      3474.45       1.0122456     0.019528996
      3477.92       1.0136070     0.019676863
      3481.40       1.0211816     0.019907284
      3484.88       1.0342979     0.020182567
      3488.37       1.0350999     0.020438692
      3491.86       1.0465621     0.020582814
      3495.35       1.0622538     0.020868998
      3498.84       1.0641139     0.021180185
      3502.34       1.0728434     0.021417076
      3505.84       1.0813093     0.021609333
      3509.35       1.0860983     0.021814931
      3512.86       1.0943341     0.022024425
      3516.37       1.0943171     0.022147455
      3519.89       1.1076700     0.022223688
      3523.41       1.1083537     0.022247454
      3526.93       1.1130333     0.022273640
      3530.46       1.1224503     0.022240320
      3533.99       1.1284865     0.022193493
      3537.53       1.1316167     0.022101095
      3541.06       1.1297293     0.021917651
      3544.60       1.1331584     0.021656728
      3548.15       1.1289240     0.021461798
      3551.70       1.1364532     0.021247500
      3555.25       1.1311701     0.021025833
      3558.80       1.1238232     0.020849266
      3562.36       1.1181803     0.020682508
      3565.92       1.1156052     0.020392082
      3569.49       1.1079631     0.020044296
      3573.06       1.1059895     0.019848337
      3576.64       1.1054781     0.019745211
      3580.21       1.1004381     0.019689933
      3583.79       1.1023185     0.019501133
      3587.38       1.0998698     0.019304127
      3590.96       1.1084194     0.019088709
      3594.55       1.1109440     0.018973789
      3598.15       1.1162910     0.018853121
      3601.75       1.1189424     0.018759627
      3605.35       1.1109320     0.018691956
      3608.96       1.1123496     0.018530884
      3612.56       1.1102063     0.018451748
      3616.18       1.1020402     0.018325331
      3619.79       1.1070599     0.018303832
      3623.41       1.1024472     0.018232773
      3627.04       1.1035478     0.018159882
      3630.66       1.1071660     0.018214543
      3634.29       1.0979164     0.018384482
      3637.93       1.0868757     0.018333242
      3641.57       1.0873535     0.018133658
      3645.21       1.0829905     0.017961850
      3648.86       1.0802581     0.018143628
      3652.50       1.0745670     0.018457135
      3656.16       1.0730571     0.018718736
      3659.81       1.0677529     0.018547236
      3663.47       1.0536102     0.018410559
      3667.14       1.0458577     0.018356605
      3670.80       1.0454245     0.018520486
      3674.48       1.0335533     0.018600587
      3678.15       1.0259106     0.018752675
      3681.83       1.0241934     0.019058934
      3685.51       1.0221519     0.019297402
      3689.20       1.0147577     0.019585441
      3692.88       1.0113846     0.020069382
      3696.58      0.99540916     0.020564079
      3700.27      0.99620219     0.020869308
      3703.98       1.0001803     0.021304217
      3707.68       1.0008647     0.021881951
      3711.39      0.99649011     0.022416659
      3715.10      0.99858351     0.022833834
      3718.81       1.0012899     0.023250094
      3722.53       1.0167068     0.023579539
      3726.26       1.0219404     0.024061817
      3729.98       1.0283406     0.024793923
      3733.71       1.0323420     0.024955148
      3737.45       1.0189220     0.025060153
      3741.18       1.0214499     0.025100648
      3744.93       1.0196059     0.025113127
      3748.67       1.0246831     0.024960020
      3752.42       1.0258482     0.024791734
      3756.17       1.0260484     0.024483608
      3759.93       1.0493291     0.023852099
      3763.69       1.0595661     0.023363642
      3767.45       1.0534017     0.022920510
      3771.22       1.0560947     0.022727717
      3774.99       1.0556752     0.022617268
      3778.77       1.0418447     0.022233777
      3782.54       1.0402127     0.021626736
      3786.33       1.0502092     0.021241722
      3790.11       1.0484686     0.021221885
      3793.90       1.0308205     0.021614657
      3797.70       1.0227443     0.021511037
      3801.50       1.0312966     0.021018538
      3805.30       1.0330497     0.020701974
      3809.10       1.0290898     0.020543645
      3812.91       1.0298220     0.020639899
      3816.73       1.0300964     0.020745411
      3820.54       1.0328707     0.020470389
      3824.36       1.0457612     0.020470390
      3828.19       1.0526787     0.020492013
      3832.02       1.0568835     0.020267728
      3835.85       1.0556368     0.020263607
      3839.68       1.0607945     0.020534799
      3843.52       1.0655218     0.020705664
      3847.37       1.0797965     0.020720345
      3851.22       1.0788441     0.021111862
      3855.07       1.0722532     0.021589471
      3858.92       1.0683320     0.021500869
      3862.78       1.0754046     0.021642388
      3866.64       1.0740377     0.021848854
      3870.51       1.0773610     0.022247376
      3874.38       1.0689869     0.022705919
      3878.26       1.0699331     0.022745698
      3882.13       1.0722130     0.022667212
      3886.02       1.0760706     0.022958854
      3889.90       1.0816370     0.023247061
      3893.79       1.0903051     0.023569504
      3897.69       1.0918564     0.023357642
      3901.59       1.0800706     0.023224025
      3905.49       1.0866708     0.023035122
      3909.39       1.0845710     0.022993878
      3913.30       1.0709837     0.022770861
      3917.22       1.0554754     0.022806680
      3921.13       1.0541737     0.022903577
      3925.06       1.0442904     0.022871970
      3928.98       1.0527208     0.022525890
      3932.91       1.0547381     0.022448859
      3936.84       1.0551922     0.022457808
      3940.78       1.0417724     0.022698122
      3944.72       1.0344595     0.022778525
      3948.67       1.0469066     0.023071457
      3952.61       1.0546166     0.023110666
      3956.57       1.0476376     0.023548471
      3960.52       1.0369391     0.023886748
      3964.48       1.0408349     0.024535405
      3968.45       1.0395899     0.024811587
      3972.42       1.0565389     0.025085781
      3976.39       1.0610738     0.025294623
      3980.37       1.0609441     0.025455479
      3984.35       1.0632898     0.025410161
      3988.33       1.0624202     0.025663256
      3992.32       1.0649173     0.025760011
      3996.31       1.0571149     0.026006758
      4000.31       1.0628176     0.026039412
      4004.31       1.0584930     0.026128636
      4008.31       1.0575653     0.026426341
      4012.32       1.0533614     0.026465078
      4016.33       1.0791856     0.026485616
      4020.35       1.0807124     0.026827562
      4024.37       1.0945445     0.027237606
      4028.40       1.1046761     0.026995194
      4032.42       1.1028608     0.026604541
      4036.46       1.1094130     0.026650974
      4040.50       1.0989006     0.026925915
      4044.54       1.1056752     0.027069588
      4048.58       1.0902819     0.026635564
      4052.63       1.0633565     0.026329730
      4056.68       1.0541634     0.026263028
      4060.74       1.0618403     0.026144964
      4064.80       1.0585216     0.026095015
      4068.86       1.0600552     0.025687190
      4072.93       1.0691270     0.025385578
      4077.01       1.0935637     0.025076223
      4081.08       1.1023192     0.024793183
      4085.17       1.1041078     0.024420717
      4089.25       1.1041617     0.024280298
      4093.34       1.0965223     0.024171045
      4097.43       1.0884827     0.024013967
      4101.53       1.0846720     0.023678206
      4105.63       1.0732752     0.023406365
      4109.74       1.0621331     0.023040756
      4113.85       1.0574661     0.022602503
      4117.96       1.0487970     0.022244571
      4122.08       1.0386149     0.021902918
      4126.20       1.0354740     0.021784810
      4130.33       1.0379459     0.021543889
      4134.46       1.0277768     0.021278758
      4138.59       1.0245933     0.021101135
      4142.73       1.0195079     0.020971917
      4146.88       1.0137101     0.021091960
      4151.02       1.0043698     0.021252404
      4155.18       1.0067821     0.021695205
      4159.33       1.0043752     0.021791372
      4163.49      0.99774168     0.022173998
      4167.65      0.99101179     0.022360108
      4171.82      0.99324898     0.022450287
      4175.99       1.0063680     0.022676390
      4180.17       1.0002880     0.023267820
      4184.35      0.99439230     0.023833143
      4188.54      0.98647433     0.024314662
      4192.72      0.97340089     0.024702756
      4196.92      0.96210929     0.025509676
      4201.11      0.94913788     0.026189864
      4205.31      0.93751432     0.026868955
      4209.52      0.91077288     0.027244553
      4213.73      0.90061733     0.028074926
      4217.94      0.92700590     0.028752342
      4222.16      0.93291979     0.029590019
      4226.38      0.92522345     0.020084003
      4230.61      0.91753320     0.020528264
      4234.84      0.91082088     0.020885276
      4239.08      0.90259836     0.021291878
      4243.32      0.90482516     0.021592905
      4247.56      0.90365529     0.021882508
      4251.81      0.90019962     0.022061347
      4256.06      0.89165311     0.022352823
      4260.32      0.89048078     0.022412580
      4264.58      0.88662666     0.022757035
      4268.84      0.86846022     0.023015048
      4273.11      0.86648640     0.023060534
      4277.38      0.86170026     0.022995529
      4281.66      0.85397006     0.023107011
      4285.94      0.84614000     0.023359209
      4290.23      0.84365963     0.023600471
      4294.52      0.83839396     0.023677383
      4298.81      0.82705170     0.023528729
      4303.11      0.83260498     0.023557603
      4307.42      0.84861177     0.023658689
      4311.72      0.85196341     0.023816048
      4316.04      0.85886635     0.023894081
      4320.35      0.86213400     0.023910775
      4324.67      0.87101215     0.023934250
      4329.00      0.86632333     0.023824359
      4333.33      0.87038662     0.023730335
      4337.66      0.86530533     0.023690048
      4342.00      0.86119435     0.023800005
      4346.34      0.85195899     0.023979902
      4350.69      0.85635111     0.023952759
      4355.04      0.86754422     0.023917233
      4359.39      0.87303237     0.023864923
      4363.75      0.88544176     0.023877130
      4368.12      0.89376469     0.023778103
      4372.48      0.89488971     0.023857361
      4376.86      0.90510573     0.023825660
      4381.23      0.91327779     0.023883175
      4385.61      0.92053931     0.023910880
      4390.00      0.92979221     0.024019316
      4394.39      0.94294219     0.023994095
      4398.79      0.95137706     0.024176513
      4403.18      0.95713919     0.024425053
      4407.59      0.96673882     0.024848660
      4412.00      0.97156198     0.024815168
      4416.41      0.98045211     0.024820759
      4420.82      0.99386623     0.024892961
      4425.25       1.0101857     0.024981273
      4429.67       1.0206390     0.025113755
      4434.10       1.0326485     0.025331645
      4438.54       1.0428206     0.025723400
      4442.97       1.0470831     0.026188012
      4447.42       1.0572950     0.026326002
      4451.86       1.0615690     0.026499543
      4456.32       1.0627261     0.026714363
      4460.77       1.0702352     0.027310694
      4465.24       1.0710494     0.027634706
      4469.70       1.0868009     0.027935911
      4474.17       1.0962930     0.028228100
      4478.65       1.1037498     0.028435633
      4483.12       1.0999286     0.028720492
      4487.61       1.1086376     0.028940619
      4492.09       1.1088779     0.028999128
      4496.59       1.1057127     0.029202932
      4501.08       1.0993109     0.029703570
      4505.58       1.1046081     0.029836089
      4510.09       1.1128519     0.029849514
      4514.60       1.1170701     0.029901115
      4519.12       1.1305073     0.030176850
      4523.63       1.1385452     0.030406389
      4528.16       1.1517553     0.030397691
      4532.69       1.1534779     0.030356252
      4537.22       1.1556655     0.030527653
      4541.76       1.1630124     0.030664956
      4546.30       1.1729648     0.030777788
      4550.85       1.1637702     0.030784293
      4555.40       1.1657261     0.030691612
      4559.95       1.1638958     0.030727346
      4564.51       1.1736620     0.030822031
      4569.08       1.1787298     0.030913734
      4573.65       1.1847251     0.031052348
      4578.22       1.1767595     0.031183154
      4582.80       1.1601014     0.031378244
      4587.38       1.1564487     0.031670340
      4591.97       1.1527957     0.031833492
      4596.56       1.1487725     0.031779218
      4601.16       1.1372823     0.031671021
      4605.76       1.1283249     0.031492545
      4610.37       1.1259483     0.031404041
      4614.98       1.1308721     0.031230096
      4619.59       1.1283589     0.030931588
      4624.21       1.1328280     0.030758820
      4628.84       1.1516738     0.030586317
      4633.47       1.1520147     0.030610026
      4638.10       1.1437980     0.030583258
      4642.74       1.1395987     0.030679852
      4647.38       1.1350594     0.030460004
      4652.03       1.1291685     0.030354909
      4656.68       1.1354480     0.030383089
      4661.34       1.1386830     0.030697428
      4666.00       1.1261994     0.030808195
      4670.67       1.1212229     0.030688284
      4675.33       1.1131534     0.030688729
      4680.01       1.1067576     0.030710164
      4684.69       1.0968200     0.030854031
      4689.38       1.0908313     0.031191474
      4694.07       1.0742954     0.031664233
      4698.76       1.0699895     0.032326725
      4703.46       1.0676278     0.032665147
      4708.16       1.0591763     0.032941856
      4712.87       1.0529840     0.033464890
      4717.58       1.0400435     0.033929003
      4722.30       1.0322667     0.034792444
      4727.03       1.0169732     0.035306543
      4731.75      0.99869133     0.036312150
      4736.48      0.99699430     0.036773700
      4741.22      0.97996539     0.037777486
      4745.96      0.96654716     0.038383720
      4750.71      0.96014112     0.039158422
