# starting wavelength =        1938.8000
# ending wavelength =        4794.5900
# O2 telluric scale =        0
# O2 telluric shift =        0
# H2O telluric scale =        0
# H2O telluric shift =        0
      1940.02      0.24820294      0.27671999
      1941.96      0.27487892      0.22727743
      1943.91      0.29629729      0.19830837
      1945.85      0.29460753      0.16942030
      1947.79      0.28895510      0.14667429
      1949.74      0.25795537      0.13373354
      1951.69      0.23211579      0.11920918
      1953.64      0.22582764      0.11062021
      1955.60      0.19125397      0.10230218
      1957.55      0.17520426     0.096005532
      1959.51      0.13489355     0.091877704
      1961.47      0.10316912     0.087524863
      1963.43     0.085055288     0.084523377
      1965.40     0.075574732     0.081357208
      1967.36     0.071919423     0.078842360
      1969.33     0.081943168     0.077056136
      1971.30     0.077875698     0.075094578
      1973.27     0.073314864     0.073463160
      1975.24     0.084857292     0.071941435
      1977.22     0.089111126     0.070213901
      1979.20      0.10644031     0.069255834
      1981.18      0.11133880     0.068526742
      1983.16      0.12553402     0.067851254
      1985.14      0.12523302     0.067326716
      1987.12      0.11087293     0.066561841
      1989.11      0.14097960     0.066022892
      1991.10      0.15899674     0.065805886
      1993.09      0.17331740     0.065553351
      1995.09      0.21388365     0.065407059
      1997.08      0.24002285     0.064886644
      1999.08      0.26972788     0.064547936
      2001.08      0.30545000     0.064060401
      2003.08      0.33318369     0.063643972
      2005.08      0.34111322     0.063010115
      2007.09      0.36612026     0.062690165
      2009.09      0.39481548     0.062393715
      2011.10      0.41165182     0.062430096
      2013.11      0.40913341     0.061638652
      2015.13      0.46406993     0.060914118
      2017.14      0.50751682     0.060318866
      2019.16      0.54289645     0.059475872
      2021.18      0.54872561     0.059244619
      2023.20      0.59193978     0.059006474
      2025.22      0.59723934     0.059254186
      2027.25      0.62013216     0.059053985
      2029.28      0.65318934     0.058924757
      2031.31      0.67977004     0.058780008
      2033.34      0.70707324     0.058370469
      2035.37      0.75656589     0.058037360
      2037.41      0.81177188     0.057833174
      2039.44      0.82457940     0.057465164
      2041.48      0.84091044     0.056986950
      2043.53      0.85708578     0.056878525
      2045.57      0.87992960     0.056761994
      2047.61      0.91556702     0.056140878
      2049.66      0.92197623     0.055816051
      2051.71      0.93162922     0.055313875
      2053.76      0.95321435     0.054407210
      2055.82      0.98179151     0.053751597
      2057.87       1.0015136     0.053077913
      2059.93      0.99389884     0.052292293
      2061.99       1.0161942     0.051695739
      2064.05       1.0186456     0.051118923
      2066.12       1.0257272     0.050339942
      2068.18       1.0314944     0.049845359
      2070.25       1.0157447     0.049538322
      2072.32       1.0275306     0.048800728
      2074.39       1.0513280     0.048431946
      2076.47       1.0499451     0.048090022
      2078.55       1.0617805     0.048319943
      2080.62       1.0672533     0.048464228
      2082.71       1.0773666     0.048189545
      2084.79       1.0773746     0.048211530
      2086.87       1.0926525     0.048571748
      2088.96       1.0873415     0.048572149
      2091.05       1.0983604     0.048639755
      2093.14       1.1054428     0.048489180
      2095.23       1.1157953     0.048691016
      2097.33       1.1140034     0.048877199
      2099.43       1.1121818     0.048913273
      2101.52       1.1094587     0.049134996
      2103.63       1.1249499     0.049462488
      2105.73       1.1233407     0.049777169
      2107.84       1.1242773     0.049920457
      2109.94       1.1348266     0.049967555
      2112.05       1.1496700     0.049948378
      2114.17       1.1662940     0.049661864
      2116.28       1.1585189     0.049555807
      2118.40       1.1500503     0.049307841
      2120.52       1.1111593     0.049219458
      2122.64       1.1073616     0.049142957
      2124.76       1.1191681     0.048934229
      2126.88       1.1262469     0.048662178
      2129.01       1.1161972     0.048005113
      2131.14       1.0995481     0.047751726
      2133.27       1.1001863     0.047076364
      2135.40       1.0969169     0.046690464
      2137.54       1.0835354     0.046187096
      2139.68       1.0547114     0.045875683
      2141.82       1.0457636     0.045366657
      2143.96       1.0457655     0.045047356
      2146.10       1.0465703     0.044625599
      2148.25       1.0483016     0.044091134
      2150.40       1.0559505     0.043832397
      2152.55       1.0548146     0.043343875
      2154.70       1.0517891     0.043138761
      2156.86       1.0490062     0.042954363
      2159.01       1.0490959     0.042894576
      2161.17       1.0486421     0.042782134
      2163.33       1.0406214     0.042814628
      2165.50       1.0372420     0.042421644
      2167.66       1.0301835     0.042432461
      2169.83       1.0097039     0.042249020
      2172.00      0.99999808     0.042168568
      2174.17      0.98272166     0.042133595
      2176.35      0.97012139     0.041933093
      2178.52      0.96283966     0.041859036
      2180.70      0.93751815     0.041705923
      2182.88      0.92312889     0.041590144
      2185.07      0.90872679     0.041297928
      2187.25      0.88628876     0.041064126
      2189.44      0.85305212     0.040592030
      2191.63      0.82557592     0.040488156
      2193.82      0.81488917     0.040059744
      2196.01      0.78771787     0.039981364
      2198.21      0.76705423     0.039628032
      2200.41      0.72565156     0.039362075
      2202.61      0.72667140     0.039082251
      2204.81      0.71481217     0.038698902
      2207.02      0.71478873     0.038619003
      2209.22      0.69140705     0.038287717
      2211.43      0.66375087     0.038217441
      2213.64      0.64135182     0.037915088
      2215.86      0.62205262     0.037816016
      2218.07      0.61755832     0.037807747
      2220.29      0.60740782     0.037768405
      2222.51      0.61373404     0.037642645
      2224.73      0.62447887     0.037359343
      2226.96      0.63572743     0.037177645
      2229.19      0.63651254     0.036998296
      2231.42      0.65152005     0.036780657
      2233.65      0.66699256     0.036677946
      2235.88      0.67515868     0.036524251
      2238.12      0.68688229     0.036433676
      2240.36      0.70245788     0.036676497
      2242.60      0.72983262     0.036354405
      2244.84      0.75491749     0.036013433
      2247.08      0.77386421     0.035853223
      2249.33      0.80172670     0.035719486
      2251.58      0.82088944     0.035514936
      2253.83      0.84245707     0.035591182
      2256.09      0.85446100     0.035563117
      2258.34      0.87491021     0.035691306
      2260.60      0.88818728     0.035866629
      2262.86      0.91878933     0.036096495
      2265.12      0.93408542     0.036154488
      2267.39      0.93958423     0.036523794
      2269.66      0.94515345     0.036797910
      2271.93      0.97132278     0.036743608
      2274.20      0.97316757     0.037018006
      2276.47      0.97936560     0.036968312
      2278.75      0.99790576     0.037052329
      2281.03       1.0094008     0.037104775
      2283.31       1.0068075     0.037138212
      2285.59       1.0164391     0.036991844
      2287.88       1.0184156     0.037026474
      2290.17       1.0357509     0.036722590
      2292.46       1.0392309     0.036564684
      2294.75       1.0381378     0.036444022
      2297.04       1.0325677     0.036301317
      2299.34       1.0481637     0.036117272
      2301.64       1.0482978     0.035880657
      2303.94       1.0492351     0.035741509
      2306.25       1.0429322     0.035731668
      2308.55       1.0416183     0.035402414
      2310.86       1.0535002     0.035126279
      2313.17       1.0456597     0.034814627
      2315.49       1.0350178     0.034775581
      2317.80       1.0389091     0.034591118
      2320.12       1.0417325     0.034348438
      2322.44       1.0424323     0.034295189
      2324.76       1.0367480     0.034279002
      2327.09       1.0472508     0.034299439
      2329.41       1.0668382     0.034233066
      2331.74       1.0692832     0.033845291
      2334.08       1.0747064     0.033768299
      2336.41       1.0910716     0.033644860
      2338.75       1.1075372     0.033415731
      2341.08       1.0926454     0.033316904
      2343.43       1.1115886     0.033108855
      2345.77       1.1091923     0.033181284
      2348.12       1.1073114     0.033156430
      2350.46       1.1186246     0.033032819
      2352.81       1.1292085     0.033043771
      2355.17       1.1301855     0.033055587
      2357.52       1.1407270     0.033054439
      2359.88       1.1532093     0.033036454
      2362.24       1.1694707     0.032998961
      2364.60       1.1648208     0.032974291
      2366.97       1.1643235     0.032831697
      2369.33       1.1672447     0.032784527
      2371.70       1.1674469     0.032851517
      2374.08       1.1649038     0.032678487
      2376.45       1.1805842     0.032579424
      2378.83       1.1925896     0.032459509
      2381.20       1.2010784     0.032231431
      2383.59       1.2174565     0.032095635
      2385.97       1.2216293     0.031978445
      2388.36       1.2242845     0.031965803
      2390.75       1.2273257     0.031759676
      2393.14       1.2209669     0.031659476
      2395.53       1.2120684     0.031590430
      2397.93       1.2020919     0.031411317
      2400.32       1.2131673     0.031288197
      2402.72       1.2154473     0.031155641
      2405.13       1.2064369     0.031007565
      2407.53       1.1939411     0.030772618
      2409.94       1.1908381     0.030743974
      2412.35       1.1888563     0.030615138
      2414.76       1.1786748     0.030514556
      2417.18       1.1809119     0.030340228
      2419.59       1.1697765     0.030307932
      2422.01       1.1582190     0.030289906
      2424.44       1.1287546     0.030286837
      2426.86       1.1223559     0.030258059
      2429.29       1.1097395     0.030139264
      2431.72       1.0889004     0.030123633
      2434.15       1.0610914     0.030134454
      2436.58       1.0556931     0.030122559
      2439.02       1.0313272     0.029983867
      2441.46       1.0122241     0.029913376
      2443.90      0.99245096     0.029842269
      2446.34      0.97806283     0.029754734
      2448.79      0.96861636     0.029668074
      2451.24      0.96588342     0.029698254
      2453.69      0.95238923     0.029573945
      2456.14      0.93622994     0.029563585
      2458.60      0.92814585     0.029519424
      2461.06      0.92007822     0.029473043
      2463.52      0.92650354     0.029421855
      2465.98      0.93023909     0.029345953
      2468.45      0.94472105     0.029189793
      2470.92      0.96442691     0.029108905
      2473.39      0.97825679     0.029033681
      2475.86      0.98990716     0.028963880
      2478.34       1.0034859     0.028898187
      2480.82       1.0082043     0.028834952
      2483.30       1.0237458     0.028768851
      2485.78       1.0408318     0.028530527
      2488.27       1.0538167     0.028477880
      2490.76       1.0654329     0.028423826
      2493.25       1.0906661     0.028327562
      2495.74       1.1032925     0.028235567
      2498.24       1.1237040     0.028148979
      2500.74       1.1408131     0.028058544
      2503.24       1.1510200     0.027986463
      2505.74       1.1721833     0.027850538
      2508.25       1.1954080     0.027808586
      2510.75       1.2040471     0.027767007
      2513.26       1.2107410     0.027740886
      2515.78       1.2078692     0.027755946
      2518.29       1.2124975     0.027740305
      2520.81       1.2285773     0.027723689
      2523.33       1.2424905     0.027724725
      2525.86       1.2413038     0.027657765
      2528.38       1.2443777     0.027665023
      2530.91       1.2470185     0.027678227
      2533.44       1.2478690     0.027668056
      2535.98       1.2545399     0.027614952
      2538.51       1.2593677     0.027563496
      2541.05       1.2585714     0.027522045
      2543.59       1.2589301     0.027385440
      2546.13       1.2537099     0.027348839
      2548.68       1.2533792     0.027199610
      2551.23       1.2445847     0.027180214
      2553.78       1.2346421     0.027159054
      2556.34       1.2279770     0.027123431
      2558.89       1.2231687     0.027105242
      2561.45       1.2176046     0.027087380
      2564.01       1.2015485     0.027019089
      2566.58       1.1928763     0.026807246
      2569.14       1.1778334     0.026710239
      2571.71       1.1655027     0.026648972
      2574.28       1.1451270     0.026635865
      2576.86       1.1291650     0.026651366
      2579.44       1.1157420     0.026688852
      2582.01       1.1116682     0.026653552
      2584.60       1.0987909     0.026721462
      2587.18       1.0900069     0.026777416
      2589.77       1.0780075     0.026813110
      2592.36       1.0751741     0.026852184
      2594.95       1.0598797     0.026906845
      2597.55       1.0586958     0.026942225
      2600.14       1.0416780     0.026974877
      2602.74       1.0287291     0.026994284
      2605.35       1.0078348     0.027014706
      2607.95      0.98209165     0.026882693
      2610.56      0.95986379     0.026821857
      2613.17      0.93913311     0.026814750
      2615.79      0.92429962     0.026700303
      2618.40      0.91507622     0.026375045
      2621.02      0.90760812     0.026193266
      2623.64      0.87601307     0.025996439
      2626.26      0.85629393     0.025789895
      2628.89      0.83727861     0.025509417
      2631.52      0.82433648     0.025393973
      2634.15      0.81229073     0.025217503
      2636.79      0.79914241     0.025073995
      2639.42      0.77490772     0.024887613
      2642.06      0.75006615     0.024785852
      2644.70      0.73360769     0.024705045
      2647.35      0.71343003     0.024601890
      2650.00      0.69879962     0.024556454
      2652.65      0.68542637     0.024513368
      2655.30      0.66697331     0.024445601
      2657.96      0.65509663     0.024412434
      2660.61      0.64037183     0.024425795
      2663.27      0.63117546     0.024381614
      2665.94      0.61873357     0.024259028
      2668.60      0.61196841     0.024192212
      2671.27      0.60909573     0.024182849
      2673.94      0.60139996     0.024122433
      2676.62      0.60273016     0.023992346
      2679.29      0.60688778     0.023884825
      2681.97      0.60754297     0.023722534
      2684.66      0.61413760     0.023639173
      2687.34      0.62378236     0.023595757
      2690.03      0.63401915     0.023440878
      2692.72      0.64747440     0.023382031
      2695.41      0.66495593     0.023245047
      2698.11      0.67860382     0.023209674
      2700.81      0.69560313     0.023272708
      2703.51      0.71950135     0.023216697
      2706.21      0.73974747     0.023225594
      2708.92      0.76167768     0.023206085
      2711.62      0.79851139     0.023265550
      2714.34      0.83197218     0.023426062
      2717.05      0.86284838     0.023451537
      2719.77      0.89456423     0.023457712
      2722.49      0.93573853     0.023411651
      2725.21      0.96536435     0.023540962
      2727.94      0.99163884     0.023574833
      2730.66       1.0427509     0.023545378
      2733.39       1.0783541     0.023589269
      2736.13       1.1230786     0.023616624
      2738.86       1.1533663     0.023650872
      2741.60       1.1912403     0.023621330
      2744.34       1.2308810     0.023672518
      2747.09       1.2651710     0.023800921
      2749.84       1.3075742     0.023774988
      2752.59       1.3425038     0.023829934
      2755.34       1.3863007     0.023802000
      2758.09       1.4208327     0.023747084
      2760.85       1.4573393     0.023645840
      2763.61       1.4792949     0.023667278
      2766.38       1.5091606     0.023714666
      2769.14       1.5385568     0.023739068
      2771.91       1.5534548     0.023747190
      2774.69       1.5785263     0.023888296
      2777.46       1.5893245     0.023895481
      2780.24       1.5976632     0.023898610
      2783.02       1.6072079     0.023893984
      2785.80       1.6100930     0.023945063
      2788.59       1.6097514     0.023912296
      2791.38       1.6131970     0.024002963
      2794.17       1.6164083     0.023938236
      2796.96       1.6185447     0.023962594
      2799.76       1.6192540     0.023987627
      2802.56       1.6152324     0.023977382
      2805.36       1.6015288     0.024036088
      2808.17       1.5865014     0.024124893
      2810.98       1.5802067     0.024044247
      2813.79       1.5644432     0.023974845
      2816.60       1.5487493     0.024008173
      2819.42       1.5401600     0.024009802
      2822.24       1.5230482     0.024121101
      2825.06       1.5080736     0.024146046
      2827.88       1.4948563     0.024266962
      2830.71       1.4836454     0.024376276
      2833.54       1.4700470     0.024455323
      2836.38       1.4615326     0.024671521
      2839.21       1.4579423     0.024736627
      2842.05       1.4449032     0.024928186
      2844.90       1.4432543     0.024966012
      2847.74       1.4369859     0.025113491
      2850.59       1.4425584     0.025209793
      2853.44       1.4463916     0.025219331
      2856.29       1.4505878     0.025309188
      2859.15       1.4608399     0.025357802
      2862.01       1.4702340     0.025395501
      2864.87       1.4834046     0.025537331
      2867.74       1.4904480     0.025774006
      2870.60       1.5038492     0.025446681
      2873.47       1.5054925     0.025342600
      2876.35       1.5114568     0.025096817
      2879.22       1.5210068     0.024991185
      2882.10       1.5230284     0.024945323
      2884.99       1.5313945     0.024874190
      2887.87       1.5245966     0.024810555
      2890.76       1.5325941     0.024840221
      2893.65       1.5429920     0.024856814
      2896.54       1.5554012     0.024875480
      2899.44       1.5613253     0.024844510
      2902.34       1.5750060     0.024961905
      2905.24       1.5812329     0.024955085
      2908.15       1.5878764     0.025039893
      2911.06       1.5945832     0.025132373
      2913.97       1.5945368     0.025313894
      2916.88       1.6027743     0.025414094
      2919.80       1.6075722     0.025466328
      2922.72       1.6172349     0.025421609
      2925.64       1.6242204     0.025441156
      2928.57       1.6304409     0.025362592
      2931.50       1.6429115     0.025161637
      2934.43       1.6520283     0.025116604
      2937.36       1.6603533     0.025002933
      2940.30       1.6762261     0.024980770
      2943.24       1.6901463     0.024930215
      2946.18       1.6946027     0.025032296
      2949.13       1.7062658     0.025086265
      2952.08       1.7070296     0.025094874
      2955.03       1.7063865     0.025175044
      2957.99       1.7043683     0.025209521
      2960.94       1.6998562     0.025404225
      2963.90       1.6996939     0.025565815
      2966.87       1.6944260     0.025622352
      2969.84       1.6788502     0.025751542
      2972.81       1.6670999     0.025843833
      2975.78       1.6535385     0.026195580
      2978.76       1.6338598     0.026513065
      2981.73       1.6148996     0.026352946
      2984.72       1.6027726     0.025999797
      2987.70       1.5801052     0.025946289
      2990.69       1.5700424     0.025826412
      2993.68       1.5564220     0.025856084
      2996.67       1.5343721     0.025798721
      2999.67       1.5197687     0.025655915
      3002.67       1.5033846     0.025584760
      3005.67       1.4939690     0.025500317
      3008.68       1.4873969     0.025340340
      3011.69       1.4733156     0.025270953
      3014.70       1.4649512     0.025265126
      3017.71       1.4567089     0.025237263
      3020.73       1.4460370     0.025184905
      3023.75       1.4423878     0.025194868
      3026.78       1.4390734     0.025475355
      3029.80       1.4306018     0.025692784
      3032.83       1.4320032     0.025770192
      3035.87       1.4258510     0.025895960
      3038.90       1.4348721     0.026062117
      3041.94       1.4410294     0.026068615
      3044.98       1.4482463     0.026144936
      3048.03       1.4547695     0.026321679
      3051.08       1.4662237     0.026434636
      3054.13       1.4709542     0.026659406
      3057.18       1.4821660     0.026935357
      3060.24       1.4909762     0.027202386
      3063.30       1.4926056     0.027446309
      3066.36       1.5076535     0.027610150
      3069.43       1.4997413     0.027912199
      3072.50       1.5050809     0.028226736
      3075.57       1.5150017     0.028513076
      3078.65       1.5247900     0.028708068
      3081.73       1.5306875     0.029008689
      3084.81       1.5299888     0.029217731
      3087.89       1.5301550     0.029323987
      3090.98       1.5404777     0.029471294
      3094.07       1.5500345     0.029491667
      3097.17       1.5615251     0.029471399
      3100.26       1.5737573     0.029427441
      3103.36       1.5777680     0.029358547
      3106.47       1.5709744     0.029239639
      3109.58       1.5790384     0.029072655
      3112.68       1.5751308     0.028715691
      3115.80       1.5670478     0.028500794
      3118.91       1.5706232     0.028248592
      3122.03       1.5674861     0.027968948
      3125.15       1.5742510     0.027671892
      3128.28       1.5494905     0.027397620
      3131.41       1.5349435     0.027123030
      3134.54       1.5335745     0.026870084
      3137.67       1.5274372     0.026549311
      3140.81       1.5086509     0.026327537
      3143.95       1.4907825     0.026134746
      3147.10       1.4787353     0.025963543
      3150.24       1.4639494     0.025566533
      3153.39       1.4427216     0.025098360
      3156.55       1.4239733     0.024848513
      3159.70       1.4068326     0.024633516
      3162.86       1.3923413     0.024462461
      3166.03       1.3808673     0.024313842
      3169.19       1.3781069     0.024288218
      3172.36       1.3726720     0.024371085
      3175.54       1.3638499     0.023947098
      3178.71       1.3659145     0.023635157
      3181.89       1.3613182     0.023518841
      3185.07       1.3492248     0.023439862
      3188.26       1.3451203     0.023452414
      3191.45       1.3410318     0.023476928
      3194.64       1.3443053     0.023496240
      3197.83       1.3413588     0.023503507
      3201.03       1.3430254     0.023536516
      3204.23       1.3327306     0.023700375
      3207.44       1.3410241     0.023789947
      3210.64       1.3468677     0.023763890
      3213.85       1.3504942     0.023677426
      3217.07       1.3652106     0.023757744
      3220.28       1.3662780     0.023756202
      3223.51       1.3716039     0.023681343
      3226.73       1.3832226     0.023538381
      3229.96       1.3856687     0.023534043
      3233.19       1.3894627     0.023485602
      3236.42       1.3883034     0.023553742
      3239.66       1.3927893     0.023636771
      3242.90       1.3879903     0.023417013
      3246.14       1.3941037     0.023255455
      3249.39       1.3905355     0.023184782
      3252.64       1.3817834     0.023151433
      3255.89       1.3932261     0.023102030
      3259.14       1.3838336     0.023107843
      3262.40       1.3678056     0.023169221
      3265.67       1.3636461     0.023208458
      3268.93       1.3634132     0.023292715
      3272.20       1.3634032     0.023343167
      3275.47       1.3632309     0.023235360
      3278.75       1.3576627     0.023287889
      3282.03       1.3644166     0.023373189
      3285.31       1.3797393     0.023424356
      3288.60       1.3931139     0.023508105
      3291.88       1.4006880     0.023595260
      3295.18       1.4088326     0.023615656
      3298.47       1.4073055     0.023559176
      3301.77       1.4095429     0.023262964
      3305.07       1.4005574     0.023109191
      3308.38       1.3932655     0.023056454
      3311.69       1.3827110     0.022932038
      3315.00       1.3829262     0.022729145
      3318.31       1.3868996     0.022554467
      3321.63       1.3898612     0.022433635
      3324.95       1.3841237     0.022255121
      3328.28       1.3773447     0.022042938
      3331.61       1.3722180     0.021690774
      3334.94       1.3658109     0.021377425
      3338.27       1.3611333     0.021148334
      3341.61       1.3573883     0.020962187
      3344.95       1.3646910     0.020760105
      3348.30       1.3596271     0.020400973
      3351.65       1.3562084     0.020211978
      3355.00       1.3494720     0.020016783
      3358.35       1.3396090     0.019984250
      3361.71       1.3186484     0.019910182
      3365.07       1.3063963     0.019869772
      3368.44       1.3025814     0.019838808
      3371.81       1.2986582     0.019587485
      3375.18       1.2931013     0.019509104
      3378.56       1.2793745     0.019444103
      3381.94       1.2745192     0.019416763
      3385.32       1.2582785     0.019288759
      3388.70       1.2498472     0.019330791
      3392.09       1.2515503     0.019380817
      3395.48       1.2585860     0.019456934
      3398.88       1.2570607     0.019506398
      3402.28       1.2537287     0.019480762
      3405.68       1.2472039     0.019367899
      3409.09       1.2432472     0.019426214
      3412.49       1.2452927     0.019420855
      3415.91       1.2475125     0.019372792
      3419.32       1.2487195     0.019294090
      3422.74       1.2408323     0.019271282
      3426.17       1.2352979     0.019233732
      3429.59       1.2303806     0.019115004
      3433.02       1.2203047     0.019062375
      3436.45       1.2147482     0.018910702
      3439.89       1.2111631     0.018808293
      3443.33       1.2025557     0.018707459
      3446.78       1.1914065     0.018576599
      3450.22       1.1913641     0.018504355
      3453.67       1.1817402     0.018336630
      3457.13       1.1692804     0.018197302
      3460.58       1.1583402     0.017991494
      3464.04       1.1557234     0.017804210
      3467.51       1.1503612     0.017716229
      3470.98       1.1490941     0.017576064
      3474.45       1.1490053     0.017473531
      3477.92       1.1451321     0.017298119
      3481.40       1.1391180     0.017149123
      3484.88       1.1350599     0.017119376
      3488.37       1.1268018     0.017027686
      3491.86       1.1189831     0.016959569
      3495.35       1.1174440     0.016912636
      3498.84       1.1237637     0.016852630
      3502.34       1.1247442     0.016842356
      3505.84       1.1202276     0.016787502
      3509.35       1.1186007     0.016879330
      3512.86       1.1224463     0.016875874
      3516.37       1.1218630     0.016846957
      3519.89       1.1258255     0.016654138
      3523.41       1.1362827     0.016591419
      3526.93       1.1411581     0.016659969
      3530.46       1.1438641     0.016688037
      3533.99       1.1561071     0.016562561
      3537.53       1.1574917     0.016581331
      3541.06       1.1648602     0.016635608
      3544.60       1.1708713     0.016659693
      3548.15       1.1775719     0.016665046
      3551.70       1.1818353     0.016756104
      3555.25       1.1789829     0.016826042
      3558.80       1.1778954     0.016990339
      3562.36       1.1779383     0.016989499
      3565.92       1.1745465     0.017121809
      3569.49       1.1738097     0.017271363
      3573.06       1.1728037     0.017392690
      3576.64       1.1571308     0.017472648
      3580.21       1.1497497     0.017562987
      3583.79       1.1438506     0.017714136
      3587.38       1.1503491     0.017789975
      3590.96       1.1387383     0.017884895
      3594.55       1.1261795     0.017955046
      3598.15       1.1121508     0.018006759
      3601.75       1.1056077     0.018103166
      3605.35       1.0996331     0.018092478
      3608.96       1.0865233     0.018084787
      3612.56       1.0736578     0.018129718
      3616.18       1.0623051     0.018077268
      3619.79       1.0583835     0.018075613
      3623.41       1.0465251     0.018076911
      3627.04       1.0382129     0.017958306
      3630.66       1.0389330     0.017873399
      3634.29       1.0409691     0.017748579
      3637.93       1.0349324     0.017669144
      3641.57       1.0213069     0.017624824
      3645.21       1.0228465     0.017632875
      3648.86       1.0222699     0.017563614
      3652.50       1.0234041     0.017410461
      3656.16       1.0244114     0.017234084
      3659.81       1.0281331     0.017102209
      3663.47       1.0295863     0.017070735
      3667.14       1.0381650     0.017069532
      3670.80       1.0366502     0.016941800
      3674.48       1.0306106     0.016818189
      3678.15       1.0205054     0.016765592
      3681.83       1.0176497     0.016711831
      3685.51       1.0150052     0.016601870
      3689.20       1.0077666     0.016585641
      3692.88       1.0022712     0.016536437
      3696.58       1.0015350     0.016490656
      3700.27       1.0010573     0.016460089
      3703.98      0.99477539     0.016371827
      3707.68      0.99090574     0.016419593
      3711.39      0.99013008     0.016426729
      3715.10      0.98770807     0.016392352
      3718.81      0.97882546     0.016397372
      3722.53      0.97762200     0.016574398
      3726.26      0.97005978     0.016613724
      3729.98      0.96504912     0.016489963
      3733.71      0.95375316     0.016263870
      3737.45      0.94250370     0.016293976
      3741.18      0.93837626     0.016391027
      3744.93      0.93872695     0.016392689
      3748.67      0.93259912     0.016317187
      3752.42      0.92121857     0.016326488
      3756.17      0.91889687     0.016351414
      3759.93      0.91747607     0.016520007
      3763.69      0.91540233     0.016633194
      3767.45      0.90874908     0.016828546
      3771.22      0.90432912     0.016992762
      3774.99      0.90096596     0.017211247
      3778.77      0.89875033     0.017413481
      3782.54      0.89414355     0.017709603
      3786.33      0.89393709     0.017956692
      3790.11      0.89235711     0.018213897
      3793.90      0.88962602     0.018430299
      3797.70      0.89483709     0.018776757
      3801.50      0.89348452     0.019147289
      3805.30      0.88727809     0.019537252
      3809.10      0.88189247     0.019812948
      3812.91      0.87638827     0.020077563
      3816.73      0.86203074     0.020358052
      3820.54      0.85383014     0.020632319
      3824.36      0.85437753     0.020827413
      3828.19      0.85042933     0.020886932
      3832.02      0.85385436     0.020906207
      3835.85      0.84339180     0.020929225
      3839.68      0.84088906     0.020964813
      3843.52      0.83537808     0.020949077
      3847.37      0.83107817     0.020828386
      3851.22      0.83940142     0.020509583
      3855.07      0.84704927     0.020239216
      3858.92      0.84943006     0.020038632
      3862.78      0.85499194     0.019941042
      3866.64      0.85078425     0.020058606
      3870.51      0.85608696     0.020012897
      3874.38      0.85962898     0.019650430
      3878.26      0.86617304     0.019375449
      3882.13      0.86759756     0.019213236
      3886.02      0.87763144     0.019223707
      3889.90      0.88196214     0.019258349
      3893.79      0.88327541     0.019064610
      3897.69      0.88320191     0.018950007
      3901.59      0.88051113     0.018920933
      3905.49      0.88314037     0.018998735
      3909.39      0.87626238     0.019024256
      3913.30      0.85711615     0.018950263
      3917.22      0.85599356     0.019021119
      3921.13      0.85829696     0.019113544
      3925.06      0.86320964     0.019017887
      3928.98      0.86730826     0.018916064
      3932.91      0.86939855     0.019101753
      3936.84      0.86001596     0.019131787
      3940.78      0.85595496     0.019097151
      3944.72      0.86003246     0.019050892
      3948.67      0.85752925     0.019181801
      3952.61      0.85187714     0.019356773
      3956.57      0.83723355     0.019396895
      3960.52      0.82789835     0.019318638
      3964.48      0.81853500     0.019542807
      3968.45      0.80370818     0.019680509
      3972.42      0.79576042     0.019722571
      3976.39      0.78595458     0.019561310
      3980.37      0.77745087     0.019489198
      3984.35      0.77153070     0.019670738
      3988.33      0.75566927     0.019881189
      3992.32      0.75393276     0.019848108
      3996.31      0.75534231     0.019872011
      4000.31      0.76112767     0.019830834
      4004.31      0.76259971     0.019832006
      4008.31      0.76269949     0.019854540
      4012.32      0.75506421     0.020037120
      4016.33      0.75604911     0.020256145
      4020.35      0.75536473     0.020615417
      4024.37      0.76697166     0.020515865
      4028.40      0.77305085     0.020646289
      4032.42      0.77770050     0.020867045
      4036.46      0.77935049     0.021246522
      4040.50      0.78602917     0.021649177
      4044.54      0.78643219     0.022023642
      4048.58      0.79278737     0.022250760
      4052.63      0.79113441     0.022557981
      4056.68      0.79636251     0.022862313
      4060.74      0.80571954     0.023163620
      4064.80      0.80911663     0.023459065
      4068.86      0.81156220     0.023932364
      4072.93      0.84670498     0.024232324
      4077.01      0.85730343     0.024491412
      4081.08      0.86132804     0.024365354
      4085.17      0.87190142     0.024675251
      4089.25      0.87668028     0.024910540
      4093.34      0.87176278     0.025236982
      4097.43      0.87468434     0.025256159
      4101.53      0.87801717     0.025429967
      4105.63      0.86829866     0.025623401
      4109.74      0.86676104     0.025932844
      4113.85      0.85095343     0.025841139
      4117.96      0.83757408     0.026085611
      4122.08      0.82435725     0.026582386
      4126.20      0.82329022     0.026457032
      4130.33      0.83324602     0.026087870
      4134.46      0.82263227     0.025885129
      4138.59      0.81133313     0.026094565
      4142.73      0.80199832     0.026319293
      4146.88      0.78616882     0.025925356
      4151.02      0.77561893     0.025620787
      4155.18      0.76042108     0.025550033
      4159.33      0.74337030     0.025511253
      4163.49      0.73184566     0.025408011
      4167.65      0.72285192     0.025107547
      4171.82      0.70807893     0.024769845
      4175.99      0.70818655     0.024591255
      4180.17      0.71427206     0.024370716
      4184.35      0.71249933     0.024057026
      4188.54      0.70592855     0.023909922
      4192.72      0.69280419     0.023773148
      4196.92      0.69211242     0.023659355
      4201.11      0.69534149     0.023371094
      4205.31      0.69374650     0.023240923
      4209.52      0.68836938     0.023024366
      4213.73      0.68380019     0.022781845
      4217.94      0.67789689     0.022397642
      4222.16      0.67340017     0.022025968
      4226.38      0.67646765     0.021786524
      4230.61      0.68059976     0.021572475
      4234.84      0.68795392     0.021274309
      4239.08      0.68268951     0.021073791
      4243.32      0.68523113     0.020856027
      4247.56      0.68295524     0.020813641
      4251.81      0.68335113     0.020782612
      4256.06      0.68046960     0.021119710
      4260.32      0.68325159     0.021118830
      4264.58      0.68540149     0.021317598
      4268.84      0.68685466     0.021111406
      4273.11      0.68267073     0.021001303
      4277.38      0.67870044     0.020667403
      4281.66      0.68648949     0.020754528
      4285.94      0.70031668     0.020882114
      4290.23      0.70455129     0.021105646
      4294.52      0.70144765     0.021059981
      4298.81      0.69020890     0.021228049
      4303.11      0.68611017     0.021398950
      4307.42      0.68070031     0.021624293
      4311.72      0.67073149     0.021616597
      4316.04      0.66284908     0.021936183
      4320.35      0.65751663     0.022156246
      4324.67      0.64896259     0.022574821
      4329.00      0.65422574     0.022745712
      4333.33      0.64854832     0.023023496
      4337.66      0.64504946     0.023149060
      4342.00      0.64331445     0.023554475
      4346.34      0.64426445     0.023848173
      4350.69      0.63776337     0.024362060
      4355.04      0.64147518     0.024533921
      4359.39      0.64477007     0.024733061
      4363.75      0.65195497     0.025160723
      4368.12      0.64223671     0.025776931
      4372.48      0.64241077     0.026400245
      4376.86      0.64708341     0.026516653
      4381.23      0.65460831     0.026591727
      4385.61      0.65731663     0.026621224
      4390.00      0.66222120     0.026710383
      4394.39      0.66689968     0.026854901
      4398.79      0.66434387     0.026724707
      4403.18      0.67595881     0.026652492
      4407.59      0.67699907     0.026617825
      4412.00      0.67977729     0.026568351
      4416.41      0.67632753     0.026649691
      4420.82      0.68474846     0.026599056
      4425.25      0.68046081     0.026882701
      4429.67      0.67606160     0.026842297
      4434.10      0.66326087     0.026710988
      4438.54      0.65132131     0.026388321
      4442.97      0.65613262     0.025857835
      4447.42      0.64588077     0.025554326
      4451.86      0.64039551     0.025370598
      4456.32      0.61152225     0.025344459
      4460.77      0.57004589     0.025025769
      4465.24      0.53275052     0.024333423
      4469.70      0.51617363     0.024047812
      4474.17      0.49362365     0.023947097
      4478.65      0.46787077     0.024171743
      4483.12      0.44072563     0.024257052
      4487.61      0.42092375     0.024690618
      4492.09      0.40238498     0.024859530
      4496.59      0.37022254     0.025450212
      4501.08      0.35974277     0.025846424
      4505.58      0.32906155     0.026617640
      4510.09      0.31946624     0.026779624
      4514.60      0.29988573     0.027471880
      4519.12      0.29154657     0.027687456
      4523.63      0.26296623     0.027554370
      4528.16      0.26574266     0.027232078
      4532.69      0.25484037     0.027442380
      4537.22      0.25102991     0.028230719
      4541.76      0.24035567     0.028602130
      4546.30      0.23622471     0.028377764
      4550.85      0.23598610     0.027861111
      4555.40      0.24415404     0.027973339
      4559.95      0.25028018     0.027949459
      4564.51      0.25744082     0.028013633
      4569.08      0.26802696     0.027954396
      4573.65      0.28711219     0.027716918
      4578.22      0.31909743     0.027646104
      4582.80      0.33743012     0.027734586
      4587.38      0.36629873     0.027708449
      4591.97      0.39967125     0.027733156
      4596.56      0.42993929     0.027977078
      4601.16      0.45700050     0.028295370
      4605.76      0.50025536     0.029355591
      4610.37      0.55558669     0.029734631
      4614.98      0.60906248     0.029949141
      4619.59      0.64424908     0.030418387
      4624.21      0.65560123     0.031105919
      4628.84      0.68284557     0.031244851
      4633.47      0.70834826     0.030985327
      4638.10      0.71445192     0.030994287
      4642.74      0.71614901     0.031089319
      4647.38      0.73127201     0.031319583
      4652.03      0.74003374     0.031482499
      4656.68      0.75828147     0.031367236
      4661.34      0.77272544     0.031291543
      4666.00      0.78853428     0.031322716
      4670.67      0.78298397     0.031464967
      4675.33      0.77179949     0.031771664
      4680.01      0.75475201     0.032443306
      4684.69      0.71497894     0.032480681
      4689.38      0.67607942     0.032081178
      4694.07      0.62952796     0.031662274
      4698.76      0.58630014     0.031439983
      4703.46      0.56950071     0.031417470
      4708.16      0.56159720     0.031870426
      4712.87      0.51349924     0.032557229
      4717.58      0.46651031     0.033587504
      4722.30      0.46158170     0.033817801
      4727.03      0.45954955     0.034139729
      4731.75      0.45230461     0.034923236
      4736.48      0.44734017     0.035768706
      4741.22      0.42029404     0.036946770
      4745.96      0.41482747     0.038510706
      4750.71      0.41368947     0.040849074
      4755.46      0.44596674     0.042814888
      4760.22      0.48138904     0.046646164
      4764.97      0.52604894     0.050609255
      4769.74      0.58948160     0.054862209
      4774.51      0.66028615     0.060408461
      4779.29      0.74998018     0.072467976
      4784.07      0.85350596     0.080896757
      4788.85      0.95507546     0.095107383
      4793.64       1.0690756      0.10719187
