# starting wavelength =        1924.5400
# ending wavelength =        3180.3400
# O2 telluric scale =        0
# O2 telluric shift =        0
# H2O telluric scale =        0
# H2O telluric shift =        0
      1924.57       1.2851794      0.14981340
      1926.50       1.2276137      0.14749687
      1928.42       1.2477348      0.14455817
      1930.35       1.1982153      0.14229612
      1932.28       1.2256026      0.14008110
      1934.21       1.2043361      0.13748636
      1936.15       1.2143867      0.13544222
      1938.08       1.2394811      0.13346605
      1940.02       1.2946765      0.13108263
      1941.96       1.2391319      0.12927067
      1943.91       1.2154018      0.12746479
      1945.85       1.1802568      0.12524220
      1947.79       1.2014299      0.12350052
      1949.74       1.2094015      0.12182849
      1951.69       1.2223803      0.11966147
      1953.64       1.2362730      0.11807153
      1955.60       1.2209681      0.11653693
      1957.55       1.2451946      0.11469461
      1959.51       1.2328309      0.11319435
      1961.47       1.2320206      0.11171850
      1963.43       1.1904021      0.10992289
      1965.40       1.1834588      0.10846886
      1967.36       1.1532664      0.10675419
      1969.33       1.1357343      0.10543249
      1971.30       1.1222444      0.10409298
      1973.27       1.1655043      0.10248296
      1975.24       1.1836842      0.10117996
      1977.22       1.2127462     0.099636249
      1979.20       1.2101547     0.098402200
      1981.18       1.1811303     0.096963543
      1983.16       1.1938179     0.095787485
      1985.14       1.1780232     0.094642438
      1987.12       1.2233205     0.093198919
      1989.11       1.2124514     0.092130636
      1991.10       1.2328113     0.090765439
      1993.09       1.2094783     0.089711850
      1995.09       1.2428570     0.088358332
      1997.08       1.2640049     0.087320734
      1999.08       1.2476341     0.086077216
      2001.08       1.2724311     0.085087468
      2003.08       1.3102176     0.083811636
      2005.08       1.3223904     0.082839621
      2007.09       1.3321425     0.081902384
      2009.09       1.3255595     0.080676862
      2011.10       1.3093279     0.079741223
      2013.11       1.3190980     0.078524758
      2015.13       1.3166050     0.077570928
      2017.14       1.3149716     0.076422863
      2019.16       1.3363281     0.075525082
      2021.18       1.3284999     0.074421779
      2023.20       1.3363346     0.073587106
      2025.22       1.3256273     0.072557964
      2027.25       1.3428039     0.071553876
      2029.28       1.3049169     0.070798506
      2031.31       1.2987173     0.069765061
      2033.34       1.3139836     0.068961575
      2035.37       1.3280125     0.067974347
      2037.41       1.3391889     0.067174133
      2039.44       1.3429370     0.066242575
      2041.48       1.3514644     0.065474350
      2043.53       1.3159897     0.064589883
      2045.57       1.3068728     0.063887764
      2047.61       1.2965594     0.063026013
      2049.66       1.2987616     0.062192452
      2051.71       1.2928859     0.061565101
      2053.76       1.2977050     0.060777809
      2055.82       1.2821293     0.060145210
      2057.87       1.2996001     0.059326910
      2059.93       1.2898029     0.058595720
      2061.99       1.2838743     0.058021866
      2064.05       1.2983471     0.057277173
      2066.12       1.3057968     0.056726076
      2068.18       1.3101470     0.056044230
      2070.25       1.2827524     0.055432836
      2072.32       1.2768845     0.054953151
      2074.39       1.2732958     0.054314804
      2076.47       1.2577652     0.053725228
      2078.55       1.1877079     0.075670404
      2080.62       1.1465115     0.075145837
      2082.71       1.1345116     0.074229114
      2084.79       1.1036261     0.073368839
      2086.87       1.1009964     0.072976591
      2088.96       1.1298763     0.072123971
      2091.05       1.1171354     0.071593840
      2093.14       1.1147854     0.070911708
      2095.23       1.1314101     0.070341623
      2097.33       1.1046738     0.069632649
      2099.43       1.1077982     0.068858609
      2101.52       1.1107356     0.068502455
      2103.63       1.1422489     0.067686346
      2105.73       1.1653114     0.067171291
      2107.84       1.1915747     0.066552071
      2109.94       1.1224261     0.065880098
      2112.05       1.1251291     0.065499233
      2114.17       1.1172555     0.064720244
      2116.28       1.1052816     0.064103509
      2118.40       1.0731215     0.063570072
      2120.52       1.0648077     0.062859725
      2122.64       1.0737411     0.062291569
      2124.76       1.0428895     0.061502347
      2126.88       1.0429828     0.060841510
      2129.01       1.0072332     0.060295138
      2131.14      0.99637137     0.059568096
      2133.27      0.97734865     0.058739609
      2135.40      0.92970382     0.058282459
      2137.54      0.91086099     0.057470690
      2139.68      0.87982595     0.056790020
      2141.82      0.86682988     0.056038162
      2143.96      0.83422950     0.055614328
      2146.10      0.81554598     0.054949052
      2148.25      0.77311343     0.054352795
      2150.40      0.72133593     0.053928578
      2152.55      0.68965873     0.053337389
      2154.70      0.67857223     0.052762428
      2156.86      0.67269629     0.052243379
      2159.01      0.64110024     0.052719067
      2161.17      0.61750047     0.053191076
      2163.33      0.58517207     0.053877393
      2165.50      0.58192141     0.052253875
      2167.66      0.57742706     0.050494988
      2169.83      0.57270376     0.049642072
      2172.00      0.55114666     0.049232579
      2174.17      0.53087294     0.049197643
      2176.35      0.53874753     0.049024256
      2178.52      0.51697292     0.049047860
      2180.70      0.53102555     0.049033686
      2182.88      0.52105738     0.049154829
      2185.07      0.52048877     0.049421928
      2187.25      0.53190598     0.049435380
      2189.44      0.53844558     0.049516856
      2191.63      0.54869017     0.049420691
      2193.82      0.54554595     0.049432815
      2196.01      0.60128988     0.049610187
      2198.21      0.59248063     0.049364506
      2200.41      0.60089683     0.049139157
      2202.61      0.65599868     0.048735446
      2204.81      0.66703895     0.048256953
      2207.02      0.70327307     0.047975078
      2209.22      0.73834414     0.047328909
      2211.43      0.76902703     0.046779014
      2213.64      0.80083603     0.046164368
      2215.86      0.83644320     0.045455956
      2218.07      0.89468264     0.044803706
      2220.29      0.93822946     0.044175497
      2222.51      0.97971406     0.043627316
      2224.73       1.0047182     0.043038983
      2226.96       1.0431759     0.042484327
      2229.19       1.0871048     0.041897569
      2231.42       1.1237919     0.041468284
      2233.65       1.1250693     0.041114109
      2235.88       1.1558313     0.040854555
      2238.12       1.1907566     0.040550621
      2240.36       1.2381348     0.040544366
      2242.60       1.2626791     0.040947761
      2244.84       1.3031850     0.041534303
      2247.08       1.3165913     0.040752010
      2249.33       1.3276780     0.040002384
      2251.58       1.3426605     0.039324732
      2253.83       1.3582544     0.038907784
      2256.09       1.3580576     0.038696972
      2258.34       1.3800160     0.038438562
      2260.60       1.4221890     0.038134098
      2262.86       1.4275676     0.037813898
      2265.12       1.4189592     0.037559607
      2267.39       1.4525327     0.037264173
      2269.66       1.4438032     0.036994931
      2271.93       1.4527758     0.036647075
      2274.20       1.4364940     0.036376285
      2276.47       1.4286315     0.036094496
      2278.75       1.4425935     0.035785176
      2281.03       1.4276792     0.035491286
      2283.31       1.4151025     0.035135525
      2285.59       1.4092919     0.034827017
      2287.88       1.4153325     0.034515606
      2290.17       1.3905375     0.034258220
      2292.46       1.3597708     0.033991060
      2294.75       1.3569622     0.033718050
      2297.04       1.3652380     0.033371774
      2299.34       1.3662142     0.033089571
      2301.64       1.3612486     0.032827970
      2303.94       1.3645149     0.032549948
      2306.25       1.3576780     0.032282814
      2308.55       1.3432691     0.032018212
      2310.86       1.3239144     0.031727742
      2313.17       1.3245140     0.031453432
      2315.49       1.3047337     0.031202917
      2317.80       1.2955868     0.030945070
      2320.12       1.2677939     0.030710735
      2322.44       1.2361245     0.030375558
      2324.76       1.2303847     0.030110262
      2327.09       1.2265576     0.029851630
      2329.41       1.2029908     0.029625281
      2331.74       1.1915290     0.029346985
      2334.08       1.1672626     0.029140095
      2336.41       1.1589496     0.028908251
      2338.75       1.1422334     0.028702514
      2341.08       1.1310281     0.028479891
      2343.43       1.1163380     0.028175936
      2345.77       1.0990824     0.027967209
      2348.12       1.0820740     0.027771512
      2350.46       1.0753197     0.027543413
      2352.81       1.0552426     0.027340127
      2355.17       1.0548813     0.027133191
      2357.52       1.0458978     0.026950990
      2359.88       1.0440996     0.026700079
      2362.24       1.0209361     0.026554625
      2364.60       1.0009132     0.026412483
      2366.97      0.99648620     0.026255576
      2369.33      0.98807939     0.026115105
      2371.70      0.96821812     0.025902858
      2374.08      0.97160518     0.025753339
      2376.45      0.97564754     0.025618857
      2378.83      0.95375554     0.025511859
      2381.20       1.0055945     0.017991171
      2383.59       1.0076661     0.017899527
      2385.97       1.0088332     0.017807941
      2388.36       1.0078521     0.017685092
      2390.75       1.0118555     0.017597220
      2393.14       1.0124683     0.017511751
      2395.53      0.96803795     0.034873479
      2397.93      0.97525941     0.034665158
      2400.32      0.99615372     0.034302048
      2402.72      0.96978298     0.034319406
      2405.13      0.99912442     0.034122071
      2407.53      0.97507440     0.034006961
      2409.94      0.97470791     0.033696384
      2412.35      0.98890111     0.033581790
      2414.76       1.0213082     0.033498179
      2417.18       1.0572543     0.033421398
      2419.59       1.0893487     0.033260939
      2422.01       1.0867808     0.033105619
      2424.44       1.1153672     0.032915114
      2426.86       1.1194859     0.032766529
      2429.29       1.1417685     0.032452050
      2431.72       1.1098524     0.032341073
      2434.15       1.1118026     0.032204899
      2436.58       1.1213690     0.032171316
      2439.02       1.1067931     0.031891926
      2441.46       1.0928707     0.031749994
      2443.90       1.0987359     0.031584232
      2446.34       1.0992096     0.031309998
      2448.79       1.0738375     0.031370226
      2451.24       1.0925466     0.031259622
      2453.69       1.0949893     0.031046767
      2456.14       1.1146792     0.030979252
      2458.60       1.1170100     0.030894702
      2461.06       1.1505314     0.030938390
      2463.52       1.1530735     0.030699427
      2465.98       1.1361261     0.030625624
      2468.45       1.1495283     0.030326087
      2470.92       1.1856704     0.030277428
      2473.39       1.1824313     0.030132763
      2475.86       1.1975896     0.029777660
      2478.34       1.1843567     0.029605131
      2480.82       1.1741901     0.029564382
      2483.30       1.1739033     0.029175796
      2485.78       1.1540288     0.029042773
      2488.27       1.1261141     0.028899035
      2490.76       1.1263252     0.028737873
      2493.25       1.1341014     0.028611322
      2495.74       1.1389736     0.028469882
      2498.24       1.1569457     0.028356441
      2500.74       1.1558872     0.028100297
      2503.24       1.1643542     0.027976967
      2505.74       1.1808480     0.027969631
      2508.25       1.2047743     0.027697809
      2510.75       1.2143568     0.027568083
      2513.26       1.2214343     0.027439682
      2515.78       1.2321375     0.027310645
      2518.29       1.2348472     0.027177230
      2520.81       1.2480871     0.027058837
      2523.33       1.2666835     0.026791392
      2525.86       1.2856716     0.026782424
      2528.38       1.2907557     0.026564430
      2530.91       1.2891740     0.026455867
      2533.44       1.2836325     0.026315763
      2535.98       1.2672131     0.026215556
      2538.51       1.2602482     0.026051137
      2541.05       1.2486259     0.025901723
      2543.59       1.2333622     0.025626685
      2546.13       1.1979617     0.025587548
      2548.68       1.1598031     0.025287487
      2551.23       1.1410958     0.025182907
      2553.78       1.1250848     0.024857881
      2556.34       1.0876031     0.024693089
      2558.89       1.0541087     0.024485290
      2561.45       1.0414406     0.024313978
      2564.01      0.99494777     0.024177282
      2566.58      0.97108579     0.023918760
      2569.14      0.96885940     0.023847745
      2571.71      0.95820555     0.023568657
      2574.28      0.95261982     0.023524477
      2576.86      0.94405979     0.023283954
      2579.44      0.92918786     0.023256514
      2582.01      0.91737741     0.022990518
      2584.60      0.90064896     0.022844596
      2587.18      0.87638869     0.022699811
      2589.77      0.85489083     0.022521912
      2592.36      0.82610164     0.022272816
      2594.95      0.79399791     0.022223979
      2597.55      0.75847933     0.021993212
      2600.14      0.73881557     0.021936512
      2602.74      0.73094827     0.021679178
      2605.35      0.70558398     0.021556029
      2607.95      0.70086278     0.021444686
      2610.56      0.69067608     0.021333530
      2613.17      0.67286076     0.021176987
      2615.79      0.67985756     0.021192048
      2618.40      0.68739289     0.021029923
      2621.02      0.69756335     0.020978800
      2623.64      0.70070671     0.021020398
      2626.26      0.70886967     0.020853430
      2628.89      0.70542802     0.020770516
      2631.52      0.70694897     0.020570411
      2634.15      0.71379091     0.020569607
      2636.79      0.71605786     0.020405870
      2639.42      0.71367922     0.020207642
      2642.06      0.70387469     0.020233233
      2644.70      0.71194942     0.020088661
      2647.35      0.70464361     0.020064185
      2650.00      0.70783629     0.020052175
      2652.65      0.71555790     0.020055034
      2655.30      0.72313262     0.020048096
      2657.96      0.74505173     0.020042752
      2660.61      0.75111076     0.019957289
      2663.27      0.77132873     0.020012686
      2665.94      0.78373838     0.019953671
      2668.60      0.79860123     0.019802108
      2671.27      0.81804538     0.019739313
      2673.94      0.83805738     0.019685235
      2676.62      0.85324274     0.019652946
      2679.29      0.86717335     0.019648707
      2681.97      0.89936207     0.019615281
      2684.66      0.91850393     0.019527596
      2687.34      0.93069853     0.019470402
      2690.03      0.93687786     0.019444158
      2692.72      0.94546179     0.019497461
      2695.41      0.96605026     0.019377506
      2698.11      0.96784631     0.019350245
      2700.81      0.97770216     0.019330057
      2703.51      0.98257073     0.019317120
      2706.21      0.99306095     0.019191053
      2708.92      0.99870245     0.019151974
      2711.62      0.99801668     0.019221164
      2714.34       1.0056356     0.019198781
      2717.05       1.0158126     0.019088862
      2719.77       1.0280607     0.019048963
      2722.49       1.0454643     0.019011268
      2725.21       1.0647523     0.018979875
      2727.94       1.0709360     0.018943813
      2730.66       1.0790438     0.018835844
      2733.39       1.0975790     0.018779871
      2736.13       1.1041074     0.018734476
      2738.86       1.1101412     0.018694559
      2741.60       1.1123779     0.018729547
      2744.34       1.1072334     0.018599819
      2747.09       1.1169896     0.018528719
      2749.84       1.1169071     0.018461555
      2752.59       1.1109773     0.018399332
      2755.34       1.1064262     0.018334329
      2758.09       1.1042995     0.018270705
      2760.85       1.0998579     0.018216642
      2763.61       1.1004441     0.018094822
      2766.38       1.0972275     0.018053047
      2769.14       1.0872358     0.017992560
      2771.91       1.0851541     0.017958263
      2774.69       1.0873802     0.017917990
      2777.46       1.0819536     0.017857417
      2780.24       1.0728558     0.017804758
      2783.02       1.0646613     0.017738323
      2785.80       1.0586946     0.017644603
      2788.59       1.0552146     0.017549656
      2791.38       1.0582996     0.017372752
      2794.17       1.0584968     0.017223765
      2796.96       1.0454457     0.017173109
      2799.76       1.0483989     0.017115702
      2802.56       1.0433295     0.017086711
      2805.36       1.0418624     0.017069699
      2808.17       1.0365481     0.017079889
      2810.98       1.0304280     0.017078601
      2813.79       1.0276306     0.017076165
      2816.60       1.0435981     0.017083349
      2819.42       1.0363627     0.017110925
      2822.24       1.0378036     0.017121828
      2825.06       1.0409497     0.017412147
      2827.88       1.0315457     0.017125609
      2830.71       1.0296544     0.017124317
      2833.54       1.0399230     0.017282431
      2836.38       1.0446065     0.017501879
      2839.21       1.0457889     0.017776438
      2842.05       1.0546451     0.017940670
      2844.90       1.0672493     0.018131113
      2847.74       1.0622143     0.018279925
      2850.59       1.0415384     0.018426474
      2853.44       1.0369863     0.018359029
      2856.29       1.0218628     0.018240616
      2859.15       1.0190195     0.017958151
      2862.01       1.0050972     0.017714432
      2864.87       1.0010710     0.017420838
      2867.74      0.99383006     0.017161190
      2870.60      0.99531820     0.016860888
      2873.47      0.98360229     0.016739153
      2876.35      0.98803305     0.016733537
      2879.22      0.98019561     0.016967261
      2882.10      0.97398983     0.016640464
      2884.99      0.98844915     0.016528016
      2887.87       1.0009753     0.016487914
      2890.76       1.0046340     0.016459444
      2893.65       1.0088102     0.016390630
      2896.54       1.0108679     0.016363960
      2899.44       1.0083788     0.016361363
      2902.34       1.0010539     0.016427617
      2905.24      0.99408351     0.016343432
      2908.15       1.0006577     0.016311733
      2911.06      0.99726131     0.016298840
      2913.97       1.0021114     0.016201418
      2916.88      0.99625119     0.016214967
      2919.80      0.98786681     0.016174831
      2922.72      0.98856495     0.016054007
      2925.64      0.98466194     0.015994470
      2928.57      0.98162836     0.015930227
      2931.50      0.97617850     0.015854446
      2934.43      0.96417531     0.015790503
      2937.36      0.96010755     0.015724710
      2940.30      0.96021666     0.015581199
      2943.24      0.95152396     0.015561052
      2946.18      0.94494847     0.015408680
      2949.13      0.93487936     0.015323884
      2952.08      0.92851159     0.015239537
      2955.03      0.92746833     0.015146049
      2957.99      0.92730313     0.015068770
      2960.94      0.92387429     0.014927273
      2963.90      0.92234811     0.014905672
      2966.87      0.92579339     0.014834999
      2969.84      0.92884173     0.014740954
      2972.81      0.92901384     0.014752658
      2975.78      0.92359647     0.014599529
      2978.76      0.92671418     0.014525623
      2981.73      0.92269436     0.014612635
      2984.72      0.92462469     0.014659878
      2987.70      0.92231364     0.014474111
      2990.69      0.91636858     0.014484918
      2993.68      0.91323017     0.014529765
      2996.67      0.90979478     0.014702473
      2999.67      0.90536876     0.014913671
      3002.67      0.89937746     0.015110043
      3005.67      0.89923123     0.015310109
      3008.68      0.89530574     0.015382391
      3011.69      0.90020705     0.015362821
      3014.70      0.89661889     0.015431670
      3017.71      0.88694091     0.015219197
      3020.73      0.89094479     0.015087799
      3023.75      0.90419716     0.014831453
      3026.78      0.90767798     0.014599820
      3029.80      0.92135831     0.014410175
      3032.83      0.91711015     0.014137316
      3035.87      0.91700686     0.014053986
      3038.90      0.91288281     0.013900186
      3041.94      0.92135135     0.013792322
      3044.98      0.92264956     0.013477003
      3048.03      0.92801068     0.013170542
      3051.08      0.92449769     0.012905039
      3054.13      0.91731695     0.012692877
      3057.18      0.91997413     0.012470953
      3060.24      0.91845018     0.012257695
      3063.30      0.91571168     0.012067018
      3066.36      0.90328272     0.011883935
      3069.43      0.90103529     0.011647975
      3072.50      0.89916678     0.011445580
      3075.57      0.89460973     0.011259682
      3078.65      0.89407734     0.011107282
      3081.73      0.89355569     0.010949501
      3084.81      0.89070274     0.010797653
      3087.89      0.89090139     0.010632955
      3090.98      0.89281655     0.010515069
      3094.07      0.89082302     0.010385492
      3097.17      0.89034611     0.010234930
      3100.26      0.88304651     0.010104916
      3103.36      0.88218167    0.0099581836
      3106.47      0.87881657    0.0098391924
      3109.58      0.87504257    0.0097518499
      3112.68      0.86972471    0.0096462169
      3115.80      0.86885509    0.0095404562
      3118.91      0.87031266    0.0094389841
      3122.03      0.86895264    0.0093481128
      3125.15      0.85898850    0.0092451045
      3128.28      0.85537016    0.0091647221
      3131.41      0.85048388    0.0092260225
      3134.54      0.84545286    0.0093697855
      3137.67      0.83891584    0.0095307806
      3140.81      0.83384376    0.0097131600
      3143.95      0.83158715    0.0099714112
      3147.10      0.82499625     0.010269310
      3150.24      0.82186682     0.010680018
      3153.39      0.81648671     0.011261434
      3156.55      0.81022501     0.011928809
      3159.70      0.80719783     0.012946120
      3162.86      0.80426815     0.014084462
      3166.03      0.80187773     0.015815357
      3169.19      0.79807917     0.017914700
      3172.36      0.79533370     0.020402262
      3175.54      0.79298885     0.024024774
      3178.71      0.79286575     0.028020731
