# starting wavelength =        2851.3100
# ending wavelength =        5058.9900
# O2 telluric scale =        0
# O2 telluric shift =        0
# H2O telluric scale =        0
# H2O telluric shift =        0
      2853.44       1.5471217      0.12945589
      2856.29       1.6239539      0.10971242
      2859.15       1.6396734     0.092525172
      2862.01       1.6834798     0.080107145
      2864.87       1.7099232     0.069332886
      2867.74       1.7324426     0.061607314
      2870.60       1.7555952     0.054948726
      2873.47       1.7653709     0.050215245
      2876.35       1.7639691     0.046133271
      2879.22       1.7722943     0.043097342
      2882.10       1.7720080     0.040811183
      2884.99       1.7825704     0.038838610
      2887.87       1.7893078     0.037402900
      2890.76       1.7835786     0.036149412
      2893.65       1.7896183     0.035216485
      2896.54       1.7929074     0.034402644
      2899.44       1.7715554     0.033704718
      2902.34       1.7713446     0.033190995
      2905.24       1.7497554     0.033043441
      2908.15       1.7202180     0.032960225
      2911.06       1.7265451     0.032936215
      2913.97       1.7433027     0.032966309
      2916.88       1.7591347     0.032987568
      2919.80       1.7659492     0.033113275
      2922.72       1.7518313     0.033279026
      2925.64       1.7352947     0.033480714
      2928.57       1.7373947     0.033714354
      2931.50       1.7271937     0.033928673
      2934.43       1.7027411     0.034211911
      2937.36       1.7017712     0.034587854
      2940.30       1.7188833     0.034909231
      2943.24       1.7300626     0.035189875
      2946.18       1.7227284     0.035528450
      2949.13       1.7256554     0.035871716
      2952.08       1.7317283     0.036215977
      2955.03       1.7457573     0.036583455
      2957.99       1.7724232     0.036918503
      2960.94       1.7699810     0.037244952
      2963.90       1.7692881     0.037559348
      2966.87       1.7743980     0.037785631
      2969.84       1.7700656     0.038153199
      2972.81       1.7894505     0.038409785
      2975.78       1.8085405     0.038643086
      2978.76       1.8092276     0.038855121
      2981.73       1.8045520     0.039031847
      2984.72       1.8179580     0.039179962
      2987.70       1.8012173     0.039290819
      2990.69       1.7867768     0.039374734
      2993.68       1.7865415     0.039428810
      2996.67       1.7685051     0.039434176
      2999.67       1.7697395     0.039427071
      3002.67       1.7686172     0.039394359
      3005.67       1.7672510     0.039308680
      3008.68       1.7427308     0.039228819
      3011.69       1.7383342     0.039210120
      3014.70       1.7191541     0.038985613
      3017.71       1.7417178     0.038863804
      3020.73       1.7591507     0.038813097
      3023.75       1.7667157     0.038566989
      3026.78       1.7913744     0.038514608
      3029.80       1.8075237     0.038275347
      3032.83       1.8130329     0.038238283
      3035.87       1.8212568     0.038137433
      3038.90       1.8024774     0.038019293
      3041.94       1.8259276     0.037957617
      3044.98       1.8439576     0.038002053
      3048.03       1.9135474     0.037888519
      3051.08       1.9310111     0.038001821
      3054.13       1.9565691     0.038048842
      3057.18       1.9661266     0.038143752
      3060.24       1.9530902     0.038270251
      3063.30       1.9094648     0.038441325
      3066.36       1.8546858     0.038763432
      3069.43       1.8363691     0.039029439
      3072.50       1.8069325     0.039224413
      3075.57       1.7630921     0.039442867
      3078.65       1.7800573     0.039457245
      3081.73       1.7939355     0.039714530
      3084.81       1.7806863     0.039751622
      3087.89       1.7446316     0.039901102
      3090.98       1.7330996     0.039904407
      3094.07       1.7128237     0.040128518
      3097.17       1.6936661     0.040092006
      3100.26       1.6754494     0.040146460
      3103.36       1.6946782     0.040161697
      3106.47       1.7095639     0.040139225
      3109.58       1.7686427     0.040074515
      3112.68       1.8019192     0.039846532
      3115.80       1.8102033     0.039801439
      3118.91       1.8142184     0.039458604
      3122.03       1.7364208     0.039157842
      3125.15       1.6748961     0.038792010
      3128.28       1.6347413     0.038273213
      3131.41       1.5818006     0.037931152
      3134.54       1.5772199     0.037312749
      3137.67       1.5866942     0.036731195
      3140.81       1.5677915     0.036116860
      3143.95       1.5477796     0.035402525
      3147.10       1.5000566     0.034878784
      3150.24       1.4630949     0.034193532
      3153.39       1.3942819     0.033440238
      3156.55       1.3508481     0.032753942
      3159.70       1.3174256     0.032074509
      3162.86       1.3077238     0.031408306
      3166.03       1.3226579     0.030709868
      3169.19       1.3433628     0.030090200
      3172.36       1.3614455     0.029502175
      3175.54       1.3608515     0.028950922
      3178.71       1.3812086     0.028495675
      3181.89       1.3642396     0.028027275
      3185.07       1.3672312     0.027608434
      3188.26       1.3738932     0.027241575
      3191.45       1.3731037     0.026869976
      3194.64       1.3952959     0.026607815
      3197.83       1.4176182     0.026397607
      3201.03       1.4063070     0.026237431
      3204.23       1.4112424     0.026124692
      3207.44       1.3814525     0.026056400
      3210.64       1.3576637     0.025958732
      3213.85       1.3287254     0.025965889
      3217.07       1.3152664     0.026006815
      3220.28       1.3049610     0.026077816
      3223.51       1.3083821     0.026111499
      3226.73       1.3051839     0.026231130
      3229.96       1.2919794     0.026368266
      3233.19       1.2889202     0.026518790
      3236.42       1.3030969     0.026594112
      3239.66       1.2979792     0.026757637
      3242.90       1.2949502     0.026921880
      3246.14       1.2849488     0.027082565
      3249.39       1.2812717     0.027236012
      3252.64       1.2878413     0.027312615
      3255.89       1.3044238     0.027449798
      3259.14       1.3276917     0.027569563
      3262.40       1.3182139     0.027655518
      3265.67       1.3207134     0.027724434
      3268.93       1.3358955     0.027787086
      3272.20       1.3281991     0.027767111
      3275.47       1.3126879     0.027810420
      3278.75       1.3052865     0.027839423
      3282.03       1.2972357     0.027847628
      3285.31       1.3003906     0.027827417
      3288.60       1.2868333     0.027687845
      3291.88       1.2820042     0.027585696
      3295.18       1.2753851     0.027506044
      3298.47       1.2893157     0.027305484
      3301.77       1.2698004     0.026964463
      3305.07       1.2830426     0.026671332
      3308.38       1.2840731     0.026342182
      3311.69       1.3119314     0.025894654
      3315.00       1.3425009     0.025520886
      3318.31       1.3488906     0.025136656
      3321.63       1.3655372     0.024691076
      3324.95       1.3714338     0.024263603
      3328.28       1.3767002     0.023823665
      3331.61       1.3695964     0.023284065
      3334.94       1.3616154     0.022827094
      3338.27       1.3192465     0.022278941
      3341.61       1.3134490     0.021852315
      3344.95       1.3226483     0.021392294
      3348.30       1.3278263     0.020859204
      3351.65       1.3370519     0.020420805
      3355.00       1.3334843     0.019951946
      3358.35       1.3377257     0.019549539
      3361.71       1.3419536     0.019168605
      3365.07       1.3349586     0.018740389
      3368.44       1.3363971     0.018445132
      3371.81       1.3307362     0.018087188
      3375.18       1.3360599     0.017831112
      3378.56       1.3434581     0.017594750
      3381.94       1.3461869     0.017421061
      3385.32       1.3496822     0.017231546
      3388.70       1.3455997     0.017166587
      3392.09       1.3476314     0.017056006
      3395.48       1.3372055     0.016984712
      3398.88       1.3313312     0.017030457
      3402.28       1.3274225     0.017021698
      3405.68       1.3362079     0.017075987
      3409.09       1.3532342     0.017161356
      3412.49       1.3537117     0.017255468
      3415.91       1.3552345     0.017377902
      3419.32       1.3383242     0.017458758
      3422.74       1.3317834     0.017640479
      3426.17       1.3182022     0.017724914
      3429.59       1.2931136     0.017800293
      3433.02       1.2831086     0.017952269
      3436.45       1.2813347     0.017986846
      3439.89       1.2805040     0.018044806
      3443.33       1.2754223     0.018067198
      3446.78       1.2647065     0.018054312
      3450.22       1.2542376     0.017945443
      3453.67       1.2426342     0.017892183
      3457.13       1.2422286     0.017700373
      3460.58       1.2433951     0.017507962
      3464.04       1.2553155     0.017239645
      3467.51       1.2662606     0.017036576
      3470.98       1.2676225     0.016745147
      3474.45       1.2624437     0.016404265
      3477.92       1.2669808     0.016084690
      3481.40       1.2622352     0.015793596
      3484.88       1.2528737     0.015476860
      3488.37       1.2515594     0.015174558
      3491.86       1.2450827     0.014871702
      3495.35       1.2339320     0.014618762
      3498.84       1.2316759     0.014419841
      3502.34       1.2237477     0.014235981
      3505.84       1.2036188     0.014097052
      3509.35       1.1864261     0.013977828
      3512.86       1.1701685     0.013941770
      3516.37       1.1461562     0.013982405
      3519.89       1.1366414     0.014056465
      3523.41       1.1347029     0.014158100
      3526.93       1.1295071     0.014362256
      3530.46       1.1270999     0.014631124
      3533.99       1.1192446     0.014907647
      3537.53       1.1059440     0.015282398
      3541.06       1.0986162     0.015698781
      3544.60       1.0960213     0.016150671
      3548.15       1.0902564     0.016567009
      3551.70       1.0868810     0.017063130
      3555.25       1.0881842     0.017570952
      3558.80       1.0866608     0.018083890
      3562.36       1.0761777     0.018608607
      3565.92       1.0834071     0.019132690
      3569.49       1.0708108     0.019521155
      3573.06       1.0565941     0.019942881
      3576.64       1.0615569     0.020390866
      3580.21       1.0433207     0.020867747
      3583.79       1.0400061     0.021340362
      3587.38       1.0375963     0.021705042
      3590.96       1.0244368     0.022110343
      3594.55      0.99204034     0.022432270
      3598.15      0.97064514     0.022622347
      3601.75      0.95033354     0.022644891
      3605.35      0.91847732     0.022508173
      3608.96      0.91107296     0.022185274
      3612.56      0.90254742     0.021600407
      3616.18      0.90531455     0.020984277
      3619.79      0.91864808     0.020304037
      3623.41      0.92964115     0.019608363
      3627.04      0.93250658     0.018937499
      3630.66      0.95855870     0.018322042
      3634.29      0.97968539     0.017695795
      3637.93      0.97754645     0.017161390
      3641.57      0.98845387     0.016668584
      3645.21      0.99506022     0.016245168
      3648.86       1.0202537     0.015819300
      3652.50       1.0427699     0.015500229
      3656.16       1.0502900     0.015232921
      3659.81       1.0689704     0.014999773
      3663.47       1.0647285     0.014838018
      3667.14       1.0722689     0.014721058
      3670.80       1.0834990     0.014643749
      3674.48       1.0901247     0.014563091
      3678.15       1.0959208     0.014546259
      3681.83       1.1017303     0.014552802
      3685.51       1.1042791     0.014547848
      3689.20       1.1131569     0.014633802
      3692.88       1.1122053     0.014676941
      3696.58       1.1014605     0.014766657
      3700.27       1.1124213     0.014866066
      3703.98       1.1128359     0.014941035
      3707.68       1.1052429     0.015094757
      3711.39       1.1095026     0.015176426
      3715.10       1.1114926     0.015289708
      3718.81       1.1306931     0.015373907
      3722.53       1.1405345     0.015533709
      3726.26       1.1362944     0.015646125
      3729.98       1.1460338     0.015721681
      3733.71       1.1393714     0.015832762
      3737.45       1.1346876     0.015973550
      3741.18       1.1308237     0.016099131
      3744.93       1.1231407     0.016295718
      3748.67       1.1084849     0.016570246
      3752.42       1.1066593     0.016864006
      3756.17       1.0960623     0.017155236
      3759.93       1.0833642     0.017524233
      3763.69       1.0828454     0.017799976
      3767.45       1.0701744     0.018096699
      3771.22       1.0809964     0.018420618
      3774.99       1.0765903     0.018687546
      3778.77       1.0769384     0.019042865
      3782.54       1.0728478     0.019333518
      3786.33       1.0723573     0.019731496
      3790.11       1.0742490     0.020162556
      3793.90       1.0721330     0.020646476
      3797.70       1.0682272     0.021262445
      3801.50       1.0635972     0.021852681
      3805.30       1.0366161     0.022501220
      3809.10       1.0290803     0.023026369
      3812.91       1.0325763     0.023612616
      3816.73       1.0130322     0.024025552
      3820.54      0.99560543     0.024495124
      3824.36      0.99146157     0.024842654
      3828.19      0.97399647     0.025244746
      3832.02      0.96578872     0.025473410
      3835.85      0.98349170     0.025512576
      3839.68      0.97976351     0.025507655
      3843.52      0.98881474     0.025325357
      3847.37       1.0064584     0.025166830
      3851.22       1.0143317     0.024800325
      3855.07       1.0083997     0.024268867
      3858.92       1.0253302     0.023672154
      3862.78       1.0354883     0.022941181
      3866.64       1.0506736     0.022161035
      3870.51       1.0682383     0.021317147
      3874.38       1.0826052     0.020516491
      3878.26       1.0900058     0.019629377
      3882.13       1.0902566     0.018759866
      3886.02       1.0789139     0.017930506
      3889.90       1.0749179     0.017157309
      3893.79       1.0678659     0.016453730
      3897.69       1.0581417     0.015830010
      3901.59       1.0447892     0.015296322
      3905.49       1.0192434     0.014846674
      3909.39       1.0127109     0.014517970
      3913.30       1.0114606     0.014302439
      3917.22      0.99974764     0.014204835
      3921.13      0.98951740     0.014197754
      3925.06      0.97877204     0.014334351
      3928.98      0.97209423     0.014589065
      3932.91      0.96983569     0.014958323
      3936.84      0.96200623     0.015444297
      3940.78      0.96517855     0.016053962
      3944.72      0.96790636     0.016763194
      3948.67      0.97283673     0.017450212
      3952.61      0.96288662     0.018271124
      3956.57      0.94503780     0.019281979
      3960.52      0.93500580     0.020537761
      3964.48      0.93959958     0.022052551
      3968.45      0.92541223     0.023840456
      3972.42      0.89888521     0.025886487
      3976.39      0.87512809     0.028188627
      3980.37      0.83646998     0.030744391
      3984.35      0.84890604     0.033292464
      3988.33      0.86125091     0.035562880
      3992.32      0.83583446     0.037087939
      3996.31      0.83639188     0.037291250
      4000.31      0.85122426     0.036416267
      4004.31      0.88203077     0.034663602
      4008.31      0.90003190     0.032484659
      4012.32      0.92336066     0.030038975
      4016.33      0.94448071     0.027984810
      4020.35      0.97981521     0.026236461
      4024.37       1.0064416     0.024715182
      4028.40       1.0217374     0.023544838
      4032.42       1.0242602     0.022630348
      4036.46       1.0293151     0.021924765
      4040.50       1.0275981     0.021435333
      4044.54       1.0495736     0.021049795
      4048.58       1.0302252     0.020723893
      4052.63       1.0255465     0.020553064
      4056.68       1.0217357     0.020486832
      4060.74       1.0164209     0.020527938
      4064.80      0.99948561     0.020659941
      4068.86      0.99132122     0.020844266
      4072.93      0.96421749     0.021134575
      4077.01      0.95375429     0.021462322
      4081.08      0.93960992     0.021930969
      4085.17      0.91207798     0.022356354
      4089.25      0.89986364     0.022831826
      4093.34      0.87934995     0.023370066
      4097.43      0.86107710     0.023865212
      4101.53      0.83555177     0.024311408
      4105.63      0.82257917     0.024765993
      4109.74      0.81135872     0.025218780
      4113.85      0.77895078     0.025580762
      4117.96      0.77016935     0.025830529
      4122.08      0.76038214     0.026074191
      4126.20      0.71769638     0.026221150
      4130.33      0.70712372     0.026296746
      4134.46      0.69738539     0.026280306
      4138.59      0.66373322     0.026121418
      4142.73      0.64637726     0.025947068
      4146.88      0.64418910     0.025736596
      4151.02      0.65369953     0.025464467
      4155.18      0.64076219     0.025115113
      4159.33      0.63258290     0.024860721
      4163.49      0.63413167     0.024484776
      4167.65      0.65997667     0.024157419
      4171.82      0.62825459     0.023808012
      4175.99      0.61599649     0.023578046
      4180.17      0.61640303     0.023273112
      4184.35      0.62126905     0.023036634
      4188.54      0.62345151     0.022792286
      4192.72      0.60722331     0.022669574
      4196.92      0.61342292     0.022476121
      4201.11      0.63502222     0.022347926
      4205.31      0.65597925     0.022199151
      4209.52      0.67562182     0.022109152
      4213.73      0.69198010     0.022024288
      4217.94      0.70354075     0.021948934
      4222.16      0.72584737     0.021869861
      4226.38      0.74732878     0.021784815
      4230.61      0.77220923     0.021649857
      4234.84      0.77618813     0.021548393
      4239.08      0.79858922     0.021423490
      4243.32      0.79790603     0.021236272
      4247.56      0.81539861     0.021079405
      4251.81      0.78149342     0.020906746
      4256.06      0.77918604     0.020663114
      4260.32      0.77885964     0.020416261
      4264.58      0.78403980     0.020153261
      4268.84      0.80337666     0.019866024
      4273.11      0.83332114     0.019444392
      4277.38      0.85024316     0.018936563
      4281.66      0.86679537     0.018430408
      4285.94      0.87894231     0.017966551
      4290.23      0.88518245     0.017539196
      4294.52      0.89634734     0.017161235
      4298.81      0.90270086     0.016808321
      4303.11      0.92185748     0.016531796
      4307.42      0.93123489     0.016328607
      4311.72      0.92893858     0.016217392
      4316.04      0.92655546     0.016203331
      4320.35      0.91032791     0.016243728
      4324.67      0.88944454     0.016383761
      4329.00      0.87320895     0.016598618
      4333.33      0.83838459     0.016880479
      4337.66      0.81390992     0.017223739
      4342.00      0.80237243     0.017623087
      4346.34      0.79839963     0.018065219
      4350.69      0.81352097     0.018712620
      4355.04      0.80191077     0.019182160
      4359.39      0.77593316     0.019703351
      4363.75      0.75942823     0.020129886
      4368.12      0.75079451     0.020566435
      4372.48      0.73636407     0.020954641
      4376.86      0.75361648     0.021253988
      4381.23      0.74118425     0.021501831
      4385.61      0.73026555     0.021647810
      4390.00      0.70884307     0.021654013
      4394.39      0.71119578     0.021621380
      4398.79      0.66722098     0.021510493
      4403.18      0.62459552     0.021264030
      4407.59      0.56507295     0.021004125
      4412.00      0.52730645     0.020666028
      4416.41      0.51034676     0.020314867
      4420.82      0.48421416     0.019942184
      4425.25      0.47176403     0.019504382
      4429.67      0.45551581     0.019125597
      4434.10      0.46268436     0.018729966
      4438.54      0.46902959     0.018387151
      4442.97      0.45319218     0.018027105
      4447.42      0.44967862     0.017757021
      4451.86      0.45562926     0.017511737
      4456.32      0.45847594     0.017329843
      4460.77      0.48115858     0.017156682
      4465.24      0.47813577     0.017094670
      4469.70      0.49761935     0.017012780
      4474.17      0.52710178     0.016974641
      4478.65      0.55671837     0.017004236
      4483.12      0.54726252     0.017074053
      4487.61      0.57004312     0.017168947
      4492.09      0.56883089     0.017302622
      4496.59      0.59741269     0.017420343
      4501.08      0.63101169     0.017582961
      4505.58      0.62761501     0.017775437
      4510.09      0.64115716     0.017938537
      4514.60      0.64272610     0.018182048
      4519.12      0.66419299     0.018360834
      4523.63      0.67605986     0.018587287
      4528.16      0.66471683     0.018799067
      4532.69      0.67953235     0.019033560
      4537.22      0.69450362     0.019226492
      4541.76      0.69496433     0.019473441
      4546.30      0.70235801     0.019682070
      4550.85      0.71734571     0.019982035
      4555.40      0.72647338     0.020218862
      4559.95      0.75165036     0.020527764
      4564.51      0.77774744     0.020808155
      4569.08      0.80956799     0.021170146
      4573.65      0.83169677     0.021565534
      4578.22      0.83587232     0.021963274
      4582.80      0.88882635     0.022429066
      4587.38      0.91581084     0.022865313
      4591.97      0.90109618     0.023398083
      4596.56      0.88581536     0.023963365
      4601.16      0.84385784     0.024479573
      4605.76      0.82387892     0.025085610
      4610.37      0.78797338     0.025703252
      4614.98      0.75159967     0.026322615
      4619.59      0.73049801     0.026857366
      4624.21      0.69974990     0.027449914
      4628.84      0.68723135     0.028015770
      4633.47      0.64129981     0.028544665
      4638.10      0.58648924     0.028947068
      4642.74      0.53728405     0.029376891
      4647.38      0.52911388     0.029754372
      4652.03      0.53427844     0.030069969
      4656.68      0.54827802     0.030314365
      4661.34      0.56797995     0.030514185
      4666.00      0.61898872     0.030618213
      4670.67      0.68953761     0.030682834
      4675.33      0.68515112     0.030787098
      4680.01      0.63635274     0.030894965
      4684.69      0.64265952     0.030981463
      4689.38      0.66947249     0.031019715
      4694.07      0.68959569     0.031010377
      4698.76      0.68885728     0.030848773
      4703.46      0.72170087     0.030617939
      4708.16      0.74457529     0.030216107
      4712.87      0.75182376     0.029608564
      4717.58      0.78369652     0.028743595
      4722.30      0.76498886     0.027894694
      4727.03      0.74785226     0.027029779
      4731.75      0.72843161     0.026210666
      4736.48      0.69657933     0.025418493
      4741.22      0.70388584     0.024781478
      4745.96      0.71108769     0.024187877
      4750.71      0.71646511     0.023639675
      4755.46      0.72149606     0.023222537
      4760.22      0.71213697     0.022810124
      4764.97      0.69350620     0.022502516
      4769.74      0.67089810     0.022259030
      4774.51      0.69262616     0.021986520
      4779.29      0.70944092     0.021821990
      4784.07      0.70578768     0.021693511
      4788.85      0.69097849     0.021675194
      4793.64      0.69369667     0.021695919
      4798.43      0.68918303     0.021848771
      4803.23      0.69778764     0.021939488
      4808.03      0.71949570     0.022085186
      4812.84      0.71428030     0.022249267
      4817.66      0.70506098     0.022537801
      4822.48      0.70383171     0.022800870
      4827.30      0.71340876     0.023171097
      4832.12      0.74653458     0.023646023
      4836.96      0.77196154     0.024115573
      4841.79      0.79633578     0.024543210
      4846.63      0.82751321     0.025051382
      4851.48      0.84780097     0.025613437
      4856.33      0.85865129     0.026400037
      4861.19      0.86030548     0.027475833
      4866.05      0.85310504     0.028625656
      4870.92      0.87912819     0.029979245
      4875.79      0.88732508     0.031355030
      4880.66      0.88626170     0.032702729
      4885.55      0.87909427     0.034124778
      4890.43      0.89250631     0.035232296
      4895.32      0.89983935     0.036197225
      4900.22      0.89488060     0.036746247
      4905.12      0.86728929     0.037119719
      4910.02      0.82921179     0.037188744
      4914.94      0.80391292     0.037157985
      4919.85      0.72485628     0.036922597
      4924.77      0.65675289     0.036721909
      4929.70      0.59396975     0.036538912
      4934.62      0.58472610     0.036315756
      4939.56      0.56472151     0.036140813
      4944.50      0.55748758     0.035991150
      4949.44      0.53577267     0.036009256
      4954.39      0.53969715     0.036064338
      4959.35      0.55118243     0.036155460
      4964.31      0.55731608     0.036179092
      4969.27      0.53466585     0.036231701
      4974.24      0.53505660     0.036147840
      4979.22      0.52689495     0.036170885
      4984.20      0.51931282     0.036666807
      4989.18      0.51001548     0.037306402
      4994.17      0.49928776     0.037993470
      4999.16      0.50712122     0.038776951
      5004.16      0.51892188     0.039759711
      5009.17      0.54856537     0.041180923
      5014.18      0.58527428     0.043066884
      5019.19      0.60650710     0.045729921
      5024.21      0.64625376     0.049511258
      5029.23      0.68478921     0.054468529
      5034.26      0.70874765     0.060768061
      5039.30      0.71757376     0.069003381
      5044.34      0.70722230     0.079690700
      5049.39      0.67249513     0.092720970
      5054.43      0.62328883      0.10857711
