# starting wavelength =        2624.6966
# ending wavelength =        5534.8600
# O2 telluric scale =        0
# O2 telluric shift =        0
# H2O telluric scale =        0
# H2O telluric shift =        0
      2626.26      0.43348331     0.065881756
      2628.89      0.47545927     0.063829495
      2631.52      0.48294258     0.061977607
      2634.15      0.49710149     0.060274167
      2636.79      0.51631381     0.058938481
      2639.42      0.52139763     0.057508047
      2642.06      0.52730804     0.056142729
      2644.70      0.53514447     0.055014659
      2647.35      0.54579051     0.053744031
      2650.00      0.55866955     0.052586411
      2652.65      0.54538904     0.051679903
      2655.30      0.53758881     0.050590181
      2657.96      0.51941611     0.049622577
      2660.61      0.53243107     0.048632899
      2663.27      0.52360025     0.047911498
      2665.94      0.51442381     0.047071309
      2668.60      0.53355703     0.046174753
      2671.27      0.53763134     0.045399269
      2673.94      0.52831617     0.044671096
      2676.62      0.51706960     0.044152837
      2679.29      0.52398643     0.043471081
      2681.97      0.54344562     0.042816322
      2684.66      0.55853185     0.042215656
      2687.34      0.55531953     0.041723510
      2690.03      0.53633374     0.041395290
      2692.72      0.53890669     0.040848484
      2695.41      0.54107112     0.040387322
      2698.11      0.54152731     0.039961238
      2700.81      0.57464923     0.039484248
      2703.51      0.60906387     0.039151144
      2706.21      0.61329530     0.038796155
      2708.92      0.64570212     0.038357382
      2711.62      0.65445441     0.037996903
      2714.34      0.68680571     0.037604011
      2717.05      0.71237099     0.037221398
      2719.77      0.70370164     0.036923520
      2722.49      0.70561140     0.036707811
      2725.21      0.71511380     0.036330928
      2727.94      0.70937125     0.035990287
      2730.66      0.70700957     0.035614708
      2733.39      0.71528275     0.035290800
      2736.13      0.72960152     0.034971865
      2738.86      0.72421723     0.034697387
      2741.60      0.75071429     0.034440990
      2744.34      0.77222792     0.034135920
      2747.09      0.79612255     0.033848398
      2749.84      0.81237565     0.033629105
      2752.59      0.84297866     0.033480413
      2755.34      0.85587501     0.033272842
      2758.09      0.86761492     0.033079102
      2760.85      0.87194092     0.032925956
      2763.61      0.89588186     0.032787132
      2766.38      0.91114544     0.032650023
      2769.14      0.93125064     0.032458660
      2771.91      0.94017594     0.032257809
      2774.69      0.92971050     0.032132577
      2777.46      0.95560594     0.031955813
      2780.24      0.96439247     0.031725185
      2783.02      0.96427408     0.031504066
      2785.80      0.95517452     0.031320190
      2788.59      0.94981622     0.031168280
      2791.38      0.97357467     0.031009279
      2794.17      0.98731341     0.030826452
      2796.96      0.99318321     0.030719216
      2799.76      0.99011589     0.030730532
      2802.56      0.99615071     0.030661900
      2805.36       1.0140046     0.030562618
      2808.17       1.0105552     0.030501146
      2810.98       1.0057258     0.030512138
      2813.79       1.0213669     0.030380417
      2816.60       1.0053374     0.030198364
      2819.42      0.98261174     0.030156815
      2822.24      0.97454707     0.029945624
      2825.06      0.94166754     0.029856198
      2827.88      0.91979436     0.029693333
      2830.71      0.90569959     0.029491360
      2833.54      0.87141842     0.029430515
      2836.38      0.85004847     0.029188148
      2839.21      0.83826400     0.028946846
      2842.05      0.83545663     0.028706809
      2844.90      0.84435946     0.028571225
      2847.74      0.86704600     0.028438913
      2850.59      0.88351606     0.028333523
      2853.44      0.88564341     0.028217321
      2856.29      0.90422548     0.028277916
      2859.15      0.94622455     0.028204931
      2862.01      0.97784146     0.028074221
      2864.87      0.99421559     0.028053411
      2867.74       1.0328611     0.027984898
      2870.60       1.0518848     0.027950146
      2873.47       1.0686550     0.027917472
      2876.35       1.1033568     0.027734743
      2879.22       1.1351858     0.027630100
      2882.10       1.1555957     0.027546875
      2884.99       1.1725701     0.027496823
      2887.87       1.1856740     0.027464659
      2890.76       1.1943311     0.027355527
      2893.65       1.2159343     0.027261428
      2896.54       1.2345106     0.027183474
      2899.44       1.2363520     0.027109924
      2902.34       1.2301882     0.027023493
      2905.24       1.2291477     0.026892680
      2908.15       1.2247115     0.026755838
      2911.06       1.2187763     0.026561572
      2913.97       1.2293073     0.026347707
      2916.88       1.2295998     0.026184088
      2919.80       1.2118159     0.026039350
      2922.72       1.1869811     0.025892319
      2925.64       1.1744675     0.025706266
      2928.57       1.1731304     0.025486519
      2931.50       1.1525685     0.025291374
      2934.43       1.1317803     0.024988027
      2937.36       1.0984418     0.024818420
      2940.30       1.0837715     0.024566388
      2943.24       1.0623563     0.024342349
      2946.18       1.0337869     0.024142833
      2949.13       1.0139061     0.023924741
      2952.08      0.99667283     0.023707076
      2955.03      0.96277266     0.023581631
      2957.99      0.94021650     0.023326502
      2960.94      0.91492767     0.023168892
      2963.90      0.90296774     0.022987176
      2966.87      0.89266550     0.022814750
      2969.84      0.88332017     0.022647790
      2972.81      0.88437649     0.022413579
      2975.78      0.85642848     0.022325045
      2978.76      0.84578142     0.022203498
      2981.73      0.84468445     0.022047815
      2984.72      0.84230225     0.021812516
      2987.70      0.82187188     0.021700362
      2990.69      0.79630333     0.021604408
      2993.68      0.78537290     0.021484639
      2996.67      0.77406795     0.021338781
      2999.67      0.76301574     0.021204682
      3002.67      0.75405593     0.021080001
      3005.67      0.75822236     0.020881727
      3008.68      0.76387809     0.020767530
      3011.69      0.75629592     0.020742907
      3014.70      0.77097450     0.020607007
      3017.71      0.77183950     0.020637107
      3020.73      0.78351574     0.020583585
      3023.75      0.79664618     0.020476711
      3026.78      0.81439120     0.020420544
      3029.80      0.81945277     0.020409715
      3032.83      0.82842699     0.020396787
      3035.87      0.85309908     0.020318466
      3038.90      0.87099528     0.020246330
      3041.94      0.89137091     0.020127111
      3044.98      0.90219054     0.020169630
      3048.03      0.90121945     0.020147493
      3051.08      0.92233552     0.020142697
      3054.13      0.92829840     0.020147483
      3057.18      0.95022802     0.020246270
      3060.24      0.97900665     0.020305822
      3063.30       1.0095188     0.020281625
      3066.36       1.0191009     0.020362139
      3069.43       1.0400651     0.020416810
      3072.50       1.0617914     0.020420220
      3075.57       1.0501791     0.020422910
      3078.65       1.0479682     0.020491261
      3081.73       1.0501227     0.020400287
      3084.81       1.0399976     0.020401699
      3087.89       1.0352507     0.020397615
      3090.98       1.0311348     0.020408672
      3094.07       1.0322381     0.020377443
      3097.17       1.0432178     0.020313481
      3100.26       1.0510306     0.020302862
      3103.36       1.0388326     0.020351270
      3106.47       1.0266054     0.020393838
      3109.58       1.0379138     0.020393789
      3112.68       1.0443962     0.020348835
      3115.80       1.0465624     0.020372528
      3118.91       1.0673726     0.020340451
      3122.03       1.0707305     0.020336849
      3125.15       1.0676904     0.020316226
      3128.28       1.0740767     0.020203413
      3131.41       1.0718826     0.020216506
      3134.54       1.0762590     0.020109263
      3137.67       1.0927395     0.020060364
      3140.81       1.0854154     0.020063911
      3143.95       1.0843647     0.020029367
      3147.10       1.0838332     0.019926358
      3150.24       1.0750635     0.019955006
      3153.39       1.0845721     0.019813297
      3156.55       1.1018318     0.019673653
      3159.70       1.1057789     0.019525232
      3162.86       1.1052616     0.019516889
      3166.03       1.1124879     0.019416934
      3169.19       1.1179376     0.019307764
      3172.36       1.1199398     0.019370462
      3175.54       1.1181729     0.019784835
      3178.71       1.1492774     0.019200495
      3181.89       1.1502492     0.019115850
      3185.07       1.1538980     0.019149348
      3188.26       1.1560723     0.019295905
      3191.45       1.1379813     0.019507644
      3194.64       1.1407741     0.019510327
      3197.83       1.1144031     0.019558385
      3201.03       1.0805748     0.019540212
      3204.23       1.0593467     0.019367700
      3207.44       1.0265162     0.019151506
      3210.64      0.99513847     0.018943688
      3213.85      0.98842618     0.018598503
      3217.07      0.98143794     0.018270320
      3220.28      0.97096322     0.017978465
      3223.51      0.96353462     0.017680577
      3226.73      0.95915059     0.017499083
      3229.96      0.96256776     0.017438292
      3233.19      0.96207786     0.017555285
      3236.42      0.97979095     0.017694854
      3239.66      0.98500374     0.017198481
      3242.90      0.98065525     0.017132732
      3246.14      0.98835347     0.017052255
      3249.39      0.99232151     0.016956692
      3252.64      0.99184439     0.016864718
      3255.89       1.0009124     0.016785653
      3259.14       1.0018395     0.016742447
      3262.40      0.99753049     0.016708878
      3265.67      0.99431656     0.016664584
      3268.93      0.99137813     0.016642966
      3272.20      0.99054133     0.016556061
      3275.47      0.99907699     0.016498959
      3278.75       1.0081085     0.016447884
      3282.03       1.0116006     0.016412468
      3285.31       1.0147654     0.016389407
      3288.60       1.0178402     0.016335740
      3291.88       1.0095603     0.016323206
      3295.18       1.0080112     0.016277206
      3298.47       1.0137711     0.016229912
      3301.77       1.0164016     0.016180432
      3305.07       1.0254956     0.016079124
      3308.38       1.0282071     0.016031518
      3311.69       1.0235382     0.015932030
      3315.00       1.0299863     0.015833307
      3318.31       1.0262123     0.015764443
      3321.63       1.0183106     0.015695037
      3324.95       1.0041630     0.015581594
      3328.28      0.99843956     0.015503217
      3331.61      0.99320251     0.015414466
      3334.94      0.98015128     0.015370017
      3338.27      0.97640909     0.015267890
      3341.61      0.97276282     0.015139185
      3344.95      0.96795492     0.015067410
      3348.30      0.96924900     0.015008998
      3351.65      0.98012426     0.014954021
      3355.00      0.98237866     0.014913551
      3358.35      0.97752880     0.014915603
      3361.71      0.98191208     0.014896884
      3365.07      0.99003092     0.014838354
      3368.44       1.0054270     0.014825002
      3371.81       1.0065741     0.014860104
      3375.18       1.0081485     0.014924394
      3378.56       1.0097011     0.014893053
      3381.94       1.0193524     0.014870645
      3385.32       1.0139000     0.014869904
      3388.70       1.0194020     0.014790631
      3392.09       1.0271899     0.014756474
      3395.48       1.0346282     0.014720627
      3398.88       1.0296726     0.014711630
      3402.28       1.0354004     0.014683171
      3405.68       1.0336265     0.014626603
      3409.09       1.0415201     0.014637699
      3412.49       1.0436304     0.014578872
      3415.91       1.0488997     0.014550417
      3419.32       1.0402509     0.014512291
      3422.74       1.0235906     0.014564466
      3426.17       1.0484928     0.014495336
      3429.59       1.0517100     0.014442477
      3433.02       1.0492477     0.014425910
      3436.45       1.0500448     0.014396956
      3439.89       1.0472628     0.014382899
      3443.33       1.0564241     0.014325392
      3446.78       1.0766106     0.014326194
      3450.22       1.0803589     0.014294508
      3453.67       1.0865702     0.014253465
      3457.13       1.1037287     0.014266197
      3460.58       1.1147650     0.014201763
      3464.04       1.1149655     0.014235380
      3467.51       1.1182499     0.014196125
      3470.98       1.1207229     0.014195507
      3474.45       1.1229893     0.014188110
      3477.92       1.1307701     0.014136067
      3481.40       1.1441478     0.014166454
      3484.88       1.1524061     0.014143877
      3488.37       1.1619068     0.014113619
      3491.86       1.1836604     0.014130181
      3495.35       1.1838929     0.014118146
      3498.84       1.1800432     0.014195140
      3502.34       1.1904808     0.014165670
      3505.84       1.1974676     0.014171784
      3509.35       1.2093491     0.014136627
      3512.86       1.2187650     0.014161216
      3516.37       1.2273523     0.014114234
      3519.89       1.2277299     0.014137510
      3523.41       1.2335535     0.014147534
      3526.93       1.2364100     0.014141178
      3530.46       1.2360537     0.014145599
      3533.99       1.2392344     0.014119662
      3537.53       1.2417874     0.014168946
      3541.06       1.2375827     0.014167950
      3544.60       1.2601109     0.014140152
      3548.15       1.2653242     0.014148293
      3551.70       1.2682849     0.014108315
      3555.25       1.2661478     0.014140752
      3558.80       1.2680944     0.014086581
      3562.36       1.2691115     0.014046029
      3565.92       1.2600022     0.014037313
      3569.49       1.2667256     0.013951406
      3573.06       1.2644465     0.013927529
      3576.64       1.2632002     0.013889282
      3580.21       1.2634096     0.013796747
      3583.79       1.2605786     0.013791557
      3587.38       1.2531142     0.013759447
      3590.96       1.2433209     0.013752458
      3594.55       1.2367789     0.013705135
      3598.15       1.2275415     0.013696360
      3601.75       1.2212050     0.013682663
      3605.35       1.2104715     0.013696695
      3608.96       1.2047211     0.013652829
      3612.56       1.2080897     0.013619956
      3616.18       1.2096122     0.013595733
      3619.79       1.2202498     0.013565177
      3623.41       1.2252694     0.013566816
      3627.04       1.2391002     0.013531557
      3630.66       1.2557538     0.013524069
      3634.29       1.2621160     0.013550886
      3637.93       1.2870222     0.013538323
      3641.57       1.2970287     0.013569184
      3645.21       1.3103121     0.013600369
      3648.86       1.3336700     0.013606292
      3652.50       1.3463972     0.013592386
      3656.16       1.3473503     0.013575914
      3659.81       1.3411494     0.013584055
      3663.47       1.3412906     0.013562449
      3667.14       1.3283683     0.013544743
      3670.80       1.3214610     0.013492616
      3674.48       1.3036527     0.013451080
      3678.15       1.2803335     0.013424424
      3681.83       1.2690325     0.013334530
      3685.51       1.2740417     0.013256552
      3689.20       1.2684135     0.013215356
      3692.88       1.2594275     0.013190959
      3696.58       1.2486144     0.013178422
      3700.27       1.2428143     0.013125038
      3703.98       1.2361894     0.013120484
      3707.68       1.2389902     0.013100457
      3711.39       1.2303981     0.013093428
      3715.10       1.2288144     0.013025470
      3718.81       1.2294229     0.012968767
      3722.53       1.2239798     0.012932330
      3726.26       1.2172824     0.012905878
      3729.98       1.2071869     0.012854443
      3733.71       1.2079588     0.012854693
      3737.45       1.1929337     0.012856285
      3741.18       1.1983721     0.012791350
      3744.93       1.1888709     0.012798761
      3748.67       1.1916131     0.012779088
      3752.42       1.1898750     0.012728194
      3756.17       1.1855524     0.012693174
      3759.93       1.1763092     0.012642443
      3763.69       1.1596203     0.012606044
      3767.45       1.1464406     0.012558410
      3771.22       1.1414018     0.012449250
      3774.99       1.1249634     0.012405913
      3778.77       1.1177841     0.012336282
      3782.54       1.1008977     0.012308978
      3786.33       1.0874773     0.012261660
      3790.11       1.0797718     0.012258491
      3793.90       1.0716229     0.012271503
      3797.70       1.0605760     0.012317094
      3801.50       1.0662358     0.012340655
      3805.30       1.0745883     0.012443885
      3809.10       1.0824293     0.012500937
      3812.91       1.1021087     0.012570445
      3816.73       1.1153416     0.012658501
      3820.54       1.1341141     0.012730310
      3824.36       1.1388011     0.012806176
      3828.19       1.1534801     0.012914865
      3832.02       1.1637657     0.012973942
      3835.85       1.1737084     0.013012440
      3839.68       1.1806572     0.013117500
      3843.52       1.1902681     0.013138350
      3847.37       1.1937431     0.013220513
      3851.22       1.2018284     0.013206769
      3855.07       1.1997405     0.013238116
      3858.92       1.1997327     0.013257607
      3862.78       1.1983972     0.013245326
      3866.64       1.1959026     0.013262946
      3870.51       1.2027600     0.013265564
      3874.38       1.2130525     0.013265062
      3878.26       1.2171534     0.013237737
      3882.13       1.2218368     0.013250784
      3886.02       1.2333234     0.013245084
      3889.90       1.2378300     0.013254148
      3893.79       1.2426556     0.013254517
      3897.69       1.2475357     0.013224443
      3901.59       1.2611355     0.013227076
      3905.49       1.2714741     0.013164920
      3909.39       1.2700705     0.013209303
      3913.30       1.2810564     0.013200778
      3917.22       1.2891026     0.013129449
      3921.13       1.2926647     0.013139899
      3925.06       1.2962251     0.013120367
      3928.98       1.3055191     0.013144602
      3932.91       1.3151916     0.013216481
      3936.84       1.3175483     0.013297357
      3940.78       1.3217588     0.013406446
      3944.72       1.3412346     0.013481156
      3948.67       1.3362642     0.013522984
      3952.61       1.3392933     0.013572522
      3956.57       1.3406224     0.013533999
      3960.52       1.3351082     0.013421966
      3964.48       1.3093796     0.013327444
      3968.45       1.2898578     0.013183562
      3972.42       1.2747821     0.012987903
      3976.39       1.2566370     0.013240875
      3980.37       1.2392339     0.013574879
      3984.35       1.2033001     0.012689143
      3988.33       1.1816190     0.012492452
      3992.32       1.1597701     0.012516704
      3996.31       1.1456807     0.012687250
      4000.31       1.1257289     0.012926821
      4004.31       1.1172490     0.013143270
      4008.31       1.1122709     0.013330978
      4012.32       1.1044846     0.013469923
      4016.33       1.1181448     0.013480091
      4020.35       1.1254277     0.013358990
      4024.37       1.1303997     0.013128455
      4028.40       1.1391374     0.012799388
      4032.42       1.1437679     0.012463677
      4036.46       1.1366990     0.012149181
      4040.50       1.1326529     0.011882168
      4044.54       1.1385252     0.011687756
      4048.58       1.1394611     0.011684093
      4052.63       1.1287202     0.012329111
      4056.68       1.1382325     0.011877784
      4060.74       1.1384003     0.011507459
      4064.80       1.1393246     0.011442980
      4068.86       1.1385121     0.011408941
      4072.93       1.1354745     0.011383798
      4077.01       1.1281917     0.011345170
      4081.08       1.1300747     0.011311527
      4085.17       1.1293542     0.011262581
      4089.25       1.1250177     0.011243277
      4093.34       1.1254348     0.011201994
      4097.43       1.1277191     0.011147730
      4101.53       1.1293985     0.011104800
      4105.63       1.1253651     0.011065626
      4109.74       1.1099616     0.011074033
      4113.85       1.0979452     0.011066708
      4117.96       1.0948780     0.011091188
      4122.08       1.0920918     0.011098171
      4126.20       1.0812249     0.011111557
      4130.33       1.0757044     0.011088019
      4134.46       1.0775988     0.011083691
      4138.59       1.0674503     0.011021836
      4142.73       1.0580572     0.011027047
      4146.88       1.0510337     0.010933619
      4151.02       1.0431397     0.010904158
      4155.18       1.0470594     0.010860416
      4159.33       1.0489958     0.010809122
      4163.49       1.0436511     0.010813485
      4167.65       1.0389036     0.010803467
      4171.82       1.0368514     0.010774315
      4175.99       1.0460202     0.010716189
      4180.17       1.0511904     0.010657398
      4184.35       1.0472416     0.010551112
      4188.54       1.0355970     0.010490029
      4192.72       1.0334835     0.010397451
      4196.92       1.0354904     0.010354841
      4201.11       1.0269182     0.010304611
      4205.31       1.0161816     0.010229844
      4209.52       1.0111878     0.010156681
      4213.73       1.0161973     0.010070128
      4217.94      0.99949136     0.010065397
      4222.16      0.98975478     0.010018286
      4226.38      0.99278009    0.0099554142
      4230.61      0.99595544    0.0099204464
      4234.84      0.99992849    0.0098837160
      4239.08      0.99104216    0.0098623816
      4243.32      0.98653327    0.0098596354
      4247.56      0.98655470    0.0098460266
      4251.81      0.98686909    0.0098017618
      4256.06      0.98166629    0.0098033357
      4260.32      0.97966536    0.0097568744
      4264.58      0.96815836    0.0097111033
      4268.84      0.95741614    0.0096736111
      4273.11      0.95188213    0.0096110718
      4277.38      0.94093766    0.0095773077
      4281.66      0.93559470    0.0095305563
      4285.94      0.92927467    0.0094784402
      4290.23      0.92587581    0.0094641903
      4294.52      0.91209585    0.0094416335
      4298.81      0.89197519    0.0094334185
      4303.11      0.88870343    0.0093989384
      4307.42      0.88683579    0.0093667606
      4311.72      0.87940312    0.0093169858
      4316.04      0.87344786    0.0093218600
      4320.35      0.87233026    0.0092832606
      4324.67      0.87338940    0.0093467107
      4329.00      0.87078555    0.0094474136
      4333.33      0.87316498    0.0094544461
      4337.66      0.88448988    0.0093374829
      4342.00      0.87790634    0.0094701473
      4346.34      0.88260049    0.0096707330
      4350.69      0.88256552    0.0099156203
      4355.04      0.88905788     0.010249143
      4359.39      0.89504564     0.010605162
      4363.75      0.90451153     0.010998645
      4368.12      0.89532905     0.011449318
      4372.48      0.89813718     0.011750744
      4376.86      0.88977640     0.012018584
      4381.23      0.89146013     0.012095948
      4385.61      0.89710486     0.011962078
      4390.00      0.90094711     0.011729021
      4394.39      0.91068682     0.011380149
      4398.79      0.91637566     0.010987923
      4403.18      0.92252535     0.010612357
      4407.59      0.93175338     0.010366325
      4412.00      0.94353932     0.010272061
      4416.41      0.96000427     0.010031389
      4420.82      0.97923580    0.0098221398
      4425.25      0.99091189    0.0098061480
      4429.67       1.0032985    0.0097975416
      4434.10       1.0079215    0.0097890024
      4438.54       1.0179703    0.0097861072
      4442.97       1.0193106    0.0097770748
      4447.42       1.0284195    0.0097454187
      4451.86       1.0323181    0.0097183859
      4456.32       1.0376058    0.0097112834
      4460.77       1.0316443    0.0097244505
      4465.24       1.0294483    0.0097160421
      4469.70       1.0333757    0.0096910397
      4474.17       1.0339332    0.0096830214
      4478.65       1.0303783    0.0096642957
      4483.12       1.0230740    0.0096244087
      4487.61       1.0208811    0.0096299341
      4492.09       1.0252182    0.0096564220
      4496.59       1.0409890    0.0096661048
      4501.08       1.0609905    0.0096481651
      4505.58       1.0817388    0.0096757364
      4510.09       1.0910774    0.0097116717
      4514.60       1.0842313    0.0097619784
      4519.12       1.0882753    0.0097759716
      4523.63       1.0942661    0.0098003965
      4528.16       1.1019864    0.0098027511
      4532.69       1.1151657    0.0097937303
      4537.22       1.1152591    0.0098015394
      4541.76       1.1189200    0.0098016911
      4546.30       1.1013484    0.0098358193
      4550.85       1.0940636    0.0098658369
      4555.40       1.1079822    0.0098005756
      4559.95       1.0987263    0.0098241285
      4564.51       1.0912636    0.0098206331
      4569.08       1.0934335    0.0098337116
      4573.65       1.0886669    0.0098742133
      4578.22       1.0975401    0.0098550250
      4582.80       1.1098336    0.0098334281
      4587.38       1.1101810    0.0098169571
      4591.97       1.1118813    0.0098145663
      4596.56       1.1056515    0.0098169667
      4601.16       1.0965973    0.0098263531
      4605.76       1.0974417    0.0098104879
      4610.37       1.1007423    0.0098350630
      4614.98       1.1048433    0.0098181016
      4619.59       1.1125427    0.0098142372
      4624.21       1.1049319    0.0098182971
      4628.84       1.0978117    0.0097902777
      4633.47       1.0860055    0.0097988599
      4638.10       1.0752624    0.0098063521
      4642.74       1.0726379    0.0097570594
      4647.38       1.0549864    0.0097337014
      4652.03       1.0419274    0.0096931551
      4656.68       1.0329509    0.0096911733
      4661.34       1.0094287    0.0096998373
      4666.00       1.0028442    0.0096858997
      4670.67      0.99678486    0.0097005357
      4675.33      0.97813893    0.0097556564
      4680.01      0.96764154    0.0098105366
      4684.69      0.96166141    0.0098704291
      4689.38      0.96188255    0.0098686936
      4694.07      0.94987721    0.0098979968
      4698.76      0.94795354    0.0099129624
      4703.46      0.95163221    0.0098897804
      4708.16      0.94919201    0.0098946764
      4712.87      0.93883285    0.0098785086
      4717.58      0.93508668    0.0098689977
      4722.30      0.92076340    0.0098407308
      4727.03      0.90722654    0.0098301742
      4731.75      0.90931597    0.0097740502
      4736.48      0.90777627    0.0097544738
      4741.22      0.90098541    0.0097359261
      4745.96      0.90338081    0.0097180049
      4750.71      0.89861387    0.0097065454
      4755.46      0.90808163    0.0096697344
      4760.22      0.90824613    0.0096289769
      4764.97      0.90306171    0.0096128748
      4769.74      0.90150023    0.0096095321
      4774.51      0.90490158    0.0096185671
      4779.29      0.90804247    0.0095641828
      4784.07      0.89969595    0.0095288838
      4788.85      0.89683158    0.0094706854
      4793.64      0.89714456    0.0094230240
      4798.43      0.87781787    0.0094235485
      4803.23      0.87511748    0.0093725188
      4808.03      0.87343239    0.0093044207
      4812.84      0.86678098    0.0092866618
      4817.66      0.86424869    0.0092705062
      4822.48      0.87017386    0.0092109167
      4827.30      0.86785179    0.0091913210
      4832.12      0.86427211    0.0091833604
      4836.96      0.86539850    0.0091549567
      4841.79      0.85964721    0.0091645064
      4846.63      0.86561842    0.0091032250
      4851.48      0.85912562    0.0090780591
      4856.33      0.85408556    0.0090618393
      4861.19      0.85327699    0.0090016603
      4866.05      0.85432711    0.0089812700
      4870.92      0.84791646    0.0089511077
      4875.79      0.84672828    0.0089274446
      4880.66      0.85497214    0.0088575653
      4885.55      0.85638240    0.0088421065
      4890.43      0.85165267    0.0088461962
      4895.32      0.85824421    0.0088128253
      4900.22      0.86404940    0.0088048045
      4905.12      0.86715110    0.0087993207
      4910.02      0.87189548    0.0087907727
      4914.94      0.87072229    0.0087942230
      4919.85      0.86977313    0.0087362829
      4924.77      0.85249479    0.0087376362
      4929.70      0.84583189    0.0087463484
      4934.62      0.83792029    0.0087278321
      4939.56      0.82383192    0.0087582867
      4944.50      0.80677735    0.0087607476
      4949.44      0.79467873    0.0088057805
      4954.39      0.79663250    0.0088410962
      4959.35      0.78346700    0.0089259154
      4964.31      0.77882129    0.0089979772
      4969.27      0.78168389    0.0090464581
      4974.24      0.78127069    0.0090737343
      4979.22      0.77811028    0.0091217323
      4984.20      0.78116502    0.0091041898
      4989.18      0.78690538    0.0090920753
      4994.17      0.79697966    0.0090380370
      4999.16      0.81520890    0.0090067117
      5004.16      0.82099257    0.0089902397
      5009.17      0.83218559    0.0089696145
      5014.18      0.83261177    0.0089812972
      5019.19      0.83095100    0.0090133731
      5024.21      0.83094791    0.0091042821
      5029.23      0.83047368    0.0091305075
      5034.26      0.82940749    0.0091424303
      5039.30      0.84578040    0.0091179073
      5044.34      0.85370796    0.0091191147
      5049.39      0.85902934    0.0091804422
      5054.43      0.85996282    0.0091838943
      5059.49      0.86193402    0.0092312755
      5064.55      0.85934661    0.0092073812
      5069.61      0.84986182    0.0092447963
      5074.68      0.84587367    0.0092069639
      5079.76      0.84119722    0.0092137719
      5084.84      0.82395572    0.0091945621
      5089.92      0.81548091    0.0091199064
      5095.01      0.80988150    0.0090372390
      5100.11      0.79484537    0.0090031299
      5105.21      0.78419928    0.0089256468
      5110.31      0.77347134    0.0088639257
      5115.42      0.75842268    0.0088439784
      5120.54      0.74791072    0.0088603523
      5125.66      0.75630943    0.0088950642
      5130.79      0.76783677    0.0088770944
      5135.92      0.77992492    0.0089107609
      5141.05      0.78658514    0.0089545552
      5146.20      0.80037058    0.0090115395
      5151.34      0.81390856    0.0090714966
      5156.49      0.82595557    0.0091416498
      5161.65      0.83069848    0.0091522777
      5166.81      0.83512695    0.0091417730
      5171.98      0.85053595    0.0090937167
      5177.15      0.85342826    0.0090296064
      5182.33      0.84133555    0.0089330673
      5187.51      0.82725398    0.0088299817
      5192.70      0.81762917    0.0087463640
      5197.89      0.79571263    0.0086801112
      5203.09      0.78029923    0.0085753050
      5208.29      0.76491150    0.0084857376
      5213.50      0.74308571    0.0084680069
      5218.72      0.72746342    0.0084129175
      5223.93      0.72528939    0.0083665881
      5229.16      0.71574807    0.0083092065
      5234.39      0.70681598    0.0082768109
      5239.62      0.70831007    0.0081503356
      5244.86      0.70938691    0.0080587373
      5250.11      0.70650985    0.0079776829
      5255.36      0.71607242    0.0078921375
      5260.61      0.71656096    0.0078312877
      5265.87      0.72724117    0.0077568104
      5271.14      0.73413490    0.0076938977
      5276.41      0.73835812    0.0076214898
      5281.69      0.73866492    0.0075578915
      5286.97      0.73004894    0.0075029394
      5292.26      0.73363937    0.0074760059
      5297.55      0.72649925    0.0074291490
      5302.85      0.71408871    0.0073620178
      5308.15      0.71100121    0.0073159588
      5313.46      0.70069452    0.0073097768
      5318.77      0.69548956    0.0073090650
      5324.09      0.68654589    0.0073776054
      5329.42      0.67568987    0.0074174472
      5334.75      0.66285525    0.0075204069
      5340.08      0.66101456    0.0076376529
      5345.42      0.65897895    0.0077821440
      5350.77      0.65758621    0.0079087770
      5356.12      0.65472028    0.0080212562
      5361.48      0.65048818    0.0081559625
      5366.83      0.65545918    0.0082244819
      5372.20      0.66852786    0.0082913103
      5377.58      0.67589603    0.0083086838
      5382.95      0.68428972    0.0083495632
      5388.34      0.68147599    0.0083250548
      5393.72      0.68006496    0.0083277123
      5399.12      0.68001842    0.0082729297
      5404.52      0.68413448    0.0082169114
      5409.92      0.68017407    0.0081563411
      5415.33      0.68022754    0.0081164952
      5420.75      0.67566859    0.0080600103
      5426.17      0.67459993    0.0080215480
      5431.60      0.67318758    0.0079767034
      5437.03      0.67373311    0.0079538887
      5442.47      0.67249007    0.0079355593
      5447.91      0.66380103    0.0080400351
      5453.36      0.65797687    0.0081665374
      5458.81      0.65530876    0.0083303085
      5464.27      0.65255274    0.0085189448
      5469.73      0.64479030    0.0087200194
      5475.20      0.63898101    0.0090400549
      5480.68      0.63646062    0.0093674397
      5486.16      0.62997900    0.0098851595
      5491.65      0.62931231     0.010386724
      5497.14      0.62896593     0.011044239
      5502.64      0.62957237     0.012037031
      5508.14      0.63397252     0.013420847
      5513.65      0.64319051     0.015184093
      5519.16      0.65479074     0.017479694
      5524.68      0.66370373     0.020419571
      5530.20      0.68470435     0.023996661
