# starting wavelength =        3290.5513
# ending wavelength =        8299.4000
# O2 telluric scale =        0
# O2 telluric shift =        0
# H2O telluric scale =        0
# H2O telluric shift =        0
      3291.88      0.79425664     0.052151804
      3295.18      0.78906194     0.052009634
      3298.47      0.78114053     0.051874570
      3301.77      0.74202937     0.052244200
      3305.07      0.72752128     0.051433429
      3308.38      0.72675692     0.051287044
      3311.69      0.73083368     0.051698726
      3315.00      0.73648846     0.051531788
      3318.31      0.72496248     0.051371576
      3321.63      0.75038624     0.051219413
      3324.95      0.81491742     0.050998340
      3328.28      0.81054089     0.050827795
      3331.61      0.79088151     0.050665199
      3334.94      0.79278125     0.050509525
      3338.27      0.81340807     0.050932558
      3341.61      0.82784663     0.050792172
      3344.95      0.81426994     0.049966387
      3348.30      0.81223742     0.050372661
      3351.65      0.80658294     0.050220936
      3355.00      0.82350696     0.050078330
      3358.35      0.84817776     0.049943759
      3361.71      0.86180242     0.050332018
      3365.07      0.87317092     0.049518440
      3368.44      0.89804168     0.049373982
      3371.81      0.92579845     0.049795413
      3375.18      0.92737883     0.049628442
      3378.56      0.91594674     0.049471453
      3381.94      0.92170245     0.049323388
      3385.32      0.94126527     0.049099123
      3388.70      0.94999156     0.048931385
      3392.09      0.92097957     0.048773843
      3395.48      0.91438580     0.049209728
      3398.88      0.88859760     0.049068932
      3402.28      0.84995536     0.048939218
      3405.68      0.82308380     0.048659080
      3409.09      0.81453939     0.048509802
      3412.49      0.79686093     0.048370602
      3415.91      0.78835778     0.048794847
      3419.32      0.78807746     0.048631822
      3422.74      0.78225251     0.047817780
      3426.17      0.83047712     0.048271019
      3429.59      0.83826089     0.048096992
      3433.02      0.83010578     0.047935498
      3436.45      0.81888163     0.047786624
      3439.89      0.83466481     0.047575668
      3443.33      0.85529656     0.047404193
      3446.78      0.84488853     0.047245742
      3450.22      0.84094006     0.047699079
      3453.67      0.85931393     0.047564839
      3457.13      0.86801710     0.047443171
      3460.58      0.90840468     0.047155001
      3464.04      0.90135611     0.047010948
      3467.51      0.92089153     0.046880799
      3470.98      0.96832674     0.047302388
      3474.45      0.99230287     0.047147248
      3477.92       1.0051963     0.046331409
      3481.40       1.0085809     0.046773603
      3484.88       1.0064351     0.046609372
      3488.37       1.0083201     0.046460544
      3491.86      0.98742810     0.046253603
      3495.35      0.98778816     0.046081340
      3498.84      0.99796887     0.046547443
      3502.34       1.0035241     0.046403658
      3505.84      0.99987701     0.046276566
      3509.35       1.0032447     0.046014349
      3512.86       1.0276494     0.045862546
      3516.37       1.0460989     0.045727810
      3519.89       1.0607870     0.046185888
      3523.41       1.0669004     0.046024345
      3526.93       1.0605579     0.045189740
      3530.46       1.0599993     0.045660927
      3533.99       1.0524154     0.045492124
      3537.53       1.0430306     0.045342552
      3541.06       1.0123402     0.045142043
      3544.60      0.99568993     0.044966406
      3548.15      0.97725207     0.045459337
      3551.70      0.96454438     0.045320558
      3555.25      0.95442508     0.045202330
      3558.80      0.96043601     0.044928035
      3562.36      0.97363423     0.044783117
      3565.92      0.97456251     0.044659365
      3569.49      0.98956670     0.045119316
      3573.06      0.97630144     0.044252319
      3576.64      0.96061008     0.044769612
      3580.21      0.95276144     0.044589888
      3583.79      0.94623764     0.044433747
      3587.38      0.92233524     0.044250834
      3590.96      0.92413835     0.044066237
      3594.55      0.95444680     0.044589822
      3598.15      0.96863773     0.044450094
      3601.75      0.99350002     0.044335325
      3605.35       1.0042944     0.044057857
      3608.96       1.0156853     0.043916202
      3612.56       1.0213124     0.044450204
      3616.18      0.99996303     0.044275165
      3619.79      0.97891203     0.043389951
      3623.41      0.96451414     0.043922272
      3627.04      0.95175962     0.043745613
      3630.66      0.94112283     0.044328942
      3634.29      0.94069085     0.043394959
      3637.93      0.94820718     0.043218737
      3641.57      0.96330601     0.043794465
      3645.21      0.98998589     0.043674853
      3648.86      0.99901736     0.043416236
      3652.50       1.0007074     0.043266709
      3656.16       1.0140059     0.043148000
      3659.81       1.0409552     0.043662482
      3663.47       1.0549981     0.042741609
      3667.14       1.0822955     0.043314499
      3670.80       1.0966841     0.043131070
      3674.48       1.1219877     0.043766007
      3678.15       1.1355180     0.042782118
      3681.83       1.1500794     0.042605985
      3685.51       1.1587090     0.043234766
      3689.20       1.1470385     0.042251993
      3692.88       1.1395072     0.042847097
      3696.58       1.1509337     0.042710278
      3700.27       1.1621481     0.041727263
      3703.98       1.1651213     0.042318820
      3707.68       1.1780648     0.042189289
      3711.39       1.1929033     0.041207953
      3715.10       1.2033041     0.041797098
      3718.81       1.2214993     0.041676347
      3722.53       1.2358852     0.040692357
      3726.26       1.2538077     0.041285665
      3729.98       1.2543536     0.041174171
      3733.71       1.2281348     0.040915089
      3737.45       1.2077504     0.040776911
      3741.18       1.1761167     0.039843813
      3744.93       1.1536722     0.040402362
      3748.67       1.1295345     0.040276320
      3752.42       1.0851501     0.039335426
      3756.17       1.0502477     0.039901372
      3759.93       1.0048496     0.039009038
      3763.69      0.96020771     0.038835661
      3767.45      0.91711351     0.039405617
      3771.22      0.87504910     0.038504149
      3774.99      0.84150671     0.038345803
      3778.77      0.82002677     0.038187810
      3782.54      0.81916565     0.038007594
      3786.33      0.82247802     0.038555212
      3790.11      0.82974456     0.037683745
      3793.90      0.82644894     0.037519749
      3797.70      0.82596114     0.037376584
      3801.50      0.82663938     0.037190905
      3805.30      0.82349486     0.037045272
      3809.10      0.81714416     0.036874333
      3812.91      0.82456230     0.036709199
      3816.73      0.84047153     0.036572100
      3820.54      0.83603066     0.036384928
      3824.36      0.82448194     0.036239135
      3828.19      0.80914169     0.036074400
      3832.02      0.79755995     0.035909818
      3835.85      0.76510084     0.035773781
      3839.68      0.75016861     0.035590227
      3843.52      0.74698249     0.035449057
      3847.37      0.75783385     0.035282731
      3851.22      0.76048843     0.035122427
      3855.07      0.77563384     0.034983638
      3858.92      0.78915915     0.034807133
      3862.78      0.80269019     0.034055096
      3866.64      0.81584951     0.034499721
      3870.51      0.84356075     0.034348572
      3874.38      0.87268240     0.034204051
      3878.26      0.89925263     0.034035730
      3882.13      0.94724782     0.033306971
      3886.02       1.0026101     0.033729183
      3889.90       1.0428807     0.032992011
      3893.79       1.0705256     0.033430941
      3897.69       1.0948596     0.033276975
      3901.59       1.1186048     0.032576343
      3905.49       1.1575447     0.032974235
      3909.39       1.2000325     0.032263820
      3913.30       1.2495942     0.032673314
      3917.22       1.3012604     0.031958046
      3921.13       1.3448316     0.031864024
      3925.06       1.3776518     0.031657733
      3928.98       1.4211055     0.031553884
      3932.91       1.4718189     0.031364784
      3936.84       1.5018658     0.031250707
      3940.78       1.5338549     0.031639472
      3944.72       1.5540275     0.030951023
      3948.67       1.5625619     0.030867040
      3952.61       1.5761848     0.030657466
      3956.57       1.6022662     0.030564366
      3960.52       1.6020147     0.030368693
      3964.48       1.6097924     0.030267102
      3968.45       1.5960154     0.030083288
      3972.42       1.5912639     0.029974800
      3976.39       1.6014621     0.029312605
      3980.37       1.6194273     0.029686931
      3984.35       1.6421028     0.029039313
      3988.33       1.6561900     0.029403013
      3992.32       1.6609636     0.029320912
      3996.31       1.6614032     0.029122460
      4000.31       1.6662459     0.029034087
      4004.31       1.6723096     0.028845064
      4008.31       1.6771210     0.028751956
      4012.32       1.6769714     0.028571058
      4016.33       1.6822775     0.028472779
      4020.35       1.6852899     0.027834904
      4024.37       1.6702442     0.028197243
      4028.40       1.6662172     0.027570786
      4032.42       1.6688054     0.027925288
      4036.46       1.6503154     0.027309284
      4040.50       1.6418022     0.027657038
      4044.54       1.6099260     0.027049391
      4048.58       1.5858052     0.027389877
      4052.63       1.5674768     0.026791308
      4056.68       1.5393512     0.027126365
      4060.74       1.5095493     0.026536535
      4064.80       1.4708412     0.026865563
      4068.86       1.4333784     0.026283276
      4072.93       1.4048483     0.026170792
      4077.01       1.3901862     0.026031572
      4081.08       1.3714033     0.025918283
      4085.17       1.3643200     0.025781454
      4089.25       1.3636755     0.025668767
      4093.34       1.3833462     0.025534290
      4097.43       1.3926851     0.025421613
      4101.53       1.3891512     0.025288477
      4105.63       1.4023721     0.025176264
      4109.74       1.4195803     0.025043792
      4113.85       1.4313683     0.024932597
      4117.96       1.4552218     0.024801410
      4122.08       1.4638300     0.024692330
      4126.20       1.4837274     0.024561215
      4130.33       1.4926807     0.024042449
      4134.46       1.4947184     0.024322161
      4138.59       1.5001428     0.023810832
      4142.73       1.4894448     0.024084828
      4146.88       1.4797861     0.023580481
      4151.02       1.4691871     0.023850578
      4155.18       1.4584901     0.023354192
      4159.33       1.4283571     0.023618221
      4163.49       1.3876761     0.023129379
      4167.65       1.3575554     0.023387695
      4171.82       1.3459598     0.022906518
      4175.99       1.3130331     0.023159377
      4180.17       1.2621366     0.022687727
      4184.35       1.2227445     0.022934398
      4188.54       1.1884838     0.022470880
      4192.72       1.1675986     0.022329375
      4196.92       1.1440024     0.022257507
      4201.11       1.1204572     0.022112478
      4205.31       1.1079774     0.022045961
      4209.52       1.1047084     0.021899615
      4213.73       1.1037186     0.021839285
      4217.94       1.1139458     0.021688996
      4222.16       1.1142682     0.021935520
      4226.38       1.1248804     0.021481948
      4230.61       1.1434390     0.021353805
      4234.84       1.1590548     0.021277111
      4239.08       1.1737709     0.021146408
      4243.32       1.1876333     0.021077311
      4247.56       1.2150959     0.020941666
      4251.81       1.2409498     0.020880120
      4256.06       1.2365882     0.020740802
      4260.32       1.2426033     0.020309527
      4264.58       1.2523992     0.020542619
      4268.84       1.2502353     0.020110810
      4273.11       1.2479565     0.020349823
      4277.38       1.2415971     0.020223546
      4281.66       1.2392842     0.020159917
      4285.94       1.2396814     0.020029873
      4290.23       1.2492659     0.019616255
      4294.52       1.2435666     0.019839086
      4298.81       1.2445114     0.019423970
      4303.11       1.2437756     0.019653918
      4307.42       1.2437855     0.019235720
      4311.72       1.2464766     0.019136245
      4316.04       1.2448752     0.019346795
      4320.35       1.2330396     0.018946436
      4324.67       1.2306451     0.019163802
      4329.00       1.2434521     0.018761501
      4333.33       1.2503377     0.018668951
      4337.66       1.2466842     0.018581164
      4342.00       1.2639601     0.018482995
      4346.34       1.2672169     0.018692017
      4350.69       1.2489209     0.018302186
      4355.04       1.2394301     0.018214679
      4359.39       1.2338606     0.018126971
      4363.75       1.2165841     0.018032791
      4368.12       1.2059085     0.017955997
      4372.48       1.2048963     0.017855554
      4376.86       1.1935470     0.017771300
      4381.23       1.1911369     0.017684163
      4385.61       1.1915801     0.017592716
      4390.00       1.1889706     0.017241123
      4394.39       1.1789694     0.017421256
      4398.79       1.1747825     0.017338332
      4403.18       1.1801796     0.017256143
      4407.59       1.1963732     0.017167054
      4412.00       1.2067394     0.016826221
      4416.41       1.2154387     0.017001147
      4420.82       1.2259329     0.016919073
      4425.25       1.2201371     0.016574996
      4429.67       1.2192032     0.016752386
      4434.10       1.2095242     0.016425921
      4438.54       1.2091644     0.016594161
      4442.97       1.2046508     0.016510243
      4447.42       1.2073948     0.016181823
      4451.86       1.2103012     0.016352269
      4456.32       1.2029496     0.016040077
      4460.77       1.2100862     0.015944524
      4465.24       1.2180318     0.016116455
      4469.70       1.2430726     0.015804278
      4474.17       1.2736562     0.015713463
      4478.65       1.2913780     0.015671413
      4483.12       1.3124912     0.015574239
      4487.61       1.3397215     0.015487667
      4492.09       1.3639080     0.015442667
      4496.59       1.3894449     0.015350612
      4501.08       1.4163291     0.015267635
      4505.58       1.4415734     0.015220447
      4510.09       1.4555610     0.015132006
      4514.60       1.4783586     0.015052253
      4519.12       1.5003446     0.015003682
      4523.63       1.5258926     0.014918319
      4528.16       1.5508368     0.014629032
      4532.69       1.5700329     0.014792954
      4537.22       1.5842112     0.014710268
      4541.76       1.6030524     0.014426034
      4546.30       1.6276467     0.014587262
      4550.85       1.6468166     0.014506827
      4555.40       1.6713179     0.014227638
      4559.95       1.6921992     0.014387402
      4564.51       1.6981746     0.014308829
      4569.08       1.6990313     0.014033870
      4573.65       1.7057561     0.014192422
      4578.22       1.7025292     0.014115406
      4582.80       1.6982213     0.013844312
      4587.38       1.6888450     0.014003220
      4591.97       1.6832850     0.013927363
      4596.56       1.6659436     0.013659672
      4601.16       1.6630447     0.013599911
      4605.76       1.6547120     0.013743925
      4610.37       1.6434158     0.013479424
      4614.98       1.6247328     0.013420397
      4619.59       1.6102600     0.013566108
      4624.21       1.5993222     0.013304314
      4628.84       1.5872531     0.013245482
      4633.47       1.5714784     0.013192642
      4638.10       1.5596480     0.013133894
      4642.74       1.5470856     0.013075039
      4647.38       1.5277437     0.013022562
      4652.03       1.5037424     0.012968971
      4656.68       1.4802453     0.012909905
      4661.34       1.4551584     0.012856941
      4666.00       1.4270127     0.012619816
      4670.67       1.3989511     0.012749703
      4675.33       1.3614297     0.012696417
      4680.01       1.3234412     0.012468398
      4684.69       1.2808304     0.012596553
      4689.38       1.2409262     0.012541238
      4694.07       1.1962432     0.012492094
      4698.76       1.1631245     0.012263166
      4703.46       1.1278071     0.012391490
      4708.16       1.1050993     0.012341831
      4712.87       1.0831543     0.012122944
      4717.58       1.0658049     0.012068095
      4722.30       1.0618096     0.012197175
      4727.03       1.0695921     0.012150875
      4731.75       1.0739815     0.011933123
      4736.48       1.0847988     0.011881932
      4741.22       1.1018235     0.012011378
      4745.96       1.1210095     0.011804843
      4750.71       1.1475868     0.011752560
      4755.46       1.1736823     0.011704529
      4760.22       1.1936211     0.011833900
      4764.97       1.2115798     0.011630172
      4769.74       1.2228149     0.011580957
      4774.51       1.2384972     0.011535659
      4779.29       1.2500608     0.011514941
      4784.07       1.2622778     0.011464395
      4788.85       1.2613057     0.011417697
      4793.64       1.2640878     0.011374714
      4798.43       1.2682888     0.011178551
      4803.23       1.2668826     0.011307512
      4808.03       1.2764420     0.011263371
      4812.84       1.2854157     0.011222578
      4817.66       1.2904740     0.011029795
      4822.48       1.2955247     0.011159648
      4827.30       1.2985928     0.011116992
      4832.12       1.3140767     0.011078048
      4836.96       1.3196985     0.010888604
      4841.79       1.3246188     0.010855819
      4846.63       1.3233520     0.010979627
      4851.48       1.3195209     0.010941948
      4856.33       1.3150297     0.010754854
      4861.19       1.3104902     0.010723641
      4866.05       1.3049356     0.010695308
      4870.92       1.2892716     0.010815351
      4875.79       1.2778368     0.010631820
      4880.66       1.2632323     0.010602217
      4885.55       1.2488584     0.010575565
      4890.43       1.2328100     0.010552965
      4895.32       1.2248227     0.010522244
      4900.22       1.2119310     0.010498036
      4905.12       1.1924458     0.010479607
      4910.02       1.1864493     0.010466727
      4914.94       1.1902535     0.010459515
      4919.85       1.1896681     0.010436214
      4924.77       1.2035292     0.010429250
      4929.70       1.2147821     0.010426898
      4934.62       1.2288600     0.010428770
      4939.56       1.2455424     0.010433426
      4944.50       1.2745962     0.010280770
      4949.44       1.3016307     0.010415674
      4954.39       1.3278855     0.010417385
      4959.35       1.3642627     0.010420908
      4964.31       1.4058797     0.010427053
      4969.27       1.4514326     0.010278036
      4974.24       1.4904987     0.010278494
      4979.22       1.5193488     0.010415020
      4984.20       1.5606018     0.010418502
      4989.18       1.5859220     0.010423302
      4994.17       1.6015200     0.010278045
      4999.16       1.6138801     0.010278122
      5004.16       1.6193093     0.010278886
      5009.17       1.6187409     0.010415612
      5014.18       1.6114083     0.010419122
      5019.19       1.5907841     0.010279216
      5024.21       1.5468539     0.010278028
      5029.23       1.4887846     0.010278089
      5034.26       1.4570629     0.010278709
      5039.30       1.4270648     0.010280841
      5044.34       1.3855442     0.010418115
      5049.39       1.3509174     0.010279826
      5054.43       1.3232147     0.010278359
      5059.49       1.2973581     0.010278028
      5064.55       1.2615720     0.010278111
      5069.61       1.2310740     0.010279578
      5074.68       1.2108820     0.010137991
      5079.76       1.1993460     0.010140369
      5084.84       1.1898199     0.010279534
      5089.92       1.1907223     0.010278508
      5095.01       1.1900636     0.010277783
      5100.11       1.1891774     0.010278280
      5105.21       1.1984791     0.010279245
      5110.31       1.2064524     0.010137025
      5115.42       1.2038607     0.010139339
      5120.54       1.2101452     0.010142139
      5125.66       1.2326488     0.010278906
      5130.79       1.2783636     0.010278248
      5135.92       1.3132375     0.010278001
      5141.05       1.3355897     0.010278111
      5146.20       1.3500013     0.010135531
      5151.34       1.3657576     0.010136907
      5156.49       1.3815259     0.010138595
      5161.65       1.3775637     0.010141165
      5166.81       1.3837388     0.010143558
      5171.98       1.3837638     0.010146707
      5177.15       1.3827182     0.010150611
      5182.33       1.3807216     0.010277916
      5187.51       1.3779423     0.010134655
      5192.70       1.3678311     0.010135657
      5197.89       1.3705747     0.010136493
      5203.09       1.3766501     0.010137709
      5208.29       1.3757148     0.010139704
      5213.50       1.3758679     0.010141346
      5218.72       1.3816695     0.010143678
      5223.93       1.3814399     0.010146180
      5229.16       1.3857862     0.010010302
      5234.39       1.4019183     0.010010124
      5239.62       1.4093979     0.010010322
      5244.86       1.4160893     0.010010449
      5250.11       1.4139758     0.010011143
      5255.36       1.4203693     0.010136255
      5260.61       1.4159388     0.010136955
      5265.87       1.4212912     0.010138324
      5271.14       1.4288083     0.010139370
      5276.41       1.4362671     0.010140659
      5281.69       1.4442183     0.010142531
      5286.97       1.4486962     0.010011538
      5292.26       1.4560627     0.010010945
      5297.55       1.4680358     0.010011150
      5302.85       1.4670410     0.010011876
      5308.15       1.4575991     0.010013289
      5313.46       1.4489208     0.010014442
      5318.77       1.4440540     0.010015240
      5324.09       1.4364689     0.010017170
      5329.42       1.4352498     0.010021123
      5334.75       1.4358661     0.010028399
      5340.08       1.4234188     0.010038061
      5345.42       1.4050613     0.010047457
      5350.77       1.3926316     0.010057854
      5356.12       1.3953522    0.0099345446
      5361.48       1.3916401    0.0099451327
      5366.83       1.3886846    0.0099520899
      5372.20       1.3847601    0.0099567501
      5377.58       1.3801446    0.0099599964
      5382.95       1.3638373    0.0099617075
      5388.34       1.3487849    0.0099615783
      5393.72       1.3403591    0.0099597367
      5399.12       1.3281044    0.0099581254
      5404.52       1.3087668    0.0099572168
      5409.92       1.2992359    0.0099563623
      5415.33       1.2928189    0.0099545135
      5420.75       1.2861568    0.0099508248
      5426.17       1.2715081    0.0099459877
      5431.60       1.2743561    0.0099406791
      5437.03       1.2750483    0.0099357393
      5442.47       1.2710133    0.0099303077
      5447.91       1.2759300    0.0099237224
      5453.36       1.2851792    0.0099179348
      5458.81       1.2940918    0.0099149761
      5464.27       1.2804613    0.0099126906
      5469.73       1.2712764    0.0099097098
      5475.20       1.2730783    0.0099091013
      5480.68       1.2766664    0.0099119034
      5486.16       1.2683647    0.0099182210
      5491.65       1.2695830    0.0099277446
      5497.14       1.2770796    0.0099404259
      5502.64       1.2803439    0.0099565126
      5508.14       1.2759101    0.0099754252
      5513.65       1.2845857    0.0099963491
      5519.16       1.2816350     0.010019242
      5524.68       1.2719764     0.010043448
      5530.20       1.2644852     0.010068443
      5535.73       1.2619051     0.010094143
      5541.27       1.2471076     0.010119954
      5546.81       1.2310523     0.010146565
      5552.36       1.2190822     0.010174136
      5557.91       1.1988905     0.010202059
      5563.47       1.1757356     0.010230367
      5569.04       1.1394939     0.010259034
      5574.60       1.1186190     0.010287910
      5580.18       1.1022564     0.010204168
      5585.76       1.0859863     0.010233864
      5591.35       1.0695752     0.010263838
      5596.94       1.0630517     0.010294203
      5602.53       1.0747266     0.010324951
      5608.14       1.0693269     0.010356133
      5613.75       1.0597115     0.010387643
      5619.36       1.0663566     0.010419455
      5624.98       1.0692836     0.010451719
      5630.60       1.0737365     0.010484604
      5636.23       1.0850906     0.010517849
      5641.87       1.0827173     0.010551585
      5647.51       1.0869066     0.010586185
      5653.16       1.0961058     0.010503646
      5658.82       1.0933413     0.010541042
      5664.47       1.0875100     0.010576851
      5670.14       1.0633192     0.010609191
      5675.81       1.0128537     0.010645694
      5681.48      0.98072547     0.010688250
      5687.17      0.93827295     0.010736660
      5692.85      0.90044054     0.010940022
      5698.55      0.86719317     0.011000811
      5704.25      0.82861821     0.011064187
      5709.95      0.79410635     0.011016948
      5715.66      0.75628176     0.011071860
      5721.38      0.73292673     0.011121962
      5727.10      0.72540492     0.011164939
      5732.83      0.72073002     0.011200128
      5738.56      0.72350267     0.011227984
      5744.30      0.73666822     0.011249451
      5750.04      0.75395126     0.011267189
      5755.79      0.78916825     0.011284622
      5761.55      0.82293720     0.011187521
      5767.31      0.85235233     0.011365946
      5773.08      0.87845518     0.011393193
      5778.85      0.89790627     0.011416933
      5784.63      0.90715075     0.011445334
      5790.41      0.94570197     0.011476725
      5796.21      0.97227106     0.011509277
      5802.00       1.0012536     0.011423324
      5807.81       1.0234183     0.011458929
      5813.61       1.0433012     0.011496395
      5819.43       1.0648224     0.011535035
      5825.25       1.0890129     0.011722806
      5831.07       1.1006413     0.011761129
      5836.90       1.1094110     0.011801027
      5842.74       1.1152208     0.011721933
      5848.58       1.1273219     0.011764086
      5854.43       1.1316419     0.011808453
      5860.29       1.1360219     0.011855576
      5866.15       1.1349957     0.011905776
      5872.01       1.1317397     0.011960790
      5877.89       1.1164232     0.012042655
      5883.76       1.1079460     0.012093826
      5889.65       1.1077099     0.012145343
      5895.54       1.1015970     0.012197180
      5901.43       1.1100770     0.012249492
      5907.34       1.1139461     0.012301001
      5913.24       1.1192326     0.012211390
      5919.16       1.1316573     0.012412868
      5925.08       1.1458315     0.012453328
      5931.00       1.1504962     0.012494944
      5936.93       1.1478306     0.012538506
      5942.87       1.1418921     0.012448817
      5948.81       1.1388326     0.012491512
      5954.76       1.1297612     0.012534950
      5960.72       1.1237934     0.012741456
      5966.68       1.1046751     0.012785147
      5972.64       1.0842851     0.012693467
      5978.62       1.0618764     0.012731900
      5984.60       1.0415843     0.012772997
      5990.58       1.0167444     0.012816105
      5996.57      0.99488707     0.013023976
      6002.57      0.98541479     0.012931711
      6008.57      0.97420218     0.012971846
      6014.58      0.96402138     0.013014542
      6020.60      0.95157596     0.013060208
      6026.62      0.94046696     0.012979767
      6032.65      0.93932052     0.013191701
      6038.68      0.92949276     0.013236265
      6044.72      0.91826918     0.013281933
      6050.76      0.90759388     0.013199377
      6056.81      0.90433453     0.013248565
      6062.87      0.89703973     0.013463275
      6068.93      0.89102968     0.013509367
      6075.00      0.89607049     0.013556790
      6081.08      0.90563208     0.013473643
      6087.16      0.91301572     0.013525006
      6093.25      0.92665188     0.013740685
      6099.34      0.94831315     0.013788204
      6105.44      0.97202817     0.013702034
      6111.54      0.99115343     0.013753248
      6117.66       1.0030887     0.013806601
      6123.78       1.0210704     0.013884198
      6129.90       1.0312758     0.013933515
      6136.03       1.0359947     0.013984695
      6142.17       1.0349831     0.014038561
      6148.31       1.0363799     0.014117740
      6154.46       1.0237504     0.014167253
      6160.61       1.0187072     0.014219380
      6166.77       1.0075818     0.014273699
      6172.94       1.0012207     0.014353590
      6179.11      0.99274622     0.014403940
      6185.29      0.99090765     0.014463427
      6191.48      0.99676964     0.014415755
      6197.67      0.99407133     0.014496449
      6203.87      0.98354241     0.014736078
      6210.07      0.97969906     0.014779447
      6216.28      0.96774452     0.014741992
      6222.50      0.95104385     0.014887860
      6228.72      0.92819968     0.015280206
      6234.95      0.90012987     0.015431687
      6241.19      0.88136140     0.015685396
      6247.42      0.86146587     0.015950595
      6253.67      0.83655512     0.016342587
      6259.93      0.81388480     0.016544681
      6266.19      0.80909816     0.016695620
      6272.46      0.78605784     0.017020822
      6278.73      0.79168657     0.016805920
      6285.01      0.79531293     0.016733799
      6291.29      0.80223197     0.016626440
      6297.58      0.80664673     0.016458332
      6303.88      0.80156901     0.016356127
      6310.19      0.78430548     0.016312037
      6316.50      0.75321155     0.016310062
      6322.81      0.71717615     0.016241949
      6329.14      0.69195871     0.016195135
      6335.47      0.66048547     0.016027648
      6341.80      0.62748490     0.016211342
      6348.14      0.61370772     0.016216676
      6354.49      0.60595239     0.016078569
      6360.85      0.60704316     0.016293455
      6367.21      0.62382684     0.016175939
      6373.57      0.65228251     0.016224578
      6379.95      0.68503724     0.016470450
      6386.33      0.73911317     0.016354825
      6392.72      0.78862303     0.016398882
      6399.11      0.85361561     0.016442853
      6405.51      0.91933371     0.016495522
      6411.92      0.96984235     0.016531372
      6418.32       1.0103964     0.016575456
      6424.74       1.0470558     0.016636734
      6431.17       1.0789591     0.016677515
      6437.60       1.0982913     0.016552661
      6444.04       1.1087484     0.016785730
      6450.48       1.1283388     0.016832702
      6456.94       1.1436990     0.016715478
      6463.39       1.1454981     0.016968808
      6469.85       1.1450673     0.017037600
      6476.33       1.1284963     0.016934667
      6482.80       1.1122975     0.017212477
      6489.28       1.0852649     0.017131179
      6495.77       1.0599464     0.017225998
      6502.27       1.0351169     0.017564874
      6508.77       1.0196583     0.017594320
      6515.28       1.0112403     0.018021069
      6521.80      0.99623049     0.018134745
      6528.32      0.96611052     0.018343632
      6534.85      0.94337173     0.018791405
      6541.38      0.93343030     0.018772064
      6547.92      0.93653326     0.018884033
      6554.47      0.93163312     0.019022471
      6561.03      0.92776132     0.019067437
      6567.59      0.92414239     0.019122665
      6574.16      0.92807829     0.019125603
      6580.73      0.92422492     0.019142852
      6587.31      0.91773856     0.019228156
      6593.90      0.91042042     0.019291908
      6600.50      0.90093646     0.019183977
      6607.10      0.88570071     0.019482894
      6613.70      0.86216232     0.019339416
      6620.32      0.85784937     0.019579122
      6626.94      0.85955085     0.019371578
      6633.57      0.86023743     0.019353337
      6640.20      0.87082187     0.019529949
      6646.84      0.87040632     0.019325725
      6653.49      0.86835497     0.019504285
      6660.14      0.89073924     0.019267705
      6666.80      0.90980591     0.019235128
      6673.47      0.92607745     0.019186263
      6680.14      0.92574433     0.019165988
      6686.82      0.93809077     0.019152127
      6693.51      0.93769050     0.019146705
      6700.20      0.94136574     0.019161737
      6706.90      0.93617879     0.019177990
      6713.61      0.93009504     0.019015340
      6720.32      0.92039099     0.019243306
      6727.05      0.90620206     0.019081257
      6733.77      0.88270276     0.019303666
      6740.51      0.86726822     0.019145163
      6747.25      0.85806651     0.019377987
      6754.00      0.85189573     0.019229074
      6760.75      0.84626771     0.019471532
      6767.51      0.84934678     0.019330026
      6774.28      0.84584728     0.019361062
      6781.05      0.84964341     0.019436520
      6787.84      0.83735088     0.019470174
      6794.62      0.82383950     0.019552836
      6801.42      0.80450453     0.019587081
      6808.22      0.79163168     0.019671373
      6815.03      0.77563760     0.019707176
      6821.85      0.76476586     0.019794184
      6828.67      0.74593970     0.019830131
      6835.50      0.71500366     0.019923028
      6842.33      0.70808540     0.019990962
      6849.17      0.70479309     0.020251828
      6856.02      0.68818589     0.020453801
      6862.88      0.66303355     0.020667558
      6869.74      0.64651586     0.020636364
      6876.61      0.62060999     0.020889709
      6883.49      0.60315210     0.021271761
      6890.37      0.58736997     0.021827393
      6897.27      0.57100044     0.023121750
      6904.16      0.55838681     0.024158319
      6911.07      0.53999169     0.026013459
      6917.98      0.52270753     0.027360515
      6924.89      0.50650593     0.029347067
      6931.82      0.52153660     0.031270974
      6938.75      0.56429978     0.031549698
      6945.69      0.59126544     0.032133039
      6952.64      0.61225934     0.030995934
      6959.59      0.66260116     0.029519441
      6966.55      0.73304651     0.028314182
      6973.52      0.80643854     0.026500970
      6980.49      0.85963297     0.025432866
      6987.47      0.92153402     0.024223451
      6994.46      0.94372920     0.023568583
      7001.46      0.96509364     0.022748024
      7008.46      0.97145860     0.022155369
      7015.46      0.97401199     0.022118959
      7022.48      0.96877993     0.021785636
      7029.51      0.95120035     0.021797897
      7036.53      0.93301156     0.021517418
      7043.57      0.91881768     0.021448724
      7050.62      0.90608893     0.021614866
      7057.66      0.87888562     0.021424579
      7064.72      0.85790163     0.021653398
      7071.79      0.82983842     0.021480130
      7078.86      0.76916691     0.021540636
      7085.94      0.75174826     0.021565135
      7093.03      0.76567613     0.021631674
      7100.12      0.77938661     0.021895222
      7107.22      0.76985450     0.021729607
      7114.33      0.78040336     0.021802318
      7121.44      0.81094434     0.021831006
      7128.56      0.80334386     0.021899751
      7135.69      0.80686586     0.021745580
      7142.83      0.80727116     0.022005703
      7149.97      0.80968861     0.022088279
      7157.12      0.81193975     0.021935858
      7164.28      0.82133437     0.022210817
      7171.44      0.84910320     0.022070195
      7178.62      0.86699999     0.022153548
      7185.80      0.87308406     0.022426979
      7192.98      0.87370833     0.022263017
      7200.17      0.86931950     0.022521200
      7207.38      0.87767079     0.022359952
      7214.58      0.89085209     0.022412905
      7221.80      0.93203018     0.022666596
      7229.02      0.96684332     0.022498750
      7236.25      0.98021977     0.022549710
      7243.49      0.99400842     0.022589508
      7250.73       1.0233581     0.022642664
      7257.98       1.0525672     0.022702480
      7265.24       1.0491705     0.022537395
      7272.51       1.0528618     0.022797824
      7279.78       1.0543558     0.022854872
      7287.06       1.0544521     0.022681261
      7294.35       1.0493204     0.022932829
      7301.64       1.0489483     0.022977253
      7308.94       1.0420293     0.022796599
      7316.25       1.0135711     0.023052739
      7323.57      0.99707948     0.022864173
      7330.89      0.97019893     0.022913207
      7338.22      0.93809840     0.022978568
      7345.56      0.92173594     0.023006942
      7352.91      0.90709207     0.023094944
      7360.26      0.88384594     0.023213422
      7367.62      0.86805507     0.023284023
      7374.99      0.83041846     0.023444610
      7382.37      0.80143682     0.023661022
      7389.75      0.78062524     0.023646653
      7397.14      0.75552802     0.024097237
      7404.53      0.74255824     0.024402644
      7411.94      0.72767202     0.024738625
      7419.35      0.70644360     0.024758055
      7426.77      0.68509788     0.025177721
      7434.20      0.67004621     0.025286364
      7441.63      0.64944207     0.025092400
      7449.07      0.63940613     0.025143875
      7456.52      0.63151630     0.025383296
      7463.98      0.62966896     0.025160264
      7471.45      0.61040497     0.025130205
      7478.92      0.59782002     0.025080149
      7486.40      0.59500708     0.025044187
      7493.88      0.58918861     0.025004096
      7501.38      0.58375637     0.024989271
      7508.88      0.58354667     0.024962288
      7516.39      0.56671719     0.024931934
      7523.91      0.54771028     0.024877379
      7531.43      0.56966123     0.024815026
      7538.96      0.57566918     0.024749556
      7546.50      0.58319777     0.024480473
      7554.05      0.58166769     0.024705613
      7561.60      0.59438718     0.024723389
      7569.16      0.56959429     0.024448584
      7576.73      0.56241796     0.024327637
      7584.31      0.53613024     0.024223409
      7591.89      0.51919906     0.024366721
      7599.49      0.49482196     0.024067784
      7607.09      0.50740230     0.024009000
      7614.70      0.50752505     0.023953686
      7622.31      0.51727049     0.023895802
      7629.93      0.52803659     0.024056582
      7637.56      0.51693232     0.023804424
      7645.20      0.51703783     0.023783189
      7652.85      0.52700100     0.023766342
      7660.50      0.52863136     0.023751324
      7668.16      0.54478278     0.023521880
      7675.83      0.57437350     0.023714099
      7683.50      0.58657150     0.023712263
      7691.19      0.60662300     0.023713251
      7698.88      0.61932885     0.023505327
      7706.58      0.63442048     0.023507089
      7714.29      0.60775267     0.023510909
      7722.00      0.61605565     0.023720689
      7729.73      0.60470476     0.023732871
      7737.45      0.60536500     0.023532423
      7745.19      0.63124949     0.023537025
      7752.94      0.67725002     0.023541789
      7760.69      0.67714019     0.023544012
      7768.45      0.69440480     0.023542955
      7776.22      0.69547292     0.023743792
      7784.00      0.69063315     0.023532652
      7791.78      0.69362271     0.023522927
      7799.57      0.70491161     0.023111599
      7807.37      0.72118760     0.023104628
      7815.18      0.72084650     0.022898223
      7822.99      0.70883090     0.022705431
      7830.82      0.69797244     0.022510068
      7838.65      0.69326053     0.022326840
      7846.49      0.67669890     0.022145602
      7854.34      0.66179607     0.021966228
      7862.19      0.63554044     0.021790016
      7870.05      0.61423170     0.021623011
      7877.93      0.59004719     0.021451564
      7885.80      0.57826233     0.021288095
      7893.69      0.56031631     0.021121855
      7901.58      0.55549763     0.021110141
      7909.49      0.54153888     0.020801120
      7917.40      0.53542298     0.020644164
      7925.31      0.52800450     0.020627741
      7933.24      0.48081718     0.020332982
      7941.17      0.49314639     0.020315108
      7949.11      0.51494489     0.020030662
      7957.06      0.53148200     0.019883840
      7965.02      0.56295535     0.019866645
      7972.98      0.56082906     0.019599417
      7980.96      0.57758633     0.019582690
      7988.94      0.60617487     0.019324373
      7996.93      0.61119814     0.019306481
      8004.93      0.61472248     0.019172526
      8012.93      0.62442335     0.018928378
      8020.95      0.62654375     0.018912904
      8028.97      0.63308549     0.018683604
      8036.99      0.63223342     0.018677418
      8045.03      0.62473570     0.018468091
      8053.08      0.61558957     0.018458623
      8061.13      0.60667341     0.018259771
      8069.20      0.60013452     0.018153909
      8077.26      0.60064730     0.018148687
      8085.34      0.58561949     0.017966087
      8093.43      0.56834572     0.017988443
      8101.52      0.55735329     0.017841044
      8109.62      0.54596024     0.017907579
      8117.73      0.55735929     0.017830182
      8125.85      0.54891143     0.017946287
      8133.98      0.54403897     0.017889687
      8142.11      0.54125456     0.017882254
      8150.25      0.53499913     0.017897260
      8158.41      0.52821680     0.017863036
      8166.56      0.51867676     0.018102615
      8174.73      0.52288665     0.018365158
      8182.91      0.55466696     0.018748586
      8191.09      0.56296399     0.019112932
      8199.28      0.56745655     0.019697577
      8207.48      0.56742049     0.020275422
      8215.69      0.56723940     0.020950031
      8223.91      0.55632409     0.021840950
      8232.13      0.55761161     0.023236863
      8240.36      0.58032794     0.024821507
      8248.60      0.57715370     0.026506240
      8256.85      0.57096834     0.029093151
      8265.11      0.56636771     0.032451951
      8273.37      0.55951232     0.037560014
      8281.65      0.54480645     0.043237936
      8289.93      0.52802679     0.049396668
      8298.22      0.50271965     0.058133945
