# starting wavelength =        2586.4500
# ending wavelength =        5536.7700
# O2 telluric scale =        0
# O2 telluric shift =        0
# H2O telluric scale =        0
# H2O telluric shift =        0
      2587.18       1.9930184     0.070075410
      2589.77       1.9162266     0.064290166
      2592.36       1.8573264     0.059284736
      2594.95       1.8063901     0.054595488
      2597.55       1.7679155     0.051167022
      2600.14       1.7254931     0.048109352
      2602.74       1.6750894     0.045676622
      2605.35       1.6330504     0.043361928
      2607.95       1.6167738     0.041318195
      2610.56       1.5859466     0.039705007
      2613.17       1.5551166     0.038168190
      2615.79       1.5291216     0.036713988
      2618.40       1.5076073     0.035621354
      2621.02       1.4866223     0.034492276
      2623.64       1.4489515     0.033497141
      2626.26       1.4208631     0.032713236
      2628.89       1.3937573     0.031825415
      2631.52       1.3610369     0.031008646
      2634.15       1.3235821     0.030383916
      2636.79       1.3021190     0.029643189
      2639.42       1.2698622     0.028977918
      2642.06       1.2619246     0.028304607
      2644.70       1.2512461     0.027797869
      2647.35       1.2413272     0.027216301
      2650.00       1.2271833     0.026669356
      2652.65       1.2292710     0.026223614
      2655.30       1.2160467     0.025771075
      2657.96       1.2150714     0.025307447
      2660.61       1.2073754     0.024899370
      2663.27       1.1952932     0.024601317
      2665.94       1.1771687     0.024316544
      2668.60       1.1740626     0.024027990
      2671.27       1.1690693     0.023777727
      2673.94       1.1746359     0.023541763
      2676.62       1.1884881     0.023392761
      2679.29       1.2110624     0.023155006
      2681.97       1.2244516     0.023011273
      2684.66       1.2425910     0.022880433
      2687.34       1.2751808     0.022754668
      2690.03       1.3087751     0.022696638
      2692.72       1.3292151     0.022636388
      2695.41       1.3677022     0.022532415
      2698.11       1.3976662     0.022463631
      2700.81       1.4289733     0.022443718
      2703.51       1.4540864     0.022494317
      2706.21       1.4849716     0.022488785
      2708.92       1.5333356     0.022465762
      2711.62       1.5758021     0.022471976
      2714.34       1.6160530     0.022518167
      2717.05       1.6655157     0.022523610
      2719.77       1.7108480     0.022531941
      2722.49       1.7462618     0.022612407
      2725.21       1.7786596     0.022620500
      2727.94       1.8142424     0.022616564
      2730.66       1.8526199     0.022563326
      2733.39       1.8755559     0.022539398
      2736.13       1.9148754     0.022469861
      2738.86       1.9270764     0.022462459
      2741.60       1.9403475     0.022412775
      2744.34       1.9640486     0.022350282
      2747.09       1.9844765     0.022287361
      2749.84       1.9877532     0.022253383
      2752.59       2.0075053     0.022204063
      2755.34       2.0157596     0.022203528
      2758.09       2.0296046     0.022136156
      2760.85       2.0553848     0.022032932
      2763.61       2.0449946     0.021948445
      2766.38       2.0611211     0.021885077
      2769.14       2.0556536     0.021919596
      2771.91       2.0613400     0.021848278
      2774.69       2.0668669     0.021779514
      2777.46       2.0734744     0.021669890
      2780.24       2.0600913     0.021573691
      2783.02       2.0560786     0.021481919
      2785.80       2.0427425     0.021366717
      2788.59       2.0203454     0.021259649
      2791.38       2.0035177     0.021143625
      2794.17       1.9959788     0.021052256
      2796.96       1.9907088     0.020905075
      2799.76       1.9725460     0.020831662
      2802.56       1.9661561     0.020778754
      2805.36       1.9438680     0.020740092
      2808.17       1.9273376     0.020720747
      2810.98       1.9186049     0.020610669
      2813.79       1.9071211     0.020678418
      2816.60       1.9116538     0.020640011
      2819.42       1.9234239     0.020664143
      2822.24       1.9301319     0.020627018
      2825.06       1.9305777     0.020570368
      2827.88       1.9293752     0.020691927
      2830.71       1.9291648     0.020669254
      2833.54       1.9321901     0.020669892
      2836.38       1.9281376     0.020605833
      2839.21       1.9225827     0.020556886
      2842.05       1.9295933     0.020548354
      2844.90       1.9245911     0.020443006
      2847.74       1.9235505     0.020371075
      2850.59       1.9434397     0.020264690
      2853.44       1.9279850     0.020234855
      2856.29       1.9042135     0.020119593
      2859.15       1.8983505     0.020014816
      2862.01       1.8823162     0.019935234
      2864.87       1.8636500     0.019881359
      2867.74       1.8713487     0.019734645
      2870.60       1.8832419     0.019736543
      2873.47       1.8962076     0.019682804
      2876.35       1.9025967     0.019641193
      2879.22       1.9063254     0.019638019
      2882.10       1.9038480     0.019605363
      2884.99       1.9119977     0.019612658
      2887.87       1.9325187     0.019587436
      2890.76       1.9452327     0.019587929
      2893.65       1.9612388     0.019601617
      2896.54       1.9856682     0.019569214
      2899.44       2.0096646     0.019485294
      2902.34       2.0275991     0.019468668
      2905.24       2.0451495     0.019439495
      2908.15       2.0434926     0.019476241
      2911.06       2.0632196     0.019466477
      2913.97       2.0846739     0.019437961
      2916.88       2.1027028     0.019408384
      2919.80       2.1082833     0.019341182
      2922.72       2.1249814     0.019264806
      2925.64       2.1385645     0.019120219
      2928.57       2.1337224     0.019062009
      2931.50       2.1335413     0.018972755
      2934.43       2.1373301     0.018856054
      2937.36       2.1103330     0.018800419
      2940.30       2.1105221     0.018688749
      2943.24       2.1114646     0.018578233
      2946.18       2.0962135     0.018436563
      2949.13       2.0775064     0.018360780
      2952.08       2.0700059     0.018240370
      2955.03       2.0559555     0.018136287
      2957.99       2.0433586     0.018021465
      2960.94       2.0204947     0.017931355
      2963.90       2.0050229     0.017790211
      2966.87       1.9963938     0.017685595
      2969.84       1.9882326     0.017592054
      2972.81       1.9798625     0.017515381
      2975.78       1.9711409     0.017448343
      2978.76       1.9733141     0.017322436
      2981.73       1.9770214     0.017320769
      2984.72       1.9697968     0.017293720
      2987.70       1.9674256     0.017254103
      2990.69       1.9695063     0.017143120
      2993.68       1.9589870     0.017101722
      2996.67       1.9575119     0.017027932
      2999.67       1.9732273     0.016858670
      3002.67       1.9651292     0.016800395
      3005.67       1.9649143     0.016730315
      3008.68       1.9543717     0.016719545
      3011.69       1.9524413     0.016588028
      3014.70       1.9465986     0.016523461
      3017.71       1.9344653     0.016481965
      3020.73       1.9444050     0.016351657
      3023.75       1.9483526     0.016300147
      3026.78       1.9460097     0.016309974
      3029.80       1.9477907     0.016207688
      3032.83       1.9474087     0.016150399
      3035.87       1.9446430     0.016045235
      3038.90       1.9477137     0.016037155
      3041.94       1.9567036     0.015996156
      3044.98       1.9623919     0.015947144
      3048.03       1.9719497     0.015945008
      3051.08       1.9678337     0.015976163
      3054.13       1.9672285     0.016008819
      3057.18       1.9913783     0.015939027
      3060.24       1.9952367     0.015956999
      3063.30       2.0012703     0.015985832
      3066.36       2.0037272     0.016013688
      3069.43       2.0162483     0.016016789
      3072.50       2.0127262     0.016045301
      3075.57       2.0135080     0.016046120
      3078.65       2.0187229     0.015974712
      3081.73       2.0224008     0.015947976
      3084.81       2.0148814     0.015947392
      3087.89       2.0121316     0.015877786
      3090.98       1.9924992     0.015927563
      3094.07       1.9814649     0.015873670
      3097.17       1.9830041     0.015873122
      3100.26       1.9720536     0.015791519
      3103.36       1.9593853     0.015745964
      3106.47       1.9418220     0.015713867
      3109.58       1.9247500     0.015641711
      3112.68       1.9121209     0.015645756
      3115.80       1.9040988     0.015550132
      3118.91       1.8795572     0.015555825
      3122.03       1.8713662     0.015430090
      3125.15       1.8572868     0.015306619
      3128.28       1.8432260     0.015276077
      3131.41       1.8174643     0.015178389
      3134.54       1.8045377     0.015087816
      3137.67       1.7900743     0.015006614
      3140.81       1.7819067     0.014887430
      3143.95       1.7612298     0.014761114
      3147.10       1.7509647     0.014700835
      3150.24       1.7284059     0.014600010
      3153.39       1.7155850     0.014540321
      3156.55       1.7150487     0.014469589
      3159.70       1.7142881     0.014438248
      3162.86       1.7100997     0.014417160
      3166.03       1.7134056     0.014344557
      3169.19       1.7220312     0.014362699
      3172.36       1.7385600     0.014299802
      3175.54       1.7482184     0.014623735
      3178.71       1.7567122     0.014432041
      3181.89       1.7709187     0.014246977
      3185.07       1.7812419     0.014325462
      3188.26       1.7838724     0.014471104
      3191.45       1.7846730     0.014607501
      3194.64       1.7944321     0.014773359
      3197.83       1.7924566     0.014934184
      3201.03       1.7863648     0.014996116
      3204.23       1.7748244     0.015087217
      3207.44       1.7526433     0.015008065
      3210.64       1.7414572     0.014778053
      3213.85       1.7325021     0.014547044
      3217.07       1.7256666     0.014280518
      3220.28       1.7180865     0.014002973
      3223.51       1.7026310     0.013777884
      3226.73       1.6997464     0.013579713
      3229.96       1.7007151     0.013467167
      3233.19       1.7057644     0.013412644
      3236.42       1.6980123     0.013716874
      3239.66       1.7010101     0.013475289
      3242.90       1.7048537     0.013349817
      3246.14       1.7183348     0.013331014
      3249.39       1.7261008     0.013289039
      3252.64       1.7423125     0.013266466
      3255.89       1.7559498     0.013247063
      3259.14       1.7639473     0.013232068
      3262.40       1.7600519     0.013239760
      3265.67       1.7655216     0.013189532
      3268.93       1.7681174     0.013181586
      3272.20       1.7810967     0.013143359
      3275.47       1.7801102     0.013079226
      3278.75       1.7884608     0.013040589
      3282.03       1.7961517     0.012999750
      3285.31       1.7917438     0.012982681
      3288.60       1.7966232     0.012962921
      3291.88       1.7990035     0.012939441
      3295.18       1.8041819     0.012925232
      3298.47       1.8090906     0.012878610
      3301.77       1.8211141     0.012858047
      3305.07       1.8165957     0.012867788
      3308.38       1.8231160     0.012815620
      3311.69       1.8215692     0.012803879
      3315.00       1.8196856     0.012770330
      3318.31       1.8116599     0.012738571
      3321.63       1.8075716     0.012676212
      3324.95       1.7922396     0.012640569
      3328.28       1.7814225     0.012558308
      3331.61       1.7741933     0.012500449
      3334.94       1.7609315     0.012447489
      3338.27       1.7530005     0.012387585
      3341.61       1.7530781     0.012319935
      3344.95       1.7455752     0.012233454
      3348.30       1.7247334     0.012230420
      3351.65       1.7090023     0.012260409
      3355.00       1.7007229     0.012578025
      3358.35       1.6968074     0.012260715
      3361.71       1.6919125     0.011949876
      3365.07       1.6812490     0.011944496
      3368.44       1.6692975     0.012027028
      3371.81       1.6630068     0.012206194
      3375.18       1.6560895     0.012394512
      3378.56       1.6473682     0.012583836
      3381.94       1.6446889     0.012722010
      3385.32       1.6464554     0.012791253
      3388.70       1.6452747     0.012728107
      3392.09       1.6385588     0.012598821
      3395.48       1.6474038     0.012362687
      3398.88       1.6573078     0.012134955
      3402.28       1.6685683     0.011871085
      3405.68       1.6716338     0.011600936
      3409.09       1.6660426     0.011423425
      3412.49       1.6519616     0.011360650
      3415.91       1.6512768     0.011477297
      3419.32       1.6563795     0.011772664
      3422.74       1.6532902     0.011384074
      3426.17       1.6525028     0.011221187
      3429.59       1.6369214     0.011178276
      3433.02       1.6292627     0.011148366
      3436.45       1.6110411     0.011142978
      3439.89       1.6042776     0.011106329
      3443.33       1.5989009     0.011036578
      3446.78       1.5921875     0.011041498
      3450.22       1.5917826     0.010996873
      3453.67       1.5886476     0.010994795
      3457.13       1.5810279     0.011001380
      3460.58       1.5864551     0.010953513
      3464.04       1.5789442     0.010948189
      3467.51       1.5785445     0.010914786
      3470.98       1.5733880     0.010894321
      3474.45       1.5767117     0.010865919
      3477.92       1.5745105     0.010812985
      3481.40       1.5693429     0.010784944
      3484.88       1.5693070     0.010743086
      3488.37       1.5622249     0.010718064
      3491.86       1.5576193     0.010676991
      3495.35       1.5523424     0.010618835
      3498.84       1.5488944     0.010630325
      3502.34       1.5433883     0.010588189
      3505.84       1.5459454     0.010562713
      3509.35       1.5517415     0.010490444
      3512.86       1.5526449     0.010484819
      3516.37       1.5502940     0.010428685
      3519.89       1.5499853     0.010393456
      3523.41       1.5429766     0.010368170
      3526.93       1.5419622     0.010335180
      3530.46       1.5395074     0.010294986
      3533.99       1.5391567     0.010223821
      3537.53       1.5336231     0.010204542
      3541.06       1.5320962     0.010117359
      3544.60       1.5200886     0.010068952
      3548.15       1.5052892    0.0099942235
      3551.70       1.4927761    0.0099310985
      3555.25       1.4703285    0.0098852632
      3558.80       1.4519408    0.0098359609
      3562.36       1.4352083    0.0097669311
      3565.92       1.4012389    0.0097332665
      3569.49       1.3716572    0.0096463230
      3573.06       1.3479632    0.0095914613
      3576.64       1.3298302    0.0095264779
      3580.21       1.3154189    0.0094525292
      3583.79       1.3017038    0.0094313262
      3587.38       1.2918842    0.0094121188
      3590.96       1.2798798    0.0094031907
      3594.55       1.2781792    0.0093700710
      3598.15       1.2755495    0.0093825769
      3601.75       1.2832221    0.0094002183
      3605.35       1.2876397    0.0094303571
      3608.96       1.2989915    0.0094204681
      3612.56       1.3086269    0.0094329606
      3616.18       1.3140075    0.0094489233
      3619.79       1.3225757    0.0094505675
      3623.41       1.3288747    0.0094412606
      3627.04       1.3330751    0.0094060064
      3630.66       1.3346676    0.0093960713
      3634.29       1.3328649    0.0094040405
      3637.93       1.3472179    0.0093823786
      3641.57       1.3540895    0.0093974823
      3645.21       1.3647672    0.0093996866
      3648.86       1.3694830    0.0094038032
      3652.50       1.3754583    0.0093484818
      3656.16       1.3774003    0.0093592724
      3659.81       1.3813549    0.0093506536
      3663.47       1.3820436    0.0093431428
      3667.14       1.3847001    0.0093329485
      3670.80       1.3919984    0.0093187046
      3674.48       1.3935287    0.0093105571
      3678.15       1.3889801    0.0092730795
      3681.83       1.3850049    0.0092557162
      3685.51       1.3771896    0.0092393895
      3689.20       1.3670062    0.0092306588
      3692.88       1.3587061    0.0092218047
      3696.58       1.3557599    0.0091942795
      3700.27       1.3530555    0.0091255368
      3703.98       1.3476244    0.0090916256
      3707.68       1.3398838    0.0090673431
      3711.39       1.3274986    0.0090592955
      3715.10       1.3179665    0.0090143893
      3718.81       1.3124231    0.0089914924
      3722.53       1.3102143    0.0089602501
      3726.26       1.3018922    0.0089120445
      3729.98       1.3012815    0.0088957577
      3733.71       1.2925929    0.0088698137
      3737.45       1.2835962    0.0088106706
      3741.18       1.2817201    0.0087432544
      3744.93       1.2602926    0.0087074046
      3748.67       1.2390156    0.0086235313
      3752.42       1.2269951    0.0085499322
      3756.17       1.2115490    0.0085020843
      3759.93       1.1984612    0.0084115209
      3763.69       1.1854431    0.0083539150
      3767.45       1.1692672    0.0082764163
      3771.22       1.1564967    0.0082178265
      3774.99       1.1367830    0.0082033913
      3778.77       1.1294321    0.0081498771
      3782.54       1.1222975    0.0081416220
      3786.33       1.1143306    0.0081290840
      3790.11       1.1167812    0.0081487480
      3793.90       1.1105917    0.0081574788
      3797.70       1.1091999    0.0081820616
      3801.50       1.1159470    0.0081813366
      3805.30       1.1156889    0.0082338615
      3809.10       1.1163097    0.0082579236
      3812.91       1.1234981    0.0082905864
      3816.73       1.1173907    0.0083627670
      3820.54       1.1311793    0.0083980723
      3824.36       1.1337362    0.0084449005
      3828.19       1.1430987    0.0084996658
      3832.02       1.1534936    0.0085525061
      3835.85       1.1646465    0.0086076749
      3839.68       1.1680388    0.0086705946
      3843.52       1.1839356    0.0086815973
      3847.37       1.1902933    0.0087351461
      3851.22       1.2013660    0.0087611980
      3855.07       1.2073761    0.0087835694
      3858.92       1.2086486    0.0087784117
      3862.78       1.2133414    0.0087998349
      3866.64       1.2094450    0.0087851108
      3870.51       1.2093627    0.0087727507
      3874.38       1.2065619    0.0087576542
      3878.26       1.2055520    0.0087302504
      3882.13       1.1945152    0.0086942513
      3886.02       1.1871926    0.0086518975
      3889.90       1.1678695    0.0086353816
      3893.79       1.1555369    0.0085632961
      3897.69       1.1329517    0.0084891031
      3901.59       1.1242875    0.0084269740
      3905.49       1.1105321    0.0083729945
      3909.39       1.0925155    0.0083306221
      3913.30       1.0785156    0.0082708021
      3917.22       1.0640948    0.0081740019
      3921.13       1.0471466    0.0081203810
      3925.06       1.0332822    0.0080804041
      3928.98       1.0258277    0.0080487890
      3932.91       1.0145288    0.0080360172
      3936.84       1.0056759    0.0080402692
      3940.78       1.0038236    0.0080365986
      3944.72       1.0060365    0.0080397991
      3948.67       1.0081959    0.0080462947
      3952.61       1.0088321    0.0080309707
      3956.57       1.0009333    0.0080469898
      3960.52      0.99971200    0.0080394553
      3964.48      0.99835397    0.0080121712
      3968.45       1.0035090    0.0079760848
      3972.42       1.0127697    0.0079377016
      3976.39       1.0197280    0.0080310712
      3980.37       1.0226441    0.0082750585
      3984.35       1.0287312    0.0081463576
      3988.33       1.0390054    0.0078694288
      3992.32       1.0364328    0.0078880541
      3996.31       1.0367983    0.0080097371
      4000.31       1.0352114    0.0081726093
      4004.31       1.0332803    0.0083145514
      4008.31       1.0253079    0.0084604522
      4012.32       1.0221413    0.0085499186
      4016.33       1.0213360    0.0086026129
      4020.35       1.0192987    0.0084992633
      4024.37       1.0150188    0.0083398541
      4028.40       1.0114468    0.0081494758
      4032.42       1.0051148    0.0079383159
      4036.46      0.99916161    0.0077266049
      4040.50       1.0018338    0.0075289636
      4044.54       1.0056099    0.0073875731
      4048.58       1.0077701    0.0073445236
      4052.63       1.0092610    0.0074618099
      4056.68       1.0155458    0.0076028202
      4060.74       1.0162250    0.0073605111
      4064.80       1.0095397    0.0072151002
      4068.86       1.0054627    0.0071896932
      4072.93       1.0010465    0.0071675758
      4077.01      0.99328462    0.0071451132
      4081.08      0.98562810    0.0071103581
      4085.17      0.97436909    0.0070768209
      4089.25      0.95580154    0.0070322071
      4093.34      0.94271105    0.0069791305
      4097.43      0.93026430    0.0069210999
      4101.53      0.91770035    0.0068433216
      4105.63      0.90330515    0.0067922608
      4109.74      0.88794877    0.0067448461
      4113.85      0.86925882    0.0067041250
      4117.96      0.86006292    0.0066566493
      4122.08      0.85143061    0.0066107654
      4126.20      0.84315711    0.0065605218
      4130.33      0.82714766    0.0065264863
      4134.46      0.81161657    0.0064908960
      4138.59      0.79645979    0.0064399829
      4142.73      0.77865180    0.0064235290
      4146.88      0.76919195    0.0063722678
      4151.02      0.75845999    0.0063265954
      4155.18      0.75009643    0.0062855970
      4159.33      0.73928450    0.0062545350
      4163.49      0.72893986    0.0062374349
      4167.65      0.71905131    0.0062027285
      4171.82      0.70636542    0.0061992715
      4175.99      0.70627007    0.0061398984
      4180.17      0.70662114    0.0061265124
      4184.35      0.70957610    0.0061138709
      4188.54      0.71313674    0.0061025217
      4192.72      0.71731095    0.0061072648
      4196.92      0.73041816    0.0061051982
      4201.11      0.73404685    0.0061233106
      4205.31      0.73597152    0.0061381762
      4209.52      0.73154907    0.0061430662
      4213.73      0.73128683    0.0061450346
      4217.94      0.72995372    0.0061196659
      4222.16      0.72629870    0.0061400097
      4226.38      0.73050066    0.0061056035
      4230.61      0.73099221    0.0060895133
      4234.84      0.73313961    0.0060668369
      4239.08      0.73662793    0.0060666316
      4243.32      0.73978918    0.0060633108
      4247.56      0.74497428    0.0060646824
      4251.81      0.75195374    0.0060943397
      4256.06      0.77081903    0.0060828853
      4260.32      0.77751487    0.0061141667
      4264.58      0.78835906    0.0061181953
      4268.84      0.79890813    0.0061219923
      4273.11      0.80812547    0.0061410494
      4277.38      0.81339834    0.0061392982
      4281.66      0.81320050    0.0061164698
      4285.94      0.81799631    0.0061286146
      4290.23      0.81996112    0.0061313556
      4294.52      0.81725889    0.0061281391
      4298.81      0.81413071    0.0061272944
      4303.11      0.81159834    0.0061247424
      4307.42      0.80965708    0.0061079178
      4311.72      0.80762272    0.0061324069
      4316.04      0.80805176    0.0061304391
      4320.35      0.81187208    0.0061361200
      4324.67      0.81637642    0.0061772820
      4329.00      0.82076121    0.0062494700
      4333.33      0.82550011    0.0062491529
      4337.66      0.82649917    0.0061892227
      4342.00      0.82068243    0.0062632183
      4346.34      0.82157091    0.0063403757
      4350.69      0.82222480    0.0064649433
      4355.04      0.82004092    0.0066286177
      4359.39      0.82097606    0.0068238826
      4363.75      0.82427024    0.0070317678
      4368.12      0.81598443    0.0072154132
      4372.48      0.80894700    0.0073726542
      4376.86      0.79112331    0.0074655762
      4381.23      0.78422001    0.0074377604
      4385.61      0.77436274    0.0073331893
      4390.00      0.75251933    0.0072014297
      4394.39      0.75209101    0.0069510725
      4398.79      0.74693033    0.0066710539
      4403.18      0.74425346    0.0064311527
      4407.59      0.73901007    0.0062722043
      4412.00      0.72711077    0.0062176262
      4416.41      0.72305293    0.0060590721
      4420.82      0.71786738    0.0059211969
      4425.25      0.71359708    0.0058738801
      4429.67      0.70364347    0.0058377840
      4434.10      0.69558946    0.0057830864
      4438.54      0.68664001    0.0057405172
      4442.97      0.66974701    0.0056785465
      4447.42      0.65499089    0.0056495997
      4451.86      0.63956905    0.0056138980
      4456.32      0.62795505    0.0055543411
      4460.77      0.61422803    0.0055060210
      4465.24      0.61004082    0.0054739370
      4469.70      0.59609232    0.0054797026
      4474.17      0.59426095    0.0054714547
      4478.65      0.59995680    0.0054567968
      4483.12      0.60782018    0.0054381259
      4487.61      0.61920442    0.0054475349
      4492.09      0.61864526    0.0055077781
      4496.59      0.62245064    0.0055700658
      4501.08      0.62963653    0.0056041333
      4505.58      0.63035752    0.0056518170
      4510.09      0.62788465    0.0056865123
      4514.60      0.63158496    0.0057003168
      4519.12      0.64594179    0.0056734666
      4523.63      0.65604959    0.0056841852
      4528.16      0.66511313    0.0056826166
      4532.69      0.66959902    0.0057093520
      4537.22      0.67842562    0.0057181928
      4541.76      0.68677794    0.0057386589
      4546.30      0.70128659    0.0057344846
      4550.85      0.71689407    0.0057867577
      4555.40      0.73126590    0.0058351963
      4559.95      0.75124222    0.0058836337
      4564.51      0.76996219    0.0059064072
      4569.08      0.79010072    0.0059199005
      4573.65      0.79522754    0.0059148612
      4578.22      0.78874945    0.0059274451
      4582.80      0.78473576    0.0059278569
      4587.38      0.77974280    0.0059151297
      4591.97      0.76748833    0.0059343091
      4596.56      0.76258853    0.0059233561
      4601.16      0.76687198    0.0058952871
      4605.76      0.76196067    0.0058649301
      4610.37      0.75506881    0.0058561140
      4614.98      0.74931394    0.0058215321
      4619.59      0.73562118    0.0058266726
      4624.21      0.72725223    0.0058239633
      4628.84      0.72470261    0.0058090336
      4633.47      0.73011610    0.0057888365
      4638.10      0.73223014    0.0057845986
      4642.74      0.73162529    0.0057680805
      4647.38      0.73180753    0.0057760446
      4652.03      0.73565019    0.0057793358
      4656.68      0.73527009    0.0057620799
      4661.34      0.72920609    0.0057598329
      4666.00      0.72687380    0.0057442906
      4670.67      0.71990145    0.0057444822
      4675.33      0.71359187    0.0057433970
      4680.01      0.70642381    0.0057294445
      4684.69      0.69887792    0.0056918255
      4689.38      0.68773180    0.0056629308
      4694.07      0.67445943    0.0056389992
      4698.76      0.67163635    0.0055983313
      4703.46      0.66089280    0.0055660158
      4708.16      0.65120440    0.0055444890
      4712.87      0.64075723    0.0055251905
      4717.58      0.63686121    0.0055191664
      4722.30      0.63868714    0.0054954177
      4727.03      0.62769356    0.0054623096
      4731.75      0.61857535    0.0054623570
      4736.48      0.61515719    0.0054476318
      4741.22      0.61434110    0.0054468803
      4745.96      0.61538790    0.0054483242
      4750.71      0.61225365    0.0055490419
      4755.46      0.60733483    0.0055036180
      4760.22      0.60611481    0.0054721384
      4764.97      0.60557617    0.0054839478
      4769.74      0.60472685    0.0055239019
      4774.51      0.60898099    0.0055733839
      4779.29      0.60989220    0.0056249081
      4784.07      0.61536296    0.0056431433
      4788.85      0.61651167    0.0056865908
      4793.64      0.63014425    0.0056831718
      4798.43      0.62441721    0.0057230250
      4803.23      0.63400270    0.0057082264
      4808.03      0.63671202    0.0056881521
      4812.84      0.64079811    0.0056290471
      4817.66      0.62661989    0.0055935586
      4822.48      0.62567000    0.0055458562
      4827.30      0.62453107    0.0054859976
      4832.12      0.62670349    0.0054336542
      4836.96      0.62127227    0.0054451729
      4841.79      0.61769752    0.0055378611
      4846.63      0.61376555    0.0054268566
      4851.48      0.61077726    0.0054016410
      4856.33      0.60592979    0.0053854969
      4861.19      0.60032633    0.0053833695
      4866.05      0.59752540    0.0053792272
      4870.92      0.59543047    0.0053416020
      4875.79      0.59341981    0.0053248480
      4880.66      0.59223993    0.0053088857
      4885.55      0.59577589    0.0052817437
      4890.43      0.58593271    0.0052646785
      4895.32      0.59231908    0.0052258121
      4900.22      0.58079520    0.0052236763
      4905.12      0.57852020    0.0052018495
      4910.02      0.57036542    0.0052049345
      4914.94      0.56794670    0.0051925385
      4919.85      0.56580780    0.0051408963
      4924.77      0.57325268    0.0051190855
      4929.70      0.57231972    0.0051211150
      4934.62      0.56207972    0.0051626300
      4939.56      0.55525158    0.0051548952
      4944.50      0.54814185    0.0051614234
      4949.44      0.54365325    0.0051802692
      4954.39      0.53676178    0.0052057021
      4959.35      0.53424020    0.0052365535
      4964.31      0.53520025    0.0052329392
      4969.27      0.52949029    0.0052434667
      4974.24      0.53077245    0.0052180825
      4979.22      0.53220319    0.0052037142
      4984.20      0.53585410    0.0051584953
      4989.18      0.53857901    0.0051336032
      4994.17      0.53862034    0.0051041213
      4999.16      0.53841540    0.0050681016
      5004.16      0.54026727    0.0050506453
      5009.17      0.54031582    0.0050410683
      5014.18      0.54092222    0.0050343022
      5019.19      0.54432997    0.0050498699
      5024.21      0.53754280    0.0051352955
      5029.23      0.53331253    0.0051406132
      5034.26      0.53503635    0.0051263355
      5039.30      0.53705548    0.0051286297
      5044.34      0.53407944    0.0051615923
      5049.39      0.53284857    0.0052123788
      5054.43      0.53358449    0.0052671005
      5059.49      0.54115675    0.0053017252
      5064.55      0.53817042    0.0053231439
      5069.61      0.53640919    0.0053319682
      5074.68      0.54307396    0.0053200597
      5079.76      0.54516397    0.0053266667
      5084.84      0.53895218    0.0053262280
      5089.92      0.53111322    0.0052949971
      5095.01      0.52461072    0.0052348348
      5100.11      0.52640200    0.0051724572
      5105.21      0.51681199    0.0051005869
      5110.31      0.50811184    0.0050607396
      5115.42      0.49983152    0.0050499104
      5120.54      0.49655074    0.0050690412
      5125.66      0.49469545    0.0050607168
      5130.79      0.49011729    0.0050176707
      5135.92      0.49395259    0.0049844138
      5141.05      0.49843327    0.0049626476
      5146.20      0.49952132    0.0049748492
      5151.34      0.50176092    0.0049845745
      5156.49      0.51103698    0.0049699716
      5161.65      0.51368930    0.0049546888
      5166.81      0.52237096    0.0049491576
      5171.98      0.52970052    0.0049309159
      5177.15      0.52998644    0.0049148687
      5182.33      0.52723161    0.0048650321
      5187.51      0.52812973    0.0048285811
      5192.70      0.52547498    0.0047901596
      5197.89      0.52618115    0.0047411552
      5203.09      0.51645677    0.0046769491
      5208.29      0.51181808    0.0046304192
      5213.50      0.51051173    0.0046034770
      5218.72      0.50347202    0.0045821438
      5223.93      0.49608517    0.0045506734
      5229.16      0.49217332    0.0045079973
      5234.39      0.48959529    0.0044856784
      5239.62      0.48574518    0.0044307890
      5244.86      0.47929493    0.0043706671
      5250.11      0.46754263    0.0043245074
      5255.36      0.45899340    0.0042703959
      5260.61      0.45586198    0.0041912414
      5265.87      0.45500274    0.0041327826
      5271.14      0.45424243    0.0040889626
      5276.41      0.45095946    0.0040579775
      5281.69      0.44705371    0.0040244280
      5286.97      0.44486916    0.0040049227
      5292.26      0.44882556    0.0039890538
      5297.55      0.45114840    0.0039572478
      5302.85      0.44650733    0.0039192200
      5308.15      0.45118906    0.0038870138
      5313.46      0.44933920    0.0038773366
      5318.77      0.44511063    0.0038699221
      5324.09      0.44035506    0.0038919586
      5329.42      0.43821561    0.0038882516
      5334.75      0.43477043    0.0038864717
      5340.08      0.43276983    0.0038864071
      5345.42      0.43342704    0.0039031441
      5350.77      0.43077748    0.0039098461
      5356.12      0.42859274    0.0039295939
      5361.48      0.42163483    0.0039411789
      5366.83      0.41986061    0.0039206186
      5372.20      0.42278344    0.0039261987
      5377.58      0.42121712    0.0039087819
      5382.95      0.41593033    0.0039065552
      5388.34      0.41763492    0.0038825533
      5393.72      0.42226272    0.0038773332
      5399.12      0.42453401    0.0038524992
      5404.52      0.42459593    0.0038417141
      5409.92      0.42308704    0.0038301533
      5415.33      0.42728602    0.0038241006
      5420.75      0.42983307    0.0038019869
      5426.17      0.43093825    0.0037936590
      5431.60      0.43223825    0.0037954312
      5437.03      0.43833868    0.0038059440
      5442.47      0.44040954    0.0038037935
      5447.91      0.44126608    0.0038170133
      5453.36      0.44227258    0.0038672838
      5458.81      0.44589292    0.0039323081
      5464.27      0.44579229    0.0040144488
      5469.73      0.44041101    0.0041136678
      5475.20      0.43963186    0.0042530425
      5480.68      0.44094864    0.0044198094
      5486.16      0.44156387    0.0046517104
      5491.65      0.44799701    0.0048754323
      5497.14      0.45203519    0.0051915947
      5502.64      0.45469064    0.0056343675
      5508.14      0.45751010    0.0062466447
      5513.65      0.46146920    0.0070018917
      5519.16      0.46537991    0.0080691919
      5524.68      0.47234142    0.0093521387
      5530.20      0.48263296     0.011107410
      5535.73      0.48800392     0.013275732
