# starting wavelength =        1951.3433
# ending wavelength =        5896.5800
# O2 telluric scale =        0
# O2 telluric shift =        0
# H2O telluric scale =        0
# H2O telluric shift =        0
      1951.69      0.35417054     0.072694998
      1953.64      0.35450708     0.071556439
      1955.60      0.36665425     0.070151503
      1957.55      0.39637854     0.069058713
      1959.51      0.42893038     0.068063860
      1961.47      0.46075144     0.066786759
      1963.43      0.45791889     0.065982197
      1965.40      0.44730935     0.064989294
      1967.36      0.41417879     0.064315333
      1969.33      0.40411939     0.063836714
      1971.30      0.39657618     0.062926914
      1973.27      0.38748173     0.062242056
      1975.24      0.39646263     0.061303129
      1977.22      0.41689518     0.060619972
      1979.20      0.40541489     0.059819006
      1981.18      0.42175939     0.059199763
      1983.16      0.43656044     0.058487297
      1985.14      0.46049653     0.058064209
      1987.12      0.50379630     0.057692970
      1989.11      0.53203965     0.057088569
      1991.10      0.56285380     0.056568755
      1993.09      0.58923770     0.056023385
      1995.09      0.61482857     0.055586467
      1997.08      0.61300615     0.055014205
      1999.08      0.64047462     0.054618882
      2001.08      0.64500568     0.054073516
      2003.08      0.65044944     0.053736513
      2005.08      0.65728575     0.053237957
      2007.09      0.65665588     0.052907651
      2009.09      0.65789172     0.052401146
      2011.10      0.67034018     0.051947451
      2013.11      0.71855354     0.051340413
      2015.13      0.75926476     0.050894046
      2017.14      0.80790868     0.050290645
      2019.16      0.81141024     0.049983983
      2021.18      0.83671728     0.049547066
      2023.20      0.85619935     0.049322248
      2025.22      0.87620559     0.049377901
      2027.25      0.90777050     0.049423965
      2029.28      0.92318823     0.049682577
      2031.31      0.93400365     0.049683817
      2033.34      0.95007459     0.049839731
      2035.37      0.97729777     0.049818841
      2037.41      0.96459454     0.049748234
      2039.44      0.98790127     0.049743207
      2041.48      0.99293994     0.049473649
      2043.53       1.0358022     0.049317257
      2045.57       1.0388694     0.048900000
      2047.61       1.0468396     0.048403594
      2049.66       1.0275672     0.048038745
      2051.71       1.0130771     0.047525421
      2053.76      0.99288487     0.047125141
      2055.82      0.99542183     0.046470063
      2057.87      0.99032291     0.045926386
      2059.93       1.0176599     0.045640450
      2061.99       1.0372815     0.045345748
      2064.05       1.0472902     0.045116912
      2066.12       1.0597174     0.045018878
      2068.18       1.1007744     0.044778520
      2070.25       1.1114090     0.044799407
      2072.32       1.1276370     0.044804771
      2074.39       1.1343010     0.044709923
      2076.47       1.1610436     0.044590153
      2078.55       1.1761594     0.044617085
      2080.62       1.1622577     0.044482543
      2082.71       1.1270430     0.044274553
      2084.79       1.1205644     0.044195589
      2086.87       1.0992333     0.044061882
      2088.96       1.0997130     0.043718246
      2091.05       1.1126517     0.043294941
      2093.14       1.1144446     0.043040832
      2095.23       1.1079093     0.042594544
      2097.33       1.0991807     0.042118532
      2099.43       1.0597295     0.041958742
      2101.52       1.0341790     0.041524572
      2103.63       1.0113692     0.041050482
      2105.73      0.99975712     0.040554085
      2107.84       1.0041998     0.040368820
      2109.94       1.0180870     0.039902557
      2112.05       1.0439251     0.039519871
      2114.17       1.0404759     0.039259855
      2116.28       1.0310844     0.039172542
      2118.40       1.0345807     0.039055329
      2120.52       1.0395048     0.038828845
      2122.64       1.0219875     0.038634706
      2124.76       1.0220822     0.038560796
      2126.88       1.0081281     0.038426223
      2129.01       1.0026122     0.038095186
      2131.14      0.96778867     0.037830407
      2133.27      0.97280390     0.037620358
      2135.40      0.98117427     0.037291625
      2137.54      0.97162997     0.036976778
      2139.68      0.98615212     0.036917872
      2141.82      0.98132980     0.036668418
      2143.96      0.97196778     0.036469924
      2146.10      0.96119956     0.036370440
      2148.25      0.95491062     0.036140406
      2150.40      0.96378464     0.035881863
      2152.55      0.97814711     0.035631023
      2154.70      0.98214563     0.035461092
      2156.86      0.97578991     0.035194371
      2159.01      0.96489554     0.034744227
      2161.17      0.95160032     0.034293102
      2163.33      0.92028660     0.034006373
      2165.50      0.89447715     0.033663481
      2167.66      0.89391233     0.033412111
      2169.83      0.86248268     0.033245983
      2172.00      0.85821789     0.033015990
      2174.17      0.84639254     0.032968120
      2176.35      0.82338274     0.032732185
      2178.52      0.80059500     0.032738279
      2180.70      0.80269355     0.032551848
      2182.88      0.79777910     0.032392903
      2185.07      0.78183863     0.032211615
      2187.25      0.77989429     0.032196789
      2189.44      0.78341987     0.032118155
      2191.63      0.78686343     0.032161944
      2193.82      0.77182437     0.032100525
      2196.01      0.77452292     0.032121301
      2198.21      0.74896608     0.032049662
      2200.41      0.74345015     0.032036197
      2202.61      0.70353001     0.031877025
      2204.81      0.67273859     0.031730263
      2207.02      0.64431583     0.031425850
      2209.22      0.62865622     0.031119176
      2211.43      0.62615774     0.030744377
      2213.64      0.61892148     0.030504421
      2215.86      0.60101672     0.030003640
      2218.07      0.58451940     0.029646434
      2220.29      0.58715311     0.029179236
      2222.51      0.60163966     0.028975271
      2224.73      0.60547039     0.028874824
      2226.96      0.61664219     0.028528630
      2229.19      0.62451026     0.028367337
      2231.42      0.63467345     0.028355101
      2233.65      0.64469845     0.028145807
      2235.88      0.64637304     0.028139994
      2238.12      0.65605113     0.028042460
      2240.36      0.66096611     0.028168851
      2242.60      0.66869438     0.028092980
      2244.84      0.66192536     0.028055108
      2247.08      0.65311602     0.027925004
      2249.33      0.65321102     0.027740173
      2251.58      0.67157704     0.027488667
      2253.83      0.68233607     0.027246287
      2256.09      0.70121998     0.027036240
      2258.34      0.70338979     0.026788326
      2260.60      0.74963064     0.026704455
      2262.86      0.77217638     0.026534647
      2265.12      0.78357258     0.026518888
      2267.39      0.80335600     0.026471002
      2269.66      0.82501625     0.026355608
      2271.93      0.83797043     0.026224717
      2274.20      0.84656509     0.026098347
      2276.47      0.87517059     0.025829888
      2278.75      0.87994714     0.025718315
      2281.03      0.89021624     0.025647879
      2283.31      0.89472831     0.025607501
      2285.59      0.90086678     0.025593807
      2287.88      0.90307086     0.025597236
      2290.17      0.90562864     0.025591049
      2292.46      0.90142777     0.025499675
      2294.75      0.90239425     0.025623990
      2297.04      0.90902021     0.025550055
      2299.34      0.92598266     0.025569758
      2301.64      0.94227289     0.025589311
      2303.94      0.97751432     0.025556302
      2306.25      0.97434344     0.025641775
      2308.55      0.98608189     0.025707467
      2310.86       1.0144161     0.025630569
      2313.17       1.0312853     0.025804710
      2315.49       1.0645980     0.025722964
      2317.80       1.0849752     0.025736461
      2320.12       1.1317025     0.025743396
      2322.44       1.1642091     0.025786491
      2324.76       1.1716390     0.025783230
      2327.09       1.1825358     0.025954521
      2329.41       1.2033657     0.025968418
      2331.74       1.2214610     0.025832833
      2334.08       1.2220752     0.025893931
      2336.41       1.2176810     0.025715767
      2338.75       1.2070214     0.025631757
      2341.08       1.2229148     0.025366773
      2343.43       1.2191877     0.025332884
      2345.77       1.2278562     0.025136169
      2348.12       1.2131179     0.024855061
      2350.46       1.2038878     0.024652953
      2352.81       1.2094179     0.024452502
      2355.17       1.2040612     0.024279778
      2357.52       1.1844224     0.024143180
      2359.88       1.1749217     0.023908592
      2362.24       1.1733078     0.023833737
      2364.60       1.1679503     0.023686790
      2366.97       1.1401274     0.023499083
      2369.33       1.1097173     0.023417131
      2371.70       1.0972378     0.023296029
      2374.08       1.0774878     0.023204807
      2376.45       1.0689210     0.023051380
      2378.83       1.0369701     0.022964713
      2381.20       1.0127944     0.022811194
      2383.59      0.98977140     0.022786755
      2385.97      0.99346003     0.022740104
      2388.36      0.98211104     0.022805147
      2390.75      0.97223811     0.022713597
      2393.14      0.96650658     0.022687476
      2395.53      0.97050511     0.022658172
      2397.93      0.99130871     0.022452686
      2400.32      0.99849463     0.022365034
      2402.72      0.98891259     0.022245045
      2405.13      0.99765808     0.022075195
      2407.53      0.99804496     0.021884425
      2409.94      0.99381128     0.021732238
      2412.35      0.98782922     0.021553914
      2414.76      0.97588241     0.021393651
      2417.18      0.96969039     0.021238912
      2419.59      0.95301244     0.021026849
      2422.01      0.93693789     0.020859764
      2424.44      0.91990577     0.020695183
      2426.86      0.90190654     0.020564050
      2429.29      0.89060198     0.020479064
      2431.72      0.89189041     0.020387466
      2434.15      0.88517965     0.020280813
      2436.58      0.87552165     0.020263746
      2439.02      0.86430990     0.020263917
      2441.46      0.86162673     0.020265345
      2443.90      0.88059301     0.020224224
      2446.34      0.88462469     0.020216194
      2448.79      0.86851553     0.020213529
      2451.24      0.87495006     0.020176425
      2453.69      0.87769577     0.020151612
      2456.14      0.89272717     0.020059093
      2458.60      0.88805193     0.020043960
      2461.06      0.89511027     0.020010895
      2463.52      0.91316552     0.020000147
      2465.98      0.91474876     0.020034849
      2468.45      0.91702940     0.020002978
      2470.92      0.92966017     0.020018532
      2473.39      0.94778038     0.020055256
      2475.86      0.97301748     0.020091732
      2478.34      0.99949513     0.020091149
      2480.82       1.0053750     0.020133370
      2483.30       1.0138998     0.020164266
      2485.78       1.0313322     0.020180731
      2488.27       1.0540151     0.020200386
      2490.76       1.0961814     0.020138657
      2493.25       1.1167668     0.020166675
      2495.74       1.1307686     0.020183693
      2498.24       1.1440375     0.020210707
      2500.74       1.1602962     0.020248892
      2503.24       1.1682077     0.020286307
      2505.74       1.1733912     0.020260504
      2508.25       1.1968883     0.020255287
      2510.75       1.2091776     0.020252801
      2513.26       1.2122302     0.020255215
      2515.78       1.2085511     0.020209399
      2518.29       1.2207769     0.020216820
      2520.81       1.2387358     0.020319752
      2523.33       1.2449943     0.020383175
      2525.86       1.2605906     0.020446136
      2528.38       1.2645780     0.020499534
      2530.91       1.2750158     0.020581328
      2533.44       1.2894894     0.020652245
      2535.98       1.3043769     0.020623805
      2538.51       1.3316217     0.020610847
      2541.05       1.3376274     0.020662813
      2543.59       1.3398297     0.020612404
      2546.13       1.3313484     0.020472956
      2548.68       1.3200612     0.020394796
      2551.23       1.3063875     0.020286047
      2553.78       1.3003922     0.020091593
      2556.34       1.2882989     0.020052072
      2558.89       1.2641923     0.019952067
      2561.45       1.2522055     0.019748696
      2564.01       1.2260957     0.019661463
      2566.58       1.2043698     0.019570402
      2569.14       1.1821969     0.019461640
      2571.71       1.1650955     0.019370347
      2574.28       1.1425265     0.019226419
      2576.86       1.1115455     0.019174951
      2579.44       1.0676282     0.019193976
      2582.01       1.0412887     0.019037815
      2584.60       1.0079480     0.018956617
      2587.18      0.98926157     0.018785408
      2589.77      0.96913341     0.018752120
      2592.36      0.94524671     0.018610378
      2594.95      0.91793085     0.018548778
      2597.55      0.88670909     0.018571568
      2600.14      0.87148099     0.018444314
      2602.74      0.85709305     0.018394915
      2605.35      0.83655311     0.018338838
      2607.95      0.81875732     0.018287586
      2610.56      0.80558214     0.018139400
      2613.17      0.78633875     0.018111110
      2615.79      0.76659162     0.017965497
      2618.40      0.76548927     0.017865921
      2621.02      0.75867180     0.017772056
      2623.64      0.73636025     0.017725330
      2626.26      0.71712048     0.017646138
      2628.89      0.69334888     0.017545656
      2631.52      0.68635937     0.017469952
      2634.15      0.67296557     0.017421568
      2636.79      0.66657460     0.017356660
      2639.42      0.65072345     0.017305120
      2642.06      0.64058274     0.017258501
      2644.70      0.63785394     0.017139725
      2647.35      0.63412161     0.017112935
      2650.00      0.64116066     0.017089169
      2652.65      0.64726603     0.017078137
      2655.30      0.63503735     0.017093691
      2657.96      0.63532183     0.017094601
      2660.61      0.63753255     0.017049635
      2663.27      0.65197372     0.017109055
      2665.94      0.66488278     0.017068674
      2668.60      0.69465547     0.017077889
      2671.27      0.71400041     0.017114410
      2673.94      0.72687556     0.017186131
      2676.62      0.74815398     0.017184273
      2679.29      0.76332926     0.017311110
      2681.97      0.78987106     0.017299995
      2684.66      0.79850565     0.017367345
      2687.34      0.81426299     0.017481225
      2690.03      0.82632376     0.017483938
      2692.72      0.85084831     0.017526482
      2695.41      0.88701844     0.017491331
      2698.11      0.91815470     0.017595580
      2700.81      0.93864392     0.017601821
      2703.51      0.97410367     0.017663305
      2706.21       1.0041554     0.017744455
      2708.92       1.0466409     0.017805527
      2711.62       1.0907955     0.017897918
      2714.34       1.1354732     0.017988982
      2717.05       1.1726603     0.018012716
      2719.77       1.2168428     0.018079409
      2722.49       1.2569146     0.018185665
      2725.21       1.2864502     0.018182398
      2727.94       1.3262672     0.018216214
      2730.66       1.3582177     0.018267860
      2733.39       1.3920888     0.018256283
      2736.13       1.4116934     0.018322416
      2738.86       1.4459522     0.018436939
      2741.60       1.4617119     0.018467180
      2744.34       1.4953655     0.018547354
      2747.09       1.5252671     0.018624550
      2749.84       1.5411500     0.018716797
      2752.59       1.5625305     0.018735546
      2755.34       1.6020612     0.018797831
      2758.09       1.6309589     0.018868447
      2760.85       1.6511258     0.018929275
      2763.61       1.6676153     0.018937242
      2766.38       1.6772911     0.019013875
      2769.14       1.6865136     0.019112992
      2771.91       1.6981504     0.019181047
      2774.69       1.7102611     0.019207793
      2777.46       1.7119168     0.019157736
      2780.24       1.7185488     0.019150357
      2783.02       1.7242448     0.019105596
      2785.80       1.7253282     0.019030609
      2788.59       1.7195878     0.018937899
      2791.38       1.7145893     0.018854036
      2794.17       1.7017257     0.018726637
      2796.96       1.6898583     0.018665358
      2799.76       1.6728501     0.018613694
      2802.56       1.6474280     0.018606785
      2805.36       1.6321459     0.018547496
      2808.17       1.6237037     0.018531809
      2810.98       1.6128913     0.018544411
      2813.79       1.5973382     0.018549324
      2816.60       1.5954533     0.018566381
      2819.42       1.5906933     0.018579201
      2822.24       1.5960465     0.018500931
      2825.06       1.5927923     0.018527636
      2827.88       1.5946991     0.018545993
      2830.71       1.5950774     0.018558826
      2833.54       1.6059671     0.018584543
      2836.38       1.6132273     0.018528117
      2839.21       1.6106665     0.018538522
      2842.05       1.6157990     0.018533285
      2844.90       1.6098231     0.018534073
      2847.74       1.6054169     0.018505185
      2850.59       1.5926219     0.018469689
      2853.44       1.5749913     0.018379746
      2856.29       1.5598031     0.018344890
      2859.15       1.5514441     0.018322992
      2862.01       1.5477011     0.018303239
      2864.87       1.5468123     0.018349423
      2867.74       1.5442705     0.018301115
      2870.60       1.5656034     0.018294487
      2873.47       1.5681999     0.018332770
      2876.35       1.5970560     0.018348137
      2879.22       1.6117193     0.018359546
      2882.10       1.6398568     0.018416609
      2884.99       1.6649760     0.018481722
      2887.87       1.6940101     0.018475673
      2890.76       1.7153011     0.018535736
      2893.65       1.7379228     0.018650570
      2896.54       1.7681502     0.018686375
      2899.44       1.7784582     0.018687547
      2902.34       1.7952102     0.018738246
      2905.24       1.8088986     0.018775910
      2908.15       1.8143416     0.018754768
      2911.06       1.8278536     0.018838016
      2913.97       1.8471641     0.018813115
      2916.88       1.8616160     0.018841295
      2919.80       1.8623642     0.018880347
      2922.72       1.8682812     0.018864628
      2925.64       1.8802757     0.018931088
      2928.57       1.8839699     0.018887903
      2931.50       1.8932395     0.018885766
      2934.43       1.8938375     0.018875766
      2937.36       1.8942035     0.018870462
      2940.30       1.8872387     0.018863834
      2943.24       1.8801931     0.018790116
      2946.18       1.8658831     0.018840581
      2949.13       1.8608326     0.018748804
      2952.08       1.8475373     0.018727879
      2955.03       1.8179356     0.018656740
      2957.99       1.7936746     0.018694082
      2960.94       1.7700489     0.018578606
      2963.90       1.7497090     0.018481177
      2966.87       1.7335380     0.018409858
      2969.84       1.7110324     0.018375557
      2972.81       1.6726068     0.018318538
      2975.78       1.6507710     0.018358433
      2978.76       1.6323951     0.018312749
      2981.73       1.6211324     0.018388982
      2984.72       1.6115860     0.018339191
      2987.70       1.5989455     0.018358683
      2990.69       1.5901077     0.018380029
      2993.68       1.5809717     0.018327559
      2996.67       1.5705313     0.018363399
      2999.67       1.5754658     0.018274781
      3002.67       1.5738478     0.018322381
      3005.67       1.5824164     0.018241479
      3008.68       1.5810932     0.018253164
      3011.69       1.5915845     0.018286007
      3014.70       1.6116102     0.018280308
      3017.71       1.6247995     0.018340547
      3020.73       1.6390647     0.018337653
      3023.75       1.6514129     0.018377883
      3026.78       1.6604179     0.018377945
      3029.80       1.6623336     0.018502049
      3032.83       1.6792673     0.018545333
      3035.87       1.6832490     0.018534490
      3038.90       1.6879477     0.018591509
      3041.94       1.6940586     0.018617701
      3044.98       1.6868189     0.018675025
      3048.03       1.6797000     0.018675734
      3051.08       1.6702933     0.018781742
      3054.13       1.6601045     0.018772582
      3057.18       1.6736362     0.018811147
      3060.24       1.6750701     0.018880549
      3063.30       1.6832392     0.018877480
      3066.36       1.6915368     0.018976143
      3069.43       1.6939646     0.019039691
      3072.50       1.6966271     0.019033060
      3075.57       1.6939788     0.019092345
      3078.65       1.7009579     0.019133556
      3081.73       1.7054006     0.019117665
      3084.81       1.7048881     0.019202146
      3087.89       1.7043392     0.019240626
      3090.98       1.7145235     0.019197496
      3094.07       1.7044644     0.019242762
      3097.17       1.7047808     0.019265041
      3100.26       1.7027693     0.019227049
      3103.36       1.6845677     0.019260259
      3106.47       1.6726619     0.019280033
      3109.58       1.6685564     0.019283212
      3112.68       1.6701596     0.019228432
      3115.80       1.6736771     0.019275599
      3118.91       1.6495793     0.019303615
      3122.03       1.6399240     0.019312822
      3125.15       1.6300207     0.019324516
      3128.28       1.6152955     0.019303401
      3131.41       1.6061765     0.019342484
      3134.54       1.6046831     0.019384643
      3137.67       1.6040772     0.019445215
      3140.81       1.5940160     0.019538065
      3143.95       1.5955012     0.019543169
      3147.10       1.6003600     0.019606105
      3150.24       1.6020292     0.019672766
      3153.39       1.5906844     0.019786318
      3156.55       1.5862859     0.019847486
      3159.70       1.5730245     0.019952453
      3162.86       1.5692703     0.020079694
      3166.03       1.5806588     0.020218577
      3169.19       1.5935757     0.020394176
      3172.36       1.5921573     0.020580060
      3175.54       1.5935867     0.021270715
      3178.71       1.5996540     0.021141927
      3181.89       1.6103422     0.021339865
      3185.07       1.6159005     0.021755660
      3188.26       1.6264356     0.022276625
      3191.45       1.6266788     0.022977199
      3194.64       1.6353438     0.023704564
      3197.83       1.6313971     0.024519428
      3201.03       1.6226027     0.025344518
      3204.23       1.6281108     0.026084215
      3207.44       1.6209647     0.026801392
      3210.64       1.6125300     0.027341475
      3213.85       1.6037703     0.027612711
      3217.07       1.5869667     0.027663197
      3220.28       1.5917205     0.027539083
      3223.51       1.5922293     0.027690634
      3226.73       1.6055789     0.027626385
      3229.96       1.6140919     0.027668146
      3233.19       1.6116107     0.027954361
      3236.42       1.6224189     0.028714133
      3239.66       1.6097839     0.029540050
      3242.90       1.5966365     0.030151978
      3246.14       1.5977024     0.030369210
      3249.39       1.6053800     0.028502029
      3252.64       1.6108344     0.027027437
      3255.89       1.6202378     0.026416494
      3259.14       1.6101543     0.025551299
      3262.40       1.6202388     0.024664424
      3265.67       1.6254395     0.023914871
      3268.93       1.6118947     0.023414063
      3272.20       1.6190886     0.022841971
      3275.47       1.6191297     0.022273009
      3278.75       1.6183928     0.021967033
      3282.03       1.6301173     0.021510808
      3285.31       1.6341555     0.021133104
      3288.60       1.6402278     0.020685768
      3291.88       1.6417032     0.020357855
      3295.18       1.6310389     0.020050738
      3298.47       1.6198630     0.019773504
      3301.77       1.6158410     0.019626269
      3305.07       1.6200853     0.019304837
      3308.38       1.6212872     0.019102329
      3311.69       1.6335859     0.018886642
      3315.00       1.6272643     0.018726068
      3318.31       1.6243756     0.018563457
      3321.63       1.6121742     0.018340167
      3324.95       1.6214583     0.018177741
      3328.28       1.6188317     0.018059992
      3331.61       1.6050655     0.017960633
      3334.94       1.5999252     0.017825296
      3338.27       1.5969411     0.017748637
      3341.61       1.5859227     0.017583249
      3344.95       1.5745694     0.017529275
      3348.30       1.5546043     0.017402323
      3351.65       1.5314659     0.017424423
      3355.00       1.5152952     0.017449754
      3358.35       1.5121568     0.017337325
      3361.71       1.5228201     0.017275347
      3365.07       1.5361539     0.017366887
      3368.44       1.5560335     0.017454302
      3371.81       1.5829547     0.017668798
      3375.18       1.6096135     0.017928959
      3378.56       1.6226972     0.018219287
      3381.94       1.6565820     0.018362582
      3385.32       1.6747374     0.018468426
      3388.70       1.6916738     0.018511148
      3392.09       1.7031258     0.018414275
      3395.48       1.6876849     0.018262849
      3398.88       1.6805983     0.018038756
      3402.28       1.6704673     0.017832631
      3405.68       1.6462808     0.017586358
      3409.09       1.6179555     0.017177225
      3412.49       1.5886617     0.017034819
      3415.91       1.5593423     0.017055465
      3419.32       1.5508448     0.017046470
      3422.74       1.5483467     0.016868198
      3426.17       1.5494099     0.016712167
      3429.59       1.5440361     0.016653300
      3433.02       1.5517318     0.016587451
      3436.45       1.5587050     0.016472859
      3439.89       1.5609207     0.016383673
      3443.33       1.5608237     0.016298836
      3446.78       1.5631796     0.016186384
      3450.22       1.5590806     0.016125370
      3453.67       1.5436576     0.016014975
      3457.13       1.5268541     0.015969035
      3460.58       1.5117651     0.015928266
      3464.04       1.5205521     0.015870766
      3467.51       1.5156924     0.015862275
      3470.98       1.5093001     0.015852292
      3474.45       1.5036832     0.015846305
      3477.92       1.5041224     0.015782513
      3481.40       1.5124767     0.015879933
      3484.88       1.5235445     0.015890673
      3488.37       1.5344747     0.015882728
      3491.86       1.5386832     0.015902874
      3495.35       1.5465981     0.015926853
      3498.84       1.5491820     0.015853745
      3502.34       1.5594744     0.015812383
      3505.84       1.5684570     0.015773900
      3509.35       1.5732171     0.015736006
      3512.86       1.5764965     0.015722508
      3516.37       1.5800152     0.015603455
      3519.89       1.5703153     0.015590676
      3523.41       1.5713294     0.015642443
      3526.93       1.5679652     0.015628654
      3530.46       1.5654380     0.015605186
      3533.99       1.5521621     0.015505683
      3537.53       1.5518072     0.015463082
      3541.06       1.5520104     0.015419805
      3544.60       1.5676693     0.015335588
      3548.15       1.5691567     0.015233240
      3551.70       1.5620466     0.015266211
      3555.25       1.5616711     0.015160347
      3558.80       1.5515435     0.015094883
      3562.36       1.5512644     0.015081864
      3565.92       1.5446728     0.015097905
      3569.49       1.5465389     0.015095477
      3573.06       1.5429622     0.015183646
      3576.64       1.5379222     0.015269033
      3580.21       1.5357315     0.015386538
      3583.79       1.5314068     0.015475540
      3587.38       1.5232641     0.015641033
      3590.96       1.5205573     0.015546669
      3594.55       1.5016432     0.015384188
      3598.15       1.4878538     0.015402461
      3601.75       1.4728777     0.015556341
      3605.35       1.4666158     0.015770833
      3608.96       1.4556537     0.015818187
      3612.56       1.4493670     0.015925369
      3616.18       1.4365420     0.016031234
      3619.79       1.4250966     0.016150528
      3623.41       1.4221733     0.016137097
      3627.04       1.4149315     0.015572884
      3630.66       1.4182508     0.015305131
      3634.29       1.4226838     0.015107602
      3637.93       1.4324412     0.014793835
      3641.57       1.4422992     0.014594299
      3645.21       1.4392837     0.014471782
      3648.86       1.4395640     0.014422096
      3652.50       1.4421679     0.014446020
      3656.16       1.4591540     0.014503431
      3659.81       1.4614046     0.014218669
      3663.47       1.4564632     0.013896276
      3667.14       1.4523172     0.013737178
      3670.80       1.4540262     0.013628715
      3674.48       1.4528062     0.013368582
      3678.15       1.4521469     0.013167269
      3681.83       1.4500801     0.013041588
      3685.51       1.4507531     0.012933681
      3689.20       1.4444043     0.012830693
      3692.88       1.4353766     0.012936444
      3696.58       1.4292608     0.012789560
      3700.27       1.4315990     0.012827020
      3703.98       1.4316512     0.012846309
      3707.68       1.4379594     0.012837980
      3711.39       1.4358208     0.012869746
      3715.10       1.4223123     0.012927342
      3718.81       1.4157209     0.012966606
      3722.53       1.4158740     0.013032872
      3726.26       1.4168259     0.012964634
      3729.98       1.4112478     0.013033904
      3733.71       1.4073483     0.012923958
      3737.45       1.4042238     0.012885132
      3741.18       1.4011690     0.012843571
      3744.93       1.3912958     0.012868390
      3748.67       1.3857830     0.012856396
      3752.42       1.3754524     0.012892798
      3756.17       1.3661220     0.012882139
      3759.93       1.3524554     0.012851001
      3763.69       1.3372859     0.012772816
      3767.45       1.3292853     0.012665416
      3771.22       1.3218369     0.012710481
      3774.99       1.3130505     0.012510121
      3778.77       1.3044721     0.012356652
      3782.54       1.2926803     0.012170808
      3786.33       1.2799357     0.011970439
      3790.11       1.2716612     0.011892472
      3793.90       1.2617448     0.011700616
      3797.70       1.2558482     0.011627827
      3801.50       1.2545456     0.011515205
      3805.30       1.2455966     0.011381952
      3809.10       1.2421424     0.011352858
      3812.91       1.2358178     0.011290115
      3816.73       1.2420547     0.011217448
      3820.54       1.2407742     0.011095240
      3824.36       1.2376743     0.011055977
      3828.19       1.2315810     0.011026280
      3832.02       1.2223527     0.011111549
      3835.85       1.2237494     0.011055841
      3839.68       1.2166091     0.011075816
      3843.52       1.2118473     0.011143221
      3847.37       1.2131266     0.011084231
      3851.22       1.2116420     0.011055187
      3855.07       1.2149597     0.011013079
      3858.92       1.2166436     0.010958210
      3862.78       1.2238664     0.010888481
      3866.64       1.2309829     0.010769735
      3870.51       1.2412743     0.010742213
      3874.38       1.2461456     0.010629835
      3878.26       1.2503688     0.010588913
      3882.13       1.2583819     0.010576134
      3886.02       1.2704621     0.010656438
      3889.90       1.2871713     0.010698082
      3893.79       1.2935145     0.010570425
      3897.69       1.2944399     0.010471340
      3901.59       1.2924868     0.010548087
      3905.49       1.2868920     0.010691551
      3909.39       1.2870631     0.010814695
      3913.30       1.2735693     0.010916886
      3917.22       1.2682986     0.011010922
      3921.13       1.2625465     0.011152805
      3925.06       1.2524990     0.011323248
      3928.98       1.2434359     0.011517485
      3932.91       1.2369011     0.011601892
      3936.84       1.2327205     0.011729320
      3940.78       1.2275041     0.011901594
      3944.72       1.2226516     0.011886998
      3948.67       1.2239345     0.011812266
      3952.61       1.2246505     0.011807659
      3956.57       1.2239586     0.011848079
      3960.52       1.2239779     0.011794683
      3964.48       1.2219933     0.011696334
      3968.45       1.2060919     0.011575397
      3972.42       1.1940501     0.011513220
      3976.39       1.1863064     0.011344986
      3980.37       1.1765645     0.011223126
      3984.35       1.1688707     0.011220971
      3988.33       1.1577597     0.011085827
      3992.32       1.1469272     0.010959542
      3996.31       1.1455150     0.010799391
      4000.31       1.1440935     0.010623762
      4004.31       1.1471798     0.010503669
      4008.31       1.1523730     0.010385181
      4012.32       1.1609968     0.010326272
      4016.33       1.1717486     0.010256217
      4020.35       1.1766770     0.010069818
      4024.37       1.1880974    0.0099574972
      4028.40       1.1956589    0.0099268979
      4032.42       1.2042974    0.0098924819
      4036.46       1.2080355    0.0097950633
      4040.50       1.2175355    0.0097420828
      4044.54       1.2169683    0.0097687799
      4048.58       1.2214026    0.0097321588
      4052.63       1.2220210    0.0096911801
      4056.68       1.2186410    0.0096536464
      4060.74       1.2135607    0.0096350835
      4064.80       1.2115798    0.0096050089
      4068.86       1.2069919    0.0095633139
      4072.93       1.2071708    0.0094455547
      4077.01       1.2029214    0.0093754560
      4081.08       1.1939823    0.0093247681
      4085.17       1.1847022    0.0093017529
      4089.25       1.1740922    0.0092465111
      4093.34       1.1665704    0.0091674806
      4097.43       1.1534323    0.0091525581
      4101.53       1.1432787    0.0091686663
      4105.63       1.1413616    0.0091651771
      4109.74       1.1361877    0.0091869183
      4113.85       1.1261105    0.0092134871
      4117.96       1.1211288    0.0092277480
      4122.08       1.1123994    0.0093435003
      4126.20       1.1095141    0.0093352068
      4130.33       1.1039022    0.0092167065
      4134.46       1.1110350    0.0091249326
      4138.59       1.1092906    0.0092407841
      4142.73       1.1083124    0.0094483203
      4146.88       1.1063966    0.0096259582
      4151.02       1.1013415    0.0097597866
      4155.18       1.0986574     0.010008584
      4159.33       1.0849601     0.010322658
      4163.49       1.0847275     0.010630071
      4167.65       1.0785990     0.010848476
      4171.82       1.0703512     0.011049069
      4175.99       1.0612764     0.011223855
      4180.17       1.0488499     0.011376601
      4184.35       1.0455083     0.011206026
      4188.54       1.0276251     0.011185076
      4192.72       1.0207508     0.011195441
      4196.92       1.0158920     0.011289809
      4201.11       1.0059958     0.011340605
      4205.31       1.0022974     0.011231075
      4209.52      0.99502529     0.011140588
      4213.73      0.99071928     0.011090535
      4217.94      0.98068142     0.010934720
      4222.16      0.97382464     0.010918844
      4226.38      0.97222499     0.010712646
      4230.61      0.96521135     0.010553735
      4234.84      0.96431605     0.010436802
      4239.08      0.94991811     0.010120306
      4243.32      0.95389706    0.0098925882
      4247.56      0.95183225    0.0097822486
      4251.81      0.94764395    0.0096561167
      4256.06      0.94834526    0.0095101489
      4260.32      0.94291439    0.0094283218
      4264.58      0.94247894    0.0091398176
      4268.84      0.94145830    0.0090249725
      4273.11      0.94515036    0.0090475940
      4277.38      0.94623899    0.0090738187
      4281.66      0.94333310    0.0090462085
      4285.94      0.94508778    0.0091051570
      4290.23      0.94146067    0.0091349677
      4294.52      0.93852226    0.0091036164
      4298.81      0.93841468    0.0090181453
      4303.11      0.93681839    0.0090166381
      4307.42      0.93395567    0.0089851212
      4311.72      0.93100241    0.0091111139
      4316.04      0.93638159    0.0089730140
      4320.35      0.93824954    0.0088870155
      4324.67      0.94552077    0.0089421554
      4329.00      0.94607204    0.0090519042
      4333.33      0.94782470    0.0091251663
      4337.66      0.95730032    0.0090903701
      4342.00      0.95991153    0.0092479372
      4346.34      0.96732374    0.0092855507
      4350.69      0.97245786    0.0094640964
      4355.04      0.97475850    0.0097728926
      4359.39      0.97914710     0.010161766
      4363.75      0.97654306     0.010716653
      4368.12      0.97865853     0.011150861
      4372.48      0.97298599     0.011263006
      4376.86      0.96578049     0.011334459
      4381.23      0.95684196     0.011372183
      4385.61      0.95011946     0.011133410
      4390.00      0.94943476     0.011025442
      4394.39      0.94469773     0.010795060
      4398.79      0.94101663     0.010164577
      4403.18      0.93902874    0.0095856232
      4407.59      0.93198855    0.0093654512
      4412.00      0.92647461    0.0094781305
      4416.41      0.92541690    0.0094608246
      4420.82      0.92769564    0.0093838916
      4425.25      0.92329885    0.0096602715
      4429.67      0.92446791    0.0098227091
      4434.10      0.92245411    0.0099192595
      4438.54      0.91430521     0.010237960
      4442.97      0.91795686     0.010293310
      4447.42      0.92148372     0.010469698
      4451.86      0.91736688     0.010510981
      4456.32      0.90658152     0.010456431
      4460.77      0.90236583     0.010418191
      4465.24      0.89757589     0.010476851
      4469.70      0.89040662     0.010579938
      4474.17      0.88543788     0.010824032
      4478.65      0.87252072     0.010764876
      4483.12      0.86928190     0.010570334
      4487.61      0.86764112     0.010429744
      4492.09      0.85965795     0.010521573
      4496.59      0.86350916     0.010696953
      4501.08      0.86388981     0.010839345
      4505.58      0.86392693     0.011022668
      4510.09      0.86225213     0.011236636
      4514.60      0.86613076     0.011254836
      4519.12      0.85827080     0.011137688
      4523.63      0.85906323     0.011348882
      4528.16      0.86521152     0.011148600
      4532.69      0.87330636     0.011284217
      4537.22      0.87352964     0.011202470
      4541.76      0.87479416     0.010984898
      4546.30      0.88064575     0.010576727
      4550.85      0.88330967     0.010629097
      4555.40      0.88152575     0.010439780
      4559.95      0.87740360     0.010351346
      4564.51      0.87967214     0.010310707
      4569.08      0.88501663     0.010406644
      4573.65      0.88685214     0.010236276
      4578.22      0.88815923     0.010098278
      4582.80      0.88998039     0.010017525
      4587.38      0.89395758     0.010002898
      4591.97      0.89120176     0.010213596
      4596.56      0.88960858    0.0099848808
      4601.16      0.89157653    0.0097798134
      4605.76      0.88606468    0.0096117321
      4610.37      0.89133161    0.0094642478
      4614.98      0.89246492    0.0092602469
      4619.59      0.89394964    0.0090035051
      4624.21      0.88629365    0.0089130096
      4628.84      0.87846489    0.0087128121
      4633.47      0.87561631    0.0085989800
      4638.10      0.86474415    0.0085225655
      4642.74      0.85434988    0.0082650006
      4647.38      0.85046472    0.0081083566
      4652.03      0.84943317    0.0080752789
      4656.68      0.84306615    0.0080582271
      4661.34      0.83910946    0.0079290220
      4666.00      0.83507001    0.0078257577
      4670.67      0.83417086    0.0077934595
      4675.33      0.83460716    0.0077847750
      4680.01      0.83641550    0.0077431364
      4684.69      0.83563417    0.0076589652
      4689.38      0.84081772    0.0075863609
      4694.07      0.84435745    0.0075688580
      4698.76      0.83952633    0.0075590576
      4703.46      0.83351605    0.0075132911
      4708.16      0.82740599    0.0074308417
      4712.87      0.82093855    0.0074687725
      4717.58      0.81351576    0.0075397752
      4722.30      0.80881752    0.0075479905
      4727.03      0.79862070    0.0074585887
      4731.75      0.79376456    0.0074311808
      4736.48      0.79130713    0.0075068365
      4741.22      0.78330969    0.0077113959
      4745.96      0.77467951    0.0080069874
      4750.71      0.77028413    0.0083457827
      4755.46      0.76551718    0.0086856282
      4760.22      0.76516822    0.0088322468
      4764.97      0.75822042    0.0089687465
      4769.74      0.75835484    0.0091500425
      4774.51      0.75853037    0.0092991135
      4779.29      0.76241237    0.0093338124
      4784.07      0.76086955    0.0093536412
      4788.85      0.74674581    0.0092074361
      4793.64      0.74337129    0.0090996594
      4798.43      0.73443026    0.0090994268
      4803.23      0.72973357    0.0091720132
      4808.03      0.73289963    0.0093209980
      4812.84      0.73400578    0.0094686507
      4817.66      0.73094386    0.0094636685
      4822.48      0.72893190    0.0093232737
      4827.30      0.72587392    0.0090827468
      4832.12      0.72452649    0.0089983315
      4836.96      0.72307455    0.0090488921
      4841.79      0.72402473    0.0094382012
      4846.63      0.72145437    0.0090136714
      4851.48      0.71575445    0.0087461509
      4856.33      0.70782687    0.0085826628
      4861.19      0.70738121    0.0084678469
      4866.05      0.70848418    0.0084227271
      4870.92      0.71331382    0.0081085267
      4875.79      0.70443942    0.0079344521
      4880.66      0.70171053    0.0077262499
      4885.55      0.69789483    0.0076109114
      4890.43      0.69947117    0.0075153824
      4895.32      0.70083468    0.0074069919
      4900.22      0.70038153    0.0072189562
      4905.12      0.70078807    0.0072438547
      4910.02      0.69890201    0.0072042976
      4914.94      0.69970006    0.0071781119
      4919.85      0.69818082    0.0069757135
      4924.77      0.70317334    0.0069813713
      4929.70      0.70538895    0.0072184824
      4934.62      0.70478570    0.0073978434
      4939.56      0.70368640    0.0074970307
      4944.50      0.70139682    0.0077786064
      4949.44      0.70440039    0.0081856303
      4954.39      0.70845403    0.0087838022
      4959.35      0.71263011    0.0092542936
      4964.31      0.70851207    0.0095324794
      4969.27      0.69815437    0.0095966138
      4974.24      0.69680504    0.0095810315
      4979.22      0.69501547    0.0093614295
      4984.20      0.69882259    0.0090337731
      4989.18      0.69091265    0.0088699432
      4994.17      0.68283971    0.0084091117
      4999.16      0.69151607    0.0078487925
      5004.16      0.68683720    0.0073166140
      5009.17      0.68779191    0.0069900506
      5014.18      0.68672970    0.0069628095
      5019.19      0.68440791    0.0071117111
      5024.21      0.68139276    0.0075292630
      5029.23      0.67908908    0.0078593035
      5034.26      0.67530761    0.0078759090
      5039.30      0.67749561    0.0079626011
      5044.34      0.67871200    0.0079943822
      5049.39      0.67350462    0.0081994060
      5054.43      0.67469486    0.0081398772
      5059.49      0.66794041    0.0082709114
      5064.55      0.67569757    0.0081263715
      5069.61      0.67688870    0.0081682753
      5074.68      0.67937411    0.0080466403
      5079.76      0.67857028    0.0081981720
      5084.84      0.67514369    0.0085207227
      5089.92      0.68185861    0.0086029131
      5095.01      0.68625534    0.0085465476
      5100.11      0.68546149    0.0085641591
      5105.21      0.68732536    0.0084007745
      5110.31      0.68856107    0.0083031638
      5115.42      0.68752247    0.0083704454
      5120.54      0.69416568    0.0085718732
      5125.66      0.69708530    0.0087329452
      5130.79      0.69307600    0.0084013436
      5135.92      0.69575260    0.0082930521
      5141.05      0.70089103    0.0081718389
      5146.20      0.70237042    0.0082621556
      5151.34      0.70982840    0.0080966157
      5156.49      0.70621337    0.0080520201
      5161.65      0.70350065    0.0077866102
      5166.81      0.70075836    0.0077449790
      5171.98      0.70245663    0.0075426763
      5177.15      0.69736165    0.0075705241
      5182.33      0.69557430    0.0073971004
      5187.51      0.69410400    0.0071593999
      5192.70      0.69049977    0.0070166299
      5197.89      0.68754406    0.0069266709
      5203.09      0.68042810    0.0067920270
      5208.29      0.67183159    0.0066863342
      5213.50      0.66266074    0.0066901851
      5218.72      0.65538997    0.0065574207
      5223.93      0.64346383    0.0063985877
      5229.16      0.63432410    0.0061846325
      5234.39      0.62718810    0.0060924602
      5239.62      0.62327504    0.0060489899
      5244.86      0.61855216    0.0060454730
      5250.11      0.61694676    0.0060345816
      5255.36      0.60835430    0.0059471004
      5260.61      0.61111354    0.0058350702
      5265.87      0.61319381    0.0058365918
      5271.14      0.61434504    0.0058114073
      5276.41      0.61496922    0.0058579153
      5281.69      0.61642275    0.0058524287
      5286.97      0.61630946    0.0058265848
      5292.26      0.61983979    0.0058436160
      5297.55      0.62095324    0.0059108614
      5302.85      0.61928792    0.0060009095
      5308.15      0.61775707    0.0060986557
      5313.46      0.61577200    0.0061474478
      5318.77      0.61557279    0.0061548951
      5324.09      0.61579750    0.0062582157
      5329.42      0.61456322    0.0065317500
      5334.75      0.61774752    0.0068977916
      5340.08      0.62063751    0.0073650454
      5345.42      0.62500999    0.0078812692
      5350.77      0.62590474    0.0086588498
      5356.12      0.62505986    0.0092614871
      5361.48      0.63755932    0.0097883612
      5366.83      0.63120925     0.010279626
      5372.20      0.62281242     0.010616936
      5377.58      0.61955498     0.010697415
      5382.95      0.62094587     0.010495731
      5388.34      0.61603189     0.010098376
      5393.72      0.61210573    0.0099281125
      5399.12      0.60501602    0.0097530901
      5404.52      0.59321207    0.0099012867
      5409.92      0.58889079     0.010036854
      5415.33      0.59226593    0.0097946325
      5420.75      0.58266419     0.010009092
      5426.17      0.57986569    0.0097793924
      5431.60      0.57736747    0.0097556069
      5437.03      0.58039645    0.0099694315
      5442.47      0.57968899     0.010079504
      5447.91      0.58485123    0.0099524155
      5453.36      0.58561135    0.0095186105
      5458.81      0.59112595    0.0094593505
      5464.27      0.59628619    0.0093677599
      5469.73      0.59304887    0.0094959291
      5475.20      0.58971481    0.0093906569
      5480.68      0.59660614    0.0093241760
      5486.16      0.59318344    0.0088981093
      5491.65      0.58477424    0.0086263133
      5497.14      0.57765936    0.0084207081
      5502.64      0.57152201    0.0084063861
      5508.14      0.56654667    0.0080890808
      5513.65      0.55584414    0.0078172901
      5519.16      0.54546508    0.0077182345
      5524.68      0.54045874    0.0074879530
      5530.20      0.52982871    0.0075417170
      5535.73      0.52700557    0.0074792414
      5541.27      0.52656678    0.0075788483
      5546.81      0.52209187    0.0077111981
      5552.36      0.52203380    0.0080522075
      5557.91      0.52228302    0.0081582527
      5563.47      0.52075126    0.0084319635
      5569.04      0.51827573    0.0083619145
      5574.60      0.52068000    0.0083320164
      5580.18      0.52100901    0.0081542861
      5585.76      0.52678803    0.0079919183
      5591.35      0.52401779    0.0080083435
      5596.94      0.52289653    0.0078247271
      5602.53      0.52699303    0.0077239186
      5608.14      0.52582242    0.0075732879
      5613.75      0.52598121    0.0074751454
      5619.36      0.52283511    0.0073765329
      5624.98      0.52401747    0.0074217353
      5630.60      0.51810227    0.0074226038
      5636.23      0.51647462    0.0074401897
      5641.87      0.50996586    0.0076333027
      5647.51      0.50602465    0.0077503267
      5653.16      0.50488128    0.0078553016
      5658.82      0.50651287    0.0078323133
      5664.47      0.50903153    0.0079324977
      5670.14      0.50758243    0.0080199891
      5675.81      0.50676926    0.0082162951
      5681.48      0.50473773    0.0083199883
      5687.17      0.50473035    0.0083481526
      5692.85      0.50401149    0.0084672666
      5698.55      0.50405452    0.0086830359
      5704.25      0.50400875    0.0089865428
      5709.95      0.50267501    0.0095214576
      5715.66      0.49791736     0.010027559
      5721.38      0.49983710     0.010107327
      5727.10      0.50192178     0.010217555
      5732.83      0.50168552     0.010363998
      5738.56      0.50937238     0.010484920
      5744.30      0.51209956     0.010682874
      5750.04      0.51185237     0.010951559
      5755.79      0.51263158     0.011204114
      5761.55      0.51946032     0.011289499
      5767.31      0.51961932     0.011697204
      5773.08      0.52419201     0.011861113
      5778.85      0.52366249     0.012019415
      5784.63      0.52309238     0.012333458
      5790.41      0.52400866     0.012430199
      5796.21      0.52307364     0.012842291
      5802.00      0.51847856     0.013105927
      5807.81      0.51740470     0.013369728
      5813.61      0.51134763     0.014154972
      5819.43      0.50943937     0.015295337
      5825.25      0.50819825     0.015684651
      5831.07      0.50703067     0.016166146
      5836.90      0.50612034     0.016693988
      5842.74      0.49866019     0.017419456
      5848.58      0.49123562     0.018418951
      5854.43      0.48114191     0.020379650
      5860.29      0.47178976     0.022962908
      5866.15      0.47003026     0.026296077
      5872.01      0.46203458     0.028269661
      5877.89      0.45196369     0.031255207
      5883.76      0.43874807     0.036031081
      5889.65      0.42463033     0.042056831
      5895.54      0.40720599     0.051140907
