# starting wavelength =        2579.8700
# ending wavelength =        5539.5200
# O2 telluric scale =        0
# O2 telluric shift =        0
# H2O telluric scale =        0
# H2O telluric shift =        0
      2582.01      0.40343742     0.052232881
      2584.60      0.37743862     0.047181379
      2587.18      0.35391103     0.043503160
      2589.77      0.31312673     0.039491190
      2592.36      0.27001413     0.036507954
      2594.95      0.26997029     0.034067846
      2597.55      0.27625939     0.031932870
      2600.14      0.26704958     0.030060598
      2602.74      0.32093810     0.028406871
      2605.35      0.34363709     0.026860888
      2607.95      0.35122235     0.025672337
      2610.56      0.38591848     0.024661215
      2613.17      0.42116526     0.023656687
      2615.79      0.43121309     0.022842963
      2618.40      0.42056878     0.022164636
      2621.02      0.43487415     0.021469836
      2623.64      0.41297944     0.020812496
      2626.26      0.42258370     0.020293042
      2628.89      0.41495659     0.019790701
      2631.52      0.42992281     0.019322183
      2634.15      0.41520286     0.018892426
      2636.79      0.40224838     0.018531079
      2639.42      0.39644820     0.018087048
      2642.06      0.38854600     0.017740143
      2644.70      0.37880751     0.017319353
      2647.35      0.37565947     0.016930511
      2650.00      0.38104343     0.016600195
      2652.65      0.38424590     0.016331859
      2655.30      0.41623714     0.016083961
      2657.96      0.41239470     0.015852505
      2660.61      0.42986276     0.015644905
      2663.27      0.49012934     0.015302410
      2665.94      0.49912829     0.015103389
      2668.60      0.48502763     0.014983560
      2671.27      0.47684671     0.014840372
      2673.94      0.49518711     0.014654992
      2676.62      0.49668059     0.014515173
      2679.29      0.49479859     0.014384868
      2681.97      0.52056169     0.014200496
      2684.66      0.52164860     0.014054303
      2687.34      0.54206189     0.013910727
      2690.03      0.55274159     0.013748181
      2692.72      0.57699441     0.013576184
      2695.41      0.57294379     0.013468873
      2698.11      0.56112382     0.013359408
      2700.81      0.56480083     0.013239145
      2703.51      0.57912562     0.013069996
      2706.21      0.58302776     0.012960529
      2708.92      0.58092763     0.012886853
      2711.62      0.59453325     0.012811535
      2714.34      0.60258114     0.012751224
      2717.05      0.59320141     0.012723579
      2719.77      0.59896641     0.012645092
      2722.49      0.61371842     0.012568456
      2725.21      0.63473831     0.012478228
      2727.94      0.66402411     0.012391547
      2730.66      0.67375790     0.012332553
      2733.39      0.69865143     0.012287606
      2736.13      0.72912375     0.012187226
      2738.86      0.75679742     0.012059109
      2741.60      0.74591805     0.012013263
      2744.34      0.72996836     0.011948230
      2747.09      0.74121161     0.011884942
      2749.84      0.75853000     0.011789066
      2752.59      0.76903633     0.011727579
      2755.34      0.77545573     0.011686152
      2758.09      0.76693231     0.011648910
      2760.85      0.77044490     0.011597550
      2763.61      0.77634715     0.011569196
      2766.38      0.77547252     0.011569875
      2769.14      0.77820243     0.011539572
      2771.91      0.79493223     0.011422040
      2774.69      0.80014365     0.011447510
      2777.46      0.81774865     0.011413827
      2780.24      0.82334986     0.011399578
      2783.02      0.83167788     0.011370664
      2785.80      0.82222412     0.011385576
      2788.59      0.84142786     0.011377404
      2791.38      0.85405563     0.011354601
      2794.17      0.88397264     0.011293699
      2796.96      0.90228418     0.011282293
      2799.76      0.92823260     0.011306269
      2802.56      0.94453504     0.011320394
      2805.36      0.95349797     0.011363758
      2808.17      0.96578781     0.011463996
      2810.98      0.97963212     0.011521023
      2813.79      0.99183271     0.011546029
      2816.60      0.97521187     0.011641701
      2819.42      0.98682858     0.011628576
      2822.24      0.98012719     0.011750680
      2825.06      0.97674963     0.011776511
      2827.88      0.95589294     0.011824736
      2830.71      0.94767256     0.011755958
      2833.54      0.94938693     0.011740464
      2836.38      0.94353137     0.011643010
      2839.21      0.93731475     0.011584884
      2842.05      0.92974743     0.011532914
      2844.90      0.91740335     0.011526008
      2847.74      0.92060454     0.011536283
      2850.59      0.92917069     0.011547255
      2853.44      0.94835645     0.011534813
      2856.29      0.95510717     0.011560466
      2859.15      0.95842347     0.011539067
      2862.01      0.95890218     0.011585993
      2864.87      0.95784298     0.011661483
      2867.74      0.96149579     0.011727858
      2870.60       1.0070884     0.011741138
      2873.47       1.0416465     0.011796599
      2876.35       1.0931877     0.011755705
      2879.22       1.1251695     0.011866901
      2882.10       1.1657505     0.011933593
      2884.99       1.1901587     0.011996009
      2887.87       1.2368857     0.011962586
      2890.76       1.2577196     0.011945929
      2893.65       1.2721622     0.011968619
      2896.54       1.2701680     0.011910792
      2899.44       1.2855252     0.011860264
      2902.34       1.2982412     0.011726975
      2905.24       1.2868202     0.011667022
      2908.15       1.2828925     0.011600241
      2911.06       1.2709407     0.011485834
      2913.97       1.2369026     0.011420455
      2916.88       1.1930984     0.011305293
      2919.80       1.1549659     0.011245972
      2922.72       1.1357934     0.011134363
      2925.64       1.1354676     0.011022586
      2928.57       1.1287372     0.010915917
      2931.50       1.1360076     0.010764819
      2934.43       1.1568586     0.010601524
      2937.36       1.1452848     0.010530741
      2940.30       1.1299025     0.010459362
      2943.24       1.1002719     0.010425869
      2946.18       1.0711707     0.010380707
      2949.13       1.0621497     0.010289680
      2952.08       1.0580253     0.010178876
      2955.03       1.0358785     0.010071847
      2957.99       1.0140687    0.0099558786
      2960.94      0.99462983    0.0097401741
      2963.90      0.94872904    0.0095994774
      2966.87      0.89661865    0.0094437836
      2969.84      0.86391633    0.0092217276
      2972.81      0.81634600    0.0090484679
      2975.78      0.77898907    0.0089137745
      2978.76      0.75490978    0.0087841113
      2981.73      0.74553725    0.0086177057
      2984.72      0.73489496    0.0085181565
      2987.70      0.73882577    0.0084124678
      2990.69      0.74333899    0.0083070758
      2993.68      0.73310449    0.0082236241
      2996.67      0.73028051    0.0081831518
      2999.67      0.70778191    0.0081550022
      3002.67      0.71241269    0.0081040463
      3005.67      0.72291252    0.0080444543
      3008.68      0.72248668    0.0079811059
      3011.69      0.71395167    0.0079785016
      3014.70      0.74342647    0.0079229091
      3017.71      0.76489204    0.0078989682
      3020.73      0.75130212    0.0079210177
      3023.75      0.74846037    0.0079818816
      3026.78      0.76455885    0.0079804250
      3029.80      0.76080238    0.0080038659
      3032.83      0.77351152    0.0080464991
      3035.87      0.79296616    0.0080517440
      3038.90      0.81065751    0.0080571344
      3041.94      0.82969271    0.0080704297
      3044.98      0.84533807    0.0081498890
      3048.03      0.86202387    0.0081683508
      3051.08      0.87053603    0.0082146235
      3054.13      0.89589676    0.0082564396
      3057.18      0.90316094    0.0083391581
      3060.24      0.93647247    0.0083889058
      3063.30      0.95070891    0.0084749634
      3066.36      0.97232706    0.0085161356
      3069.43       1.0083432    0.0085693580
      3072.50       1.0352429    0.0085656666
      3075.57       1.0464289    0.0085726968
      3078.65       1.0431122    0.0086123427
      3081.73       1.0429942    0.0086214323
      3084.81       1.0442666    0.0086326817
      3087.89       1.0406616    0.0085986263
      3090.98       1.0293232    0.0086081785
      3094.07       1.0143458    0.0086123484
      3097.17       1.0118194    0.0086041008
      3100.26       1.0180706    0.0086134694
      3103.36       1.0188046    0.0086268937
      3106.47       1.0234572    0.0086153545
      3109.58       1.0104961    0.0086831904
      3112.68       1.0132853    0.0086506073
      3115.80       1.0145766    0.0086490697
      3118.91       1.0298757    0.0086277540
      3122.03       1.0302647    0.0086300475
      3125.15       1.0422730    0.0085877140
      3128.28       1.0595047    0.0085632395
      3131.41       1.0628808    0.0085731138
      3134.54       1.0796106    0.0085595654
      3137.67       1.0925307    0.0085252525
      3140.81       1.0916753    0.0085283619
      3143.95       1.0907796    0.0085636345
      3147.10       1.0880843    0.0085522223
      3150.24       1.0789959    0.0085534526
      3153.39       1.0860048    0.0084912785
      3156.55       1.1057361    0.0084477890
      3159.70       1.1013392    0.0084628383
      3162.86       1.0987447    0.0084110100
      3166.03       1.0745623    0.0084056991
      3169.19       1.0481303    0.0084055677
      3172.36       1.0412419    0.0083436641
      3175.54       1.0348219    0.0085091541
      3178.71       1.0313908    0.0083418948
      3181.89       1.0347183    0.0082328787
      3185.07       1.0259937    0.0082731654
      3188.26       1.0258294    0.0083228040
      3191.45       1.0179812    0.0083976519
      3194.64       1.0254095    0.0084274101
      3197.83       1.0354264    0.0084643091
      3201.03       1.0312019    0.0085088833
      3204.23       1.0083510    0.0085078965
      3207.44      0.99455038    0.0084782982
      3210.64       1.0019117    0.0084082423
      3213.85      0.99486651    0.0083093005
      3217.07      0.99337471    0.0081779087
      3220.28      0.98515080    0.0080263913
      3223.51      0.98466036    0.0079125639
      3226.73      0.98573698    0.0078325478
      3229.96      0.98901594    0.0078054337
      3233.19      0.99767674    0.0078383785
      3236.42       1.0005493    0.0080043577
      3239.66       1.0147838    0.0077819235
      3242.90       1.0286048    0.0077460963
      3246.14       1.0268156    0.0077711645
      3249.39       1.0392519    0.0077875684
      3252.64       1.0580947    0.0077822435
      3255.89       1.0703956    0.0077827216
      3259.14       1.0759332    0.0077946910
      3262.40       1.0738664    0.0077935678
      3265.67       1.0805907    0.0077774360
      3268.93       1.0884945    0.0077822034
      3272.20       1.0836813    0.0077589589
      3275.47       1.0688066    0.0077645197
      3278.75       1.0632395    0.0077315965
      3282.03       1.0578101    0.0077250129
      3285.31       1.0626168    0.0076912851
      3288.60       1.0721598    0.0076393479
      3291.88       1.0570076    0.0076110763
      3295.18       1.0536529    0.0075849384
      3298.47       1.0522338    0.0075307275
      3301.77       1.0503692    0.0074850539
      3305.07       1.0367932    0.0074445001
      3308.38       1.0349618    0.0073975891
      3311.69       1.0190816    0.0073477212
      3315.00       1.0122995    0.0073162625
      3318.31       1.0044436    0.0072884482
      3321.63       1.0027021    0.0072459749
      3324.95      0.99909053    0.0071633306
      3328.28      0.99347204    0.0071159427
      3331.61      0.97891049    0.0070926898
      3334.94      0.96807340    0.0070579577
      3338.27      0.96503532    0.0070043500
      3341.61      0.95662727    0.0070000496
      3344.95      0.94798086    0.0070053265
      3348.30      0.95573854    0.0069509861
      3351.65      0.96229502    0.0069395903
      3355.00      0.97427101    0.0069507474
      3358.35      0.99273926    0.0069154264
      3361.71      0.98612521    0.0068920899
      3365.07      0.98970998    0.0068949678
      3368.44      0.99604992    0.0069434273
      3371.81       1.0031227    0.0070023951
      3375.18      0.99906764    0.0070704512
      3378.56       1.0193665    0.0071286169
      3381.94       1.0210920    0.0072082535
      3385.32       1.0254438    0.0072548214
      3388.70       1.0391831    0.0072581770
      3392.09       1.0448991    0.0072671505
      3395.48       1.0570231    0.0072176353
      3398.88       1.0612164    0.0071523124
      3402.28       1.0600876    0.0071026554
      3405.68       1.0712187    0.0070286064
      3409.09       1.0645108    0.0069776656
      3412.49       1.0778631    0.0069194914
      3415.91       1.0959055    0.0069247951
      3419.32       1.1033207    0.0069475089
      3422.74       1.0931718    0.0069644408
      3426.17       1.0950607    0.0069050628
      3429.59       1.1144859    0.0068727647
      3433.02       1.1080748    0.0069040411
      3436.45       1.1016057    0.0069121506
      3439.89       1.1072226    0.0068977708
      3443.33       1.1116212    0.0068764522
      3446.78       1.1071731    0.0068412353
      3450.22       1.1083206    0.0068428069
      3453.67       1.1229234    0.0067954728
      3457.13       1.1216217    0.0067604086
      3460.58       1.1189874    0.0067726375
      3464.04       1.1237199    0.0067365971
      3467.51       1.1187537    0.0067429658
      3470.98       1.1244054    0.0067380164
      3474.45       1.1221404    0.0067499514
      3477.92       1.1463105    0.0067313666
      3481.40       1.1649714    0.0067414890
      3484.88       1.1767021    0.0067499017
      3488.37       1.1956695    0.0067721286
      3491.86       1.2163625    0.0067711024
      3495.35       1.2354505    0.0068105193
      3498.84       1.2407233    0.0068410104
      3502.34       1.2514024    0.0068399028
      3505.84       1.2667425    0.0068430572
      3509.35       1.2684954    0.0068488503
      3512.86       1.2776965    0.0068358366
      3516.37       1.2892519    0.0068172395
      3519.89       1.3020361    0.0067861575
      3523.41       1.2857036    0.0067896209
      3526.93       1.2788161    0.0067760117
      3530.46       1.2727925    0.0067564789
      3533.99       1.2470975    0.0067635831
      3537.53       1.2489319    0.0067401518
      3541.06       1.2453825    0.0067233351
      3544.60       1.2560309    0.0066897076
      3548.15       1.2688834    0.0066767061
      3551.70       1.2784726    0.0066816336
      3555.25       1.2792726    0.0067105456
      3558.80       1.2812883    0.0067326079
      3562.36       1.2791587    0.0067631794
      3565.92       1.2736572    0.0067903840
      3569.49       1.2771715    0.0068000661
      3573.06       1.2843376    0.0068063254
      3576.64       1.2786980    0.0067998475
      3580.21       1.2867467    0.0067786996
      3583.79       1.2892954    0.0067616428
      3587.38       1.2931547    0.0067670189
      3590.96       1.2812423    0.0067570819
      3594.55       1.2744941    0.0067275777
      3598.15       1.2605162    0.0067510068
      3601.75       1.2285432    0.0067991428
      3605.35       1.2250459    0.0068296056
      3608.96       1.2180388    0.0068368797
      3612.56       1.2163408    0.0068416270
      3616.18       1.2225171    0.0068463137
      3619.79       1.2376795    0.0068113654
      3623.41       1.2466566    0.0067944417
      3627.04       1.2446703    0.0067933324
      3630.66       1.2504374    0.0068042689
      3634.29       1.2778730    0.0068062690
      3637.93       1.2924259    0.0068319075
      3641.57       1.3181110    0.0068458870
      3645.21       1.3251814    0.0068605691
      3648.86       1.3415226    0.0068666626
      3652.50       1.3518158    0.0068831032
      3656.16       1.3720163    0.0068861427
      3659.81       1.3679042    0.0068311239
      3663.47       1.3607377    0.0067825360
      3667.14       1.3451736    0.0067554598
      3670.80       1.3206960    0.0067090371
      3674.48       1.3043261    0.0066819046
      3678.15       1.2879990    0.0066364947
      3681.83       1.2706813    0.0065749594
      3685.51       1.2579185    0.0065231952
      3689.20       1.2485806    0.0064693642
      3692.88       1.2229884    0.0064393495
      3696.58       1.2042741    0.0064185885
      3700.27       1.2019441    0.0063856663
      3703.98       1.1885257    0.0063591095
      3707.68       1.1684245    0.0063658679
      3711.39       1.1643995    0.0063586849
      3715.10       1.1577883    0.0063512428
      3718.81       1.1661199    0.0063649899
      3722.53       1.1759090    0.0064009820
      3726.26       1.1977600    0.0063942821
      3729.98       1.2107335    0.0064067905
      3733.71       1.2284922    0.0063966791
      3737.45       1.2404716    0.0064115122
      3741.18       1.2577257    0.0064170119
      3744.93       1.2643070    0.0064101438
      3748.67       1.2741770    0.0063868886
      3752.42       1.2768316    0.0063549189
      3756.17       1.2661020    0.0063476819
      3759.93       1.2474481    0.0063118450
      3763.69       1.2292443    0.0062801869
      3767.45       1.2210958    0.0062214155
      3771.22       1.2083164    0.0061781284
      3774.99       1.1918300    0.0061443110
      3778.77       1.1790651    0.0061166259
      3782.54       1.1693146    0.0060823560
      3786.33       1.1640471    0.0060554594
      3790.11       1.1627818    0.0060335377
      3793.90       1.1575449    0.0060169986
      3797.70       1.1557399    0.0060153438
      3801.50       1.1534414    0.0060218932
      3805.30       1.1496034    0.0060447661
      3809.10       1.1451874    0.0060622078
      3812.91       1.1430411    0.0060689256
      3816.73       1.1327343    0.0060803517
      3820.54       1.1352077    0.0060836883
      3824.36       1.1269914    0.0060903909
      3828.19       1.1257180    0.0061228248
      3832.02       1.1281728    0.0061379766
      3835.85       1.1385607    0.0061651325
      3839.68       1.1453703    0.0061978690
      3843.52       1.1607080    0.0062210150
      3847.37       1.1677509    0.0062426969
      3851.22       1.1717395    0.0062670225
      3855.07       1.1761544    0.0062920650
      3858.92       1.1915569    0.0063151823
      3862.78       1.2002110    0.0062932534
      3866.64       1.1991752    0.0063154839
      3870.51       1.2007681    0.0063199516
      3874.38       1.1964951    0.0063270325
      3878.26       1.1976077    0.0063257356
      3882.13       1.1952217    0.0063177802
      3886.02       1.1884198    0.0063363708
      3889.90       1.1889845    0.0063394035
      3893.79       1.1933461    0.0063304529
      3897.69       1.1928891    0.0063296661
      3901.59       1.2077066    0.0063218313
      3905.49       1.2179667    0.0063481516
      3909.39       1.2325890    0.0064006046
      3913.30       1.2445899    0.0064454034
      3917.22       1.2701429    0.0064292148
      3921.13       1.2962302    0.0064669416
      3925.06       1.3179338    0.0065233091
      3928.98       1.3316981    0.0065702484
      3932.91       1.3550825    0.0066167026
      3936.84       1.3609649    0.0066676808
      3940.78       1.3698969    0.0067068709
      3944.72       1.3712736    0.0067190081
      3948.67       1.3683554    0.0067009779
      3952.61       1.3527559    0.0066866751
      3956.57       1.3328448    0.0066407568
      3960.52       1.2961903    0.0065914425
      3964.48       1.2652384    0.0064867405
      3968.45       1.2291911    0.0063733061
      3972.42       1.2066263    0.0062635761
      3976.39       1.1985365    0.0061997074
      3980.37       1.1848818    0.0063266016
      3984.35       1.1699884    0.0065407548
      3988.33       1.1708403    0.0060903127
      3992.32       1.1674316    0.0059910355
      3996.31       1.1618207    0.0060627733
      4000.31       1.1590727    0.0062061011
      4004.31       1.1571628    0.0064000293
      4008.31       1.1759572    0.0065770565
      4012.32       1.1810025    0.0067583923
      4016.33       1.1993467    0.0068383140
      4020.35       1.2111554    0.0068701349
      4024.37       1.2090014    0.0068082091
      4028.40       1.1981642    0.0066778905
      4032.42       1.2000202    0.0065083804
      4036.46       1.1924447    0.0063360292
      4040.50       1.1953986    0.0061532025
      4044.54       1.1932234    0.0060260049
      4048.58       1.1924986    0.0059617062
      4052.63       1.2088726    0.0060091621
      4056.68       1.2060916    0.0063277153
      4060.74       1.2015378    0.0061187751
      4064.80       1.1989189    0.0059474246
      4068.86       1.2030864    0.0059051340
      4072.93       1.2032108    0.0058963434
      4077.01       1.2041447    0.0058774401
      4081.08       1.2005638    0.0058780646
      4085.17       1.1995111    0.0058634584
      4089.25       1.1850981    0.0058523231
      4093.34       1.1881409    0.0058216622
      4097.43       1.1782641    0.0058015669
      4101.53       1.1669534    0.0057759365
      4105.63       1.1621708    0.0057458518
      4109.74       1.1571714    0.0057356761
      4113.85       1.1441716    0.0057216056
      4117.96       1.1438752    0.0056986486
      4122.08       1.1573050    0.0056662060
      4126.20       1.1394006    0.0056666802
      4130.33       1.1481879    0.0056211461
      4134.46       1.1234817    0.0055982247
      4138.59       1.1098426    0.0055662265
      4142.73       1.0894314    0.0055708280
      4146.88       1.0918357    0.0055326882
      4151.02       1.0841001    0.0054949103
      4155.18       1.0840876    0.0054781122
      4159.33       1.0837262    0.0054931230
      4163.49       1.0905195    0.0054840726
      4167.65       1.0853918    0.0054987067
      4171.82       1.1008435    0.0054878144
      4175.99       1.0912021    0.0054806817
      4180.17       1.0891653    0.0054868284
      4184.35       1.0833055    0.0054544825
      4188.54       1.0734173    0.0054782267
      4192.72       1.0821649    0.0054415938
      4196.92       1.0968915    0.0054072029
      4201.11       1.0917226    0.0053860376
      4205.31       1.0719157    0.0053701422
      4209.52       1.0751086    0.0053477781
      4213.73       1.0483987    0.0053430419
      4217.94       1.0402652    0.0053355416
      4222.16       1.0288746    0.0053596943
      4226.38       1.0475332    0.0053305663
      4230.61       1.0579754    0.0053241771
      4234.84       1.0645805    0.0053539452
      4239.08       1.0632869    0.0053340407
      4243.32       1.0667837    0.0053044413
      4247.56       1.0606727    0.0052851620
      4251.81       1.0508628    0.0052316945
      4256.06       1.0353770    0.0051953096
      4260.32       1.0200017    0.0051572428
      4264.58       1.0009945    0.0051022993
      4268.84      0.98868637    0.0050493459
      4273.11      0.98302061    0.0049953263
      4277.38      0.96983446    0.0049572374
      4281.66      0.95816408    0.0049181699
      4285.94      0.94151940    0.0048783188
      4290.23      0.92638559    0.0048540090
      4294.52      0.90551944    0.0048136786
      4298.81      0.89110950    0.0047826511
      4303.11      0.89004501    0.0047637292
      4307.42      0.88955475    0.0047414610
      4311.72      0.88689957    0.0047221695
      4316.04      0.87651778    0.0047116345
      4320.35      0.88048994    0.0046940797
      4324.67      0.89041858    0.0047183843
      4329.00      0.88860032    0.0047632591
      4333.33      0.88892484    0.0047759495
      4337.66      0.89634299    0.0047457973
      4342.00      0.89259437    0.0048322636
      4346.34      0.90053301    0.0049388557
      4350.69      0.90480516    0.0050708292
      4355.04      0.91599209    0.0052508899
      4359.39      0.92159279    0.0054660723
      4363.75      0.93370450    0.0056926929
      4368.12      0.92041286    0.0059259646
      4372.48      0.91616707    0.0061030832
      4376.86      0.91650988    0.0062101562
      4381.23      0.91524135    0.0062482045
      4385.61      0.92641128    0.0062037837
      4390.00      0.93160967    0.0061141180
      4394.39      0.92503140    0.0059566312
      4398.79      0.93508815    0.0057306031
      4403.18      0.94080161    0.0055311336
      4407.59      0.94741868    0.0053858067
      4412.00      0.96824930    0.0053340565
      4416.41      0.97623029    0.0052004754
      4420.82      0.97860270    0.0051092747
      4425.25      0.98269150    0.0051380569
      4429.67      0.99796996    0.0051166065
      4434.10      0.99984321    0.0051311842
      4438.54       1.0003115    0.0051585303
      4442.97       1.0061641    0.0051642599
      4447.42       1.0238112    0.0051714889
      4451.86       1.0360522    0.0052019509
      4456.32       1.0364601    0.0052203465
      4460.77       1.0493004    0.0052184565
      4465.24       1.0517647    0.0052456662
      4469.70       1.0551147    0.0052622319
      4474.17       1.0710502    0.0052821493
      4478.65       1.0681315    0.0052985396
      4483.12       1.0714667    0.0052965538
      4487.61       1.0707440    0.0052864444
      4492.09       1.0782485    0.0053021438
      4496.59       1.0827796    0.0053162368
      4501.08       1.0783127    0.0053115816
      4505.58       1.0852165    0.0053243328
      4510.09       1.0884405    0.0053362597
      4514.60       1.0982053    0.0053401724
      4519.12       1.0909704    0.0053354231
      4523.63       1.0882403    0.0053527848
      4528.16       1.0985504    0.0053352773
      4532.69       1.0977949    0.0053462661
      4537.22       1.1050698    0.0053262722
      4541.76       1.1087274    0.0053181358
      4546.30       1.1166353    0.0052938223
      4550.85       1.1357352    0.0053024510
      4555.40       1.1344767    0.0053008120
      4559.95       1.1424409    0.0053000342
      4564.51       1.1268356    0.0053043827
      4569.08       1.1150570    0.0053233727
      4573.65       1.1056165    0.0052871761
      4578.22       1.0927964    0.0052686044
      4582.80       1.0787285    0.0052501454
      4587.38       1.0782831    0.0052233075
      4591.97       1.0753589    0.0052301040
      4596.56       1.0697174    0.0052095810
      4601.16       1.0679231    0.0051912290
      4605.76       1.0614616    0.0051659614
      4610.37       1.0611559    0.0051483639
      4614.98       1.0547067    0.0051446564
      4619.59       1.0518380    0.0051141814
      4624.21       1.0574182    0.0050879235
      4628.84       1.0547362    0.0050443795
      4633.47       1.0551654    0.0049919296
      4638.10       1.0591659    0.0049488275
      4642.74       1.0336507    0.0049078612
      4647.38       1.0239177    0.0048703424
      4652.03       1.0102682    0.0048544355
      4656.68      0.99110321    0.0048329504
      4661.34      0.97365839    0.0048148399
      4666.00      0.96276679    0.0048138925
      4670.67      0.95254637    0.0048165038
      4675.33      0.94375384    0.0048181671
      4680.01      0.94405219    0.0048291853
      4684.69      0.94418672    0.0048314905
      4689.38      0.93915811    0.0048400531
      4694.07      0.93804244    0.0048357259
      4698.76      0.93866271    0.0048297371
      4703.46      0.93876439    0.0048101505
      4708.16      0.94233270    0.0048045456
      4712.87      0.95267198    0.0048018342
      4717.58      0.94711027    0.0048040094
      4722.30      0.94951742    0.0047796881
      4727.03      0.94685985    0.0047425631
      4731.75      0.93044587    0.0047427535
      4736.48      0.92793776    0.0047528553
      4741.22      0.91884316    0.0047815662
      4745.96      0.91760028    0.0048237955
      4750.71      0.91263474    0.0048896025
      4755.46      0.91577705    0.0049091200
      4760.22      0.90784955    0.0049136244
      4764.97      0.90001182    0.0049257562
      4769.74      0.89863948    0.0049253808
      4774.51      0.89628998    0.0049023338
      4779.29      0.88255259    0.0048820670
      4784.07      0.87427814    0.0048574589
      4788.85      0.87027203    0.0048031357
      4793.64      0.86100725    0.0047444141
      4798.43      0.87745115    0.0046843171
      4803.23      0.87150493    0.0046591927
      4808.03      0.84910039    0.0046837916
      4812.84      0.85066019    0.0046590239
      4817.66      0.84136241    0.0046678989
      4822.48      0.82431528    0.0046541136
      4827.30      0.82801259    0.0046360066
      4832.12      0.82655352    0.0046360863
      4836.96      0.84017006    0.0046375068
      4841.79      0.83501259    0.0046796330
      4846.63      0.83753581    0.0046645349
      4851.48      0.82891618    0.0046667502
      4856.33      0.82951106    0.0046513039
      4861.19      0.82973724    0.0046475071
      4866.05      0.83687496    0.0046358977
      4870.92      0.83242411    0.0046147630
      4875.79      0.84088649    0.0045908267
      4880.66      0.85011736    0.0045645288
      4885.55      0.84839341    0.0045575693
      4890.43      0.85880582    0.0045170146
      4895.32      0.84912616    0.0044884965
      4900.22      0.84211345    0.0044826087
      4905.12      0.84655804    0.0044647712
      4910.02      0.83649844    0.0044768392
      4914.94      0.82125175    0.0044809066
      4919.85      0.81748718    0.0044439753
      4924.77      0.82205616    0.0044465824
      4929.70      0.81831751    0.0044581320
      4934.62      0.78623691    0.0045078377
      4939.56      0.77087980    0.0045006717
      4944.50      0.75903850    0.0045145317
      4949.44      0.75042803    0.0045166321
      4954.39      0.74322692    0.0045348014
      4959.35      0.74456344    0.0045463057
      4964.31      0.74206158    0.0045432831
      4969.27      0.74800391    0.0045344776
      4974.24      0.74377483    0.0045481561
      4979.22      0.74246943    0.0045362230
      4984.20      0.74910859    0.0045310256
      4989.18      0.77121877    0.0045145864
      4994.17      0.79973972    0.0044724200
      4999.16      0.80647980    0.0044930105
      5004.16      0.79941744    0.0045046798
      5009.17      0.79665236    0.0045030086
      5014.18      0.80233649    0.0044726377
      5019.19      0.80106849    0.0044866328
      5024.21      0.79713869    0.0045051511
      5029.23      0.77722783    0.0045318302
      5034.26      0.77316126    0.0044807422
      5039.30      0.75872934    0.0044515075
      5044.34      0.75026734    0.0044388651
      5049.39      0.74879863    0.0044253367
      5054.43      0.73765752    0.0044087288
      5059.49      0.73416888    0.0043890935
      5064.55      0.72532475    0.0043997404
      5069.61      0.71022486    0.0044225694
      5074.68      0.71868188    0.0044124277
      5079.76      0.73642673    0.0044199539
      5084.84      0.75379124    0.0044191818
      5089.92      0.75237378    0.0044250958
      5095.01      0.75274895    0.0044086191
      5100.11      0.74780361    0.0044193149
      5105.21      0.75264658    0.0043963465
      5110.31      0.76421790    0.0043757741
      5115.42      0.77793356    0.0043844498
      5120.54      0.78632941    0.0044069354
      5125.66      0.77782512    0.0044495890
      5130.79      0.78188233    0.0044244491
      5135.92      0.78121708    0.0044306686
      5141.05      0.78989810    0.0044184659
      5146.20      0.78604483    0.0044394000
      5151.34      0.78213324    0.0044367525
      5156.49      0.79439403    0.0044081304
      5161.65      0.78847081    0.0043975550
      5166.81      0.78449069    0.0043952523
      5171.98      0.79443230    0.0043487581
      5177.15      0.80823432    0.0043163753
      5182.33      0.79269086    0.0042974068
      5187.51      0.78642324    0.0042724582
      5192.70      0.78628360    0.0042381686
      5197.89      0.77449764    0.0042242522
      5203.09      0.77638181    0.0041839552
      5208.29      0.77289722    0.0041455936
      5213.50      0.77188283    0.0041182572
      5218.72      0.75688939    0.0040938611
      5223.93      0.74586346    0.0040723104
      5229.16      0.74727052    0.0040061381
      5234.39      0.73649604    0.0039612378
      5239.62      0.73035275    0.0039255688
      5244.86      0.71725916    0.0038686286
      5250.11      0.71431867    0.0038146790
      5255.36      0.71111696    0.0037483587
      5260.61      0.70691157    0.0036935739
      5265.87      0.70468889    0.0036551812
      5271.14      0.70424923    0.0036115634
      5276.41      0.70261520    0.0035768936
      5281.69      0.69803415    0.0035411551
      5286.97      0.69194893    0.0034994168
      5292.26      0.67863784    0.0034608492
      5297.55      0.67795629    0.0034231454
      5302.85      0.66262229    0.0033850721
      5308.15      0.66068566    0.0033411197
      5313.46      0.65093708    0.0033242520
      5318.77      0.64327479    0.0033061864
      5324.09      0.63404519    0.0033142342
      5329.42      0.63163714    0.0033077033
      5334.75      0.62528354    0.0033061785
      5340.08      0.62497235    0.0033028734
      5345.42      0.62514608    0.0033201950
      5350.77      0.61706748    0.0033272247
      5356.12      0.61861964    0.0033439358
      5361.48      0.61353292    0.0033559592
      5366.83      0.60260629    0.0033602072
      5372.20      0.60621499    0.0033588006
      5377.58      0.59558586    0.0033470649
      5382.95      0.60449259    0.0033134488
      5388.34      0.59696527    0.0032838765
      5393.72      0.58756814    0.0032718856
      5399.12      0.56805491    0.0032486049
      5404.52      0.55775698    0.0032078300
      5409.92      0.54434031    0.0031686428
      5415.33      0.53422258    0.0031463749
      5420.75      0.52519999    0.0031114020
      5426.17      0.52083896    0.0030873275
      5431.60      0.51796297    0.0030623286
      5437.03      0.52230056    0.0030490377
      5442.47      0.52263008    0.0030353447
      5447.91      0.53432536    0.0030076459
      5453.36      0.52698726    0.0030441963
      5458.81      0.52874586    0.0030881508
      5464.27      0.51776381    0.0031511586
      5469.73      0.51472417    0.0032218117
      5475.20      0.51579618    0.0033171791
      5480.68      0.51431184    0.0034354622
      5486.16      0.51413956    0.0036011907
      5491.65      0.51809262    0.0037598194
      5497.14      0.52017388    0.0039840622
      5502.64      0.52225655    0.0042801951
      5508.14      0.52214293    0.0046707158
      5513.65      0.52062824    0.0051870596
      5519.16      0.51350807    0.0058594492
      5524.68      0.50144346    0.0066681059
      5530.20      0.48181117    0.0076962409
      5535.73      0.46067423    0.0091820537
