# starting wavelength =        1690.5523
# ending wavelength =        4107.0900
# O2 telluric scale =        0
# O2 telluric shift =        0
# H2O telluric scale =        0
# H2O telluric shift =        0
      1691.75      0.24981602     0.034360347
      1693.44      0.26472211     0.033448644
      1695.13      0.28194306     0.032693832
      1696.83      0.31481520     0.032164496
      1698.52      0.32055971     0.032100624
      1700.22      0.30206638     0.032144693
      1701.92      0.28607373     0.032192865
      1703.63      0.30322623     0.032244084
      1705.33      0.30318760     0.032297207
      1707.03      0.31516000     0.032352344
      1708.74      0.34191568     0.032407939
      1710.45      0.36453362     0.032369097
      1712.16      0.39289294     0.032426106
      1713.87      0.40897652     0.032483201
      1715.59      0.43658605     0.032539238
      1717.30      0.42089252     0.032594277
      1719.02      0.45471544     0.032647422
      1720.74      0.44543657     0.032698151
      1722.46      0.44545311     0.032746048
      1724.18      0.44063970     0.032694582
      1725.91      0.41426530     0.032736402
      1727.63      0.40495832     0.032773824
      1729.36      0.37251567     0.032807729
      1731.09      0.37394363     0.032837447
      1732.82      0.34426770     0.032862434
      1734.55      0.34671159     0.032784247
      1736.29      0.34516951     0.032800315
      1738.03      0.34095578     0.032812842
      1739.76      0.31185871     0.032820932
      1741.50      0.28769289     0.032824644
      1743.24      0.24467045     0.032723888
      1744.99      0.20200006     0.032718661
      1746.73      0.18373496     0.032708981
      1748.48      0.14978831     0.032695935
      1750.23      0.13518224     0.032680557
      1751.98      0.11533485     0.032560971
      1753.73      0.10356871     0.032538553
      1755.48      0.10380964     0.032512531
      1757.24      0.10536204     0.032579513
      1759.00     0.084307577     0.032445431
      1760.76     0.069145665     0.032410380
      1762.52     0.068101034     0.032373350
      1764.28     0.089267055     0.032232841
      1766.04     0.084953906     0.032190136
      1767.81      0.11366608     0.032145402
      1769.58      0.13011770     0.031999755
      1771.35      0.13323082     0.032045175
      1773.12      0.16630880     0.031995133
      1774.89      0.17126338     0.031845506
      1776.67      0.18516795     0.031793576
      1778.44      0.17124309     0.031741428
      1780.22      0.16229772     0.031588529
      1782.00      0.16956287     0.031625855
      1783.79      0.17749667     0.031571508
      1785.57      0.19047316     0.031420742
      1787.36      0.19800343     0.031367456
      1789.14      0.21460726     0.031315335
      1790.93      0.23798155     0.031258133
      1792.72      0.25282470     0.031207905
      1794.52      0.25257101     0.031065411
      1796.31      0.25538088     0.031020403
      1798.11      0.27466565     0.031066462
      1799.90      0.29924978     0.030933034
      1801.70      0.28895672     0.030897234
      1803.51      0.28911789     0.030771529
      1805.31      0.27130182     0.030831994
      1807.12      0.28244231     0.030716628
      1808.92      0.29808375     0.030696546
      1810.73      0.30145814     0.030682170
      1812.54      0.31383115     0.030673945
      1814.36      0.32878448     0.030669700
      1816.17      0.32366688     0.030584956
      1817.99      0.31463514     0.030683647
      1819.80      0.33730840     0.030612497
      1821.62      0.31939134     0.030636033
      1823.45      0.32256897     0.030671547
      1825.27      0.33772355     0.030708599
      1827.09      0.35243927     0.030667777
      1828.92      0.35362865     0.030812592
      1830.75      0.37415665     0.030787421
      1832.58      0.36452745     0.030851909
      1834.41      0.35486048     0.030937262
      1836.25      0.34382436     0.031013630
      1838.08      0.33670000     0.031014960
      1839.92      0.33148472     0.031117424
      1841.76      0.33213207     0.031208827
      1843.61      0.32710706     0.031319653
      1845.45      0.32075878     0.031417335
      1847.29      0.29721791     0.031434046
      1849.14      0.28954218     0.031633459
      1850.99      0.29534799     0.031649451
      1852.84      0.29435312     0.031765503
      1854.69      0.32719743     0.031859756
      1856.55      0.32871052     0.031969970
      1858.41      0.33068445     0.031973132
      1860.26      0.34285969     0.032057423
      1862.12      0.36757004     0.032148579
      1863.99      0.37264079     0.032220256
      1865.85      0.39812231     0.032294037
      1867.72      0.40397848     0.032259888
      1869.58      0.42197265     0.032402693
      1871.45      0.45902942     0.032346246
      1873.33      0.47608802     0.032374365
      1875.20      0.46638950     0.032384415
      1877.07      0.46099683     0.032384028
      1878.95      0.47909645     0.032275374
      1880.83      0.47097078     0.032243681
      1882.71      0.46016728     0.032203890
      1884.59      0.44830722     0.032141110
      1886.48      0.45267503     0.032063524
      1888.37      0.44676919     0.031984363
      1890.25      0.42887851     0.031878031
      1892.15      0.41021083     0.031675126
      1894.04      0.38407344     0.031544592
      1895.93      0.39307219     0.031421252
      1897.83      0.39507793     0.031269104
      1899.73      0.40600169     0.031107881
      1901.62      0.41652772     0.030862053
      1903.53      0.42451055     0.030685804
      1905.43      0.40617924     0.030529606
      1907.34      0.42085905     0.030342000
      1909.24      0.43007243     0.030150907
      1911.15      0.44702828     0.029885832
      1913.06      0.46475303     0.029691811
      1914.98      0.48912025     0.029593146
      1916.89      0.51729675     0.029328247
      1918.81      0.54562326     0.029135031
      1920.73      0.56460331     0.028944497
      1922.65      0.55450703     0.028690553
      1924.57      0.55692900     0.028507090
      1926.50      0.56592745     0.028329417
      1928.42      0.57210575     0.028180732
      1930.35      0.54733170     0.028012881
      1932.28      0.52316759     0.027851456
      1934.21      0.50462443     0.027630763
      1936.15      0.47953743     0.027482744
      1938.08      0.46588017     0.027341316
      1940.02      0.44239474     0.027206303
      1941.96      0.42823369     0.027011165
      1943.91      0.41393785     0.026887043
      1945.85      0.40635798     0.026767795
      1947.79      0.39370235     0.026653137
      1949.74      0.39043109     0.026558173
      1951.69      0.37491471     0.026450315
      1953.64      0.35738567     0.026345275
      1955.60      0.34142122     0.026242694
      1957.55      0.33829183     0.026142308
      1959.51      0.33684124     0.025978519
      1961.47      0.33648865     0.025880523
      1963.43      0.34322435     0.025782489
      1965.40      0.35145107     0.025683990
      1967.36      0.33518820     0.025584767
      1969.33      0.34823771     0.025422286
      1971.30      0.35816058     0.025319642
      1973.27      0.35843740     0.025214936
      1975.24      0.38308670     0.025107419
      1977.22      0.39165714     0.024921525
      1979.20      0.39570860     0.024807880
      1981.18      0.39555590     0.024691245
      1983.16      0.40307794     0.024512878
      1985.14      0.41854071     0.024390435
      1987.12      0.42022708     0.024265427
      1989.11      0.44706259     0.024138059
      1991.10      0.44867108     0.024009033
      1993.09      0.44868743     0.023878588
      1995.09      0.44711708     0.023747909
      1997.08      0.43637651     0.023617674
      1999.08      0.44859642     0.023416438
      2001.08      0.44332279     0.023289042
      2003.08      0.44359868     0.023164368
      2005.08      0.46198038     0.023042776
      2007.09      0.46975776     0.022925500
      2009.09      0.49557996     0.022813057
      2011.10      0.50025739     0.022706095
      2013.11      0.49394187     0.022540326
      2015.13      0.50024300     0.022447508
      2017.14      0.51788798     0.022362136
      2019.16      0.53782139     0.022285098
      2021.18      0.56281432     0.022217242
      2023.20      0.56015620     0.022098166
      2025.22      0.57863907     0.022050327
      2027.25      0.61145521     0.022012796
      2029.28      0.63053083     0.021985945
      2031.31      0.65789109     0.021913633
      2033.34      0.68343688     0.021909223
      2035.37      0.70475348     0.021915357
      2037.41      0.72380498     0.021931711
      2039.44      0.73541238     0.021904525
      2041.48      0.75716068     0.021940412
      2043.53      0.75977057     0.021984720
      2045.57      0.76887508     0.022037024
      2047.61      0.78168549     0.022044218
      2049.66      0.80462997     0.022172004
      2051.71      0.84488066     0.022242627
      2053.76      0.84685570     0.022265503
      2055.82      0.87655414     0.022343456
      2057.87      0.88344115     0.022423415
      2059.93      0.89797516     0.022452111
      2061.99      0.89659028     0.022531987
      2064.05      0.90872995     0.022675584
      2066.12      0.92591419     0.022699780
      2068.18      0.94993477     0.022772736
      2070.25      0.96829791     0.022786573
      2072.32      0.98183452     0.022849244
      2074.39      0.98824735     0.022969198
      2076.47       1.0037318     0.022960560
      2078.55       1.0202995     0.023000398
      2080.62       1.0361197     0.022973276
      2082.71       1.0505120     0.022993491
      2084.79       1.0622585     0.023065496
      2086.87       1.0758096     0.023004856
      2088.96       1.0696375     0.022993801
      2091.05       1.0574864     0.022912677
      2093.14       1.0628391     0.022938467
      2095.23       1.0479576     0.022834913
      2097.33       1.0462072     0.022783862
      2099.43       1.0450861     0.022715381
      2101.52       1.0442295     0.022646185
      2103.63       1.0543068     0.022505928
      2105.73       1.0375638     0.022421835
      2107.84       1.0054953     0.022319067
      2109.94       1.0090680     0.022221139
      2112.05       1.0036177     0.022055202
      2114.17       1.0045129     0.021995797
      2116.28       1.0041269     0.021820305
      2118.40       1.0251679     0.021704671
      2120.52       1.0163095     0.021568319
      2122.64       1.0103777     0.021446478
      2124.76       1.0188047     0.021304662
      2126.88       1.0267462     0.021116850
      2129.01       1.0210234     0.020990192
      2131.14       1.0146194     0.020846466
      2133.27       1.0164231     0.020719327
      2135.40       1.0366360     0.020576273
      2137.54       1.0311946     0.020391969
      2139.68       1.0272017     0.020269672
      2141.82       1.0218086     0.020131912
      2143.96       1.0211682     0.019955686
      2146.10       1.0202140     0.019882231
      2148.25       1.0165250     0.019713379
      2150.40       1.0152031     0.019591523
      2152.55       1.0123965     0.019487500
      2154.70      0.99393632     0.019375361
      2156.86      0.97996369     0.019228078
      2159.01      0.96409970     0.019179997
      2161.17      0.93361308     0.019045527
      2163.33      0.92716008     0.018958950
      2165.50      0.91113954     0.018889207
      2167.66      0.88797855     0.018817147
      2169.83      0.87152814     0.018711920
      2172.00      0.84374589     0.018657584
      2174.17      0.81784982     0.018616730
      2176.35      0.79053116     0.018580219
      2178.52      0.77334146     0.018510588
      2180.70      0.74822150     0.018493113
      2182.88      0.71838932     0.018486294
      2185.07      0.69359849     0.018487912
      2187.25      0.66567932     0.018500152
      2189.44      0.64203081     0.018476703
      2191.63      0.62110726     0.018508812
      2193.82      0.60400007     0.018503119
      2196.01      0.58544689     0.018593545
      2198.21      0.58008365     0.018653079
      2200.41      0.57033948     0.018672046
      2202.61      0.54711526     0.018747518
      2204.81      0.54038536     0.018831079
      2207.02      0.52780935     0.018871374
      2209.22      0.51009744     0.019007697
      2211.43      0.50513936     0.019111875
      2213.64      0.48943503     0.019169367
      2215.86      0.48503953     0.019285036
      2218.07      0.49314587     0.019406106
      2220.29      0.51248780     0.019477152
      2222.51      0.52165579     0.019606647
      2224.73      0.52631036     0.019740191
      2226.96      0.53179201     0.019876923
      2229.19      0.53745622     0.019959776
      2231.42      0.55340280     0.020100983
      2233.65      0.56304463     0.020244358
      2235.88      0.56546903     0.020388752
      2238.12      0.57192270     0.020474739
      2240.36      0.58429375     0.020618859
      2242.60      0.59957271     0.020762517
      2244.84      0.61978906     0.020905275
      2247.08      0.63691514     0.021046092
      2249.33      0.66557683     0.021124906
      2251.58      0.68548294     0.021259712
      2253.83      0.70335199     0.021390655
      2256.09      0.72069923     0.021517328
      2258.34      0.71488929     0.021638936
      2260.60      0.74682950     0.021754493
      2262.86      0.77303737     0.021804009
      2265.12      0.78624300     0.021905998
      2267.39      0.79674149     0.022000446
      2269.66      0.81616331     0.022086903
      2271.93      0.83392516     0.022164451
      2274.20      0.85833191     0.022232610
      2276.47      0.89386930     0.022290735
      2278.75      0.91938295     0.022288405
      2281.03      0.92135488     0.022325593
      2283.31      0.92529351     0.022297574
      2285.59      0.95646417     0.022314663
      2287.88      0.96013019     0.022321984
      2290.17      0.95614308     0.022319569
      2292.46      0.96076619     0.022254628
      2294.75      0.96197161     0.022235208
      2297.04      0.97332354     0.022208665
      2299.34      0.99675435     0.022175798
      2301.64       1.0292769     0.022138170
      2303.94       1.0385614     0.022043649
      2306.25       1.0463596     0.021999925
      2308.55       1.0438127     0.021954814
      2310.86       1.0674552     0.021909435
      2313.17       1.0714358     0.021864655
      2315.49       1.0742191     0.021768828
      2317.80       1.0724126     0.021729497
      2320.12       1.0942731     0.021694243
      2322.44       1.0856514     0.021614615
      2324.76       1.0909555     0.021591137
      2327.09       1.0968375     0.021622195
      2329.41       1.1041708     0.021613762
      2331.74       1.1073773     0.021566007
      2334.08       1.1146562     0.021574838
      2336.41       1.1261834     0.021592449
      2338.75       1.1195216     0.021572479
      2341.08       1.1228600     0.021607235
      2343.43       1.1319742     0.021649829
      2345.77       1.1314051     0.021654505
      2348.12       1.1207776     0.021763425
      2350.46       1.1248635     0.021779742
      2352.81       1.1163056     0.021845058
      2355.17       1.1198921     0.021913291
      2357.52       1.1303642     0.021937854
      2359.88       1.1295919     0.022060588
      2362.24       1.1246362     0.022083429
      2364.60       1.1172014     0.022147406
      2366.97       1.1264778     0.022207702
      2369.33       1.1234566     0.022214858
      2371.70       1.1269313     0.022316508
      2374.08       1.1061843     0.022306170
      2376.45       1.0969493     0.022334909
      2378.83       1.0937453     0.022302899
      2381.20       1.0994502     0.022360673
      2383.59       1.0868954     0.022302456
      2385.97       1.0747143     0.022283084
      2388.36       1.0672461     0.022199510
      2390.75       1.0583798     0.022203883
      2393.14       1.0605817     0.022095531
      2395.53       1.0357516     0.022030597
      2397.93       1.0288437     0.021947241
      2400.32       1.0110145     0.021865529
      2402.72      0.99742521     0.021722538
      2405.13      0.98632293     0.021620310
      2407.53      0.97776756     0.021525914
      2409.94      0.96778888     0.021379879
      2412.35      0.94568709     0.021327342
      2414.76      0.93450097     0.021186627
      2417.18      0.91749032     0.021091635
      2419.59      0.89863156     0.021013172
      2422.01      0.88153998     0.020892494
      2424.44      0.87349793     0.020825468
      2426.86      0.86406398     0.020775709
      2429.29      0.85365671     0.020734804
      2431.72      0.84363064     0.020710605
      2434.15      0.83306505     0.020700150
      2436.58      0.81260477     0.020662181
      2439.02      0.82180263     0.020640100
      2441.46      0.81371169     0.020720250
      2443.90      0.80486966     0.020728653
      2446.34      0.79518432     0.020800013
      2448.79      0.79625689     0.020875314
      2451.24      0.80882012     0.020974449
      2453.69      0.81365341     0.021034151
      2456.14      0.81706308     0.021155679
      2458.60      0.81536024     0.021325208
      2461.06      0.84284350     0.021408836
      2463.52      0.85914862     0.021552318
      2465.98      0.87012706     0.021645330
      2468.45      0.88079791     0.021794678
      2470.92      0.89339450     0.021926661
      2473.39      0.91301735     0.022074294
      2475.86      0.93157096     0.022260588
      2478.34      0.94527184     0.022425642
      2480.82      0.96332029     0.022649647
      2483.30      0.97605132     0.022713595
      2485.78      0.99921222     0.022886146
      2488.27       1.0031474     0.022975189
      2490.76       1.0192253     0.023126771
      2493.25       1.0366031     0.023354467
      2495.74       1.0435308     0.023878553
      2498.24       1.0503851     0.024237847
      2500.74       1.0562640     0.024681493
      2503.24       1.0701690     0.025218726
      2505.74       1.0807323     0.025828029
      2508.25       1.0899170     0.026676583
      2510.75       1.1066962     0.027738102
      2513.26       1.1289560     0.028734834
      2515.78       1.1404647     0.031579090
      2518.29       1.1523354     0.033558329
      2520.81       1.1668598     0.035623758
      2523.33       1.1820348     0.037611672
      2525.86       1.1892590     0.038099032
      2528.38       1.1882971     0.038754795
      2530.91       1.1832193     0.039523069
      2533.44       1.2011588     0.040381387
      2535.98       1.2316449     0.041030642
      2538.51       1.2913035     0.040089597
      2541.05       1.2922075     0.038382517
      2543.59       1.3029715     0.039911105
      2546.13       1.3238348     0.040357776
      2548.68       1.3036856     0.039579366
      2551.23       1.3403752     0.040661931
      2553.78       1.3030730     0.045019202
      2556.34       1.3176191     0.047151989
      2558.89       1.2882935     0.044184052
      2561.45       1.2649016     0.041241486
      2564.01       1.2285348     0.036801457
      2566.58       1.2116282     0.033552096
      2569.14       1.2007462     0.030759173
      2571.71       1.1822927     0.028426507
      2574.28       1.1749931     0.026524390
      2576.86       1.1824718     0.025000428
      2579.44       1.1800188     0.023737099
      2582.01       1.1550481     0.022904147
      2584.60       1.1579728     0.021551082
      2587.18       1.1444944     0.020785262
      2589.77       1.1411008     0.020025840
      2592.36       1.1324473     0.019363376
      2594.95       1.1433715     0.018710100
      2597.55       1.1338253     0.018055551
      2600.14       1.1114702     0.017329860
      2602.74       1.0920657     0.016676297
      2605.35       1.0903712     0.016040641
      2607.95       1.0742361     0.015447315
      2610.56       1.0637109     0.014821435
      2613.17       1.0445787     0.014281655
      2615.79       1.0162240     0.013769244
      2618.40      0.99800982     0.013231468
      2621.02      0.97341945     0.012790665
      2623.64      0.94787381     0.012388935
      2626.26      0.93653006     0.011992703
      2628.89      0.91835079     0.011680662
      2631.52      0.89052581     0.011378571
      2634.15      0.88284835     0.011173587
      2636.79      0.87339708     0.011007389
      2639.42      0.85552518     0.010865814
      2642.06      0.85109885     0.010797725
      2644.70      0.83930197     0.010756978
      2647.35      0.82129314     0.010779895
      2650.00      0.81508792     0.010868810
      2652.65      0.81155827     0.010959432
      2655.30      0.80675098     0.011099782
      2657.96      0.80059143     0.011263285
      2660.61      0.80035026     0.011459783
      2663.27      0.81110490     0.011704064
      2665.94      0.79842977     0.011942305
      2668.60      0.80707885     0.012180822
      2671.27      0.81246492     0.012482699
      2673.94      0.81263861     0.012728325
      2676.62      0.79897376     0.012982714
      2679.29      0.80284754     0.013210127
      2681.97      0.79318485     0.013451795
      2684.66      0.79108573     0.013636524
      2687.34      0.79509322     0.013759473
      2690.03      0.78711957     0.013901053
      2692.72      0.78898128     0.013926120
      2695.41      0.78977544     0.013896575
      2698.11      0.78631899     0.013877048
      2700.81      0.79252569     0.013738584
      2703.51      0.80693238     0.013615820
      2706.21      0.79454118     0.013383447
      2708.92      0.79475946     0.013116236
      2711.62      0.81115906     0.012874693
      2714.34      0.82582400     0.012553315
      2717.05      0.82637292     0.012225022
      2719.77      0.85537053     0.011918389
      2722.49      0.86638129     0.011561679
      2725.21      0.86590702     0.011214880
      2727.94      0.87919925     0.010868281
      2730.66      0.90871635     0.010571343
      2733.39      0.94197956     0.010246306
      2736.13      0.95489684    0.0099409890
      2738.86      0.96194145    0.0096475982
      2741.60      0.96784609    0.0094133800
      2744.34      0.98330376    0.0091592242
      2747.09       1.0077253    0.0089347193
      2749.84       1.0397710    0.0087329956
      2752.59       1.0656318    0.0085463036
      2755.34       1.0908804    0.0084088072
      2758.09       1.1163517    0.0082618585
      2760.85       1.1418339    0.0081427803
      2763.61       1.1770618    0.0080340257
      2766.38       1.2083686    0.0079533849
      2769.14       1.2379400    0.0078911432
      2771.91       1.2626788    0.0078345899
      2774.69       1.2875568    0.0078208969
      2777.46       1.3144148    0.0078086543
      2780.24       1.3428363    0.0077982511
      2783.02       1.3669760    0.0078170505
      2785.80       1.3891989    0.0078356044
      2788.59       1.4091173    0.0078832485
      2791.38       1.4334451    0.0079446780
      2794.17       1.4423716    0.0080191116
      2796.96       1.4498229    0.0080857655
      2799.76       1.4653798    0.0081827122
      2802.56       1.4721969    0.0082900384
      2805.36       1.4648717    0.0083855581
      2808.17       1.4567226    0.0085094867
      2810.98       1.4511969    0.0086403723
      2813.79       1.4484782    0.0087769977
      2816.60       1.4506929    0.0089179111
      2819.42       1.4522911    0.0090362524
      2822.24       1.4515083    0.0091810221
      2825.06       1.4399120    0.0093260500
      2827.88       1.4315760    0.0094708919
      2830.71       1.4390585    0.0096147738
      2833.54       1.4399149    0.0097265165
      2836.38       1.4235122    0.0098424313
      2839.21       1.4157381    0.0099654292
      2842.05       1.4074841     0.010082468
      2844.90       1.3992140     0.010193133
      2847.74       1.3831831     0.010297138
      2850.59       1.3714428     0.010394057
      2853.44       1.3563194     0.010482839
      2856.29       1.3406339     0.010521042
      2859.15       1.3289124     0.010590002
      2862.01       1.3066746     0.010647451
      2864.87       1.2893448     0.010692212
      2867.74       1.2632248     0.010703348
      2870.60       1.2358311     0.010719200
      2873.47       1.2282610     0.010720275
      2876.35       1.2302375     0.010706517
      2879.22       1.2331536     0.010655948
      2882.10       1.2338702     0.010613688
      2884.99       1.2330277     0.010558832
      2887.87       1.2383190     0.010493108
      2890.76       1.2370363     0.010394121
      2893.65       1.2433579     0.010312632
      2896.54       1.2385179     0.010226907
      2899.44       1.2474882     0.010116633
      2902.34       1.2547689     0.010029622
      2905.24       1.2738032    0.0099553873
      2908.15       1.2705643    0.0098403182
      2911.06       1.2807363    0.0097485397
      2913.97       1.3040488    0.0096377620
      2916.88       1.3167621    0.0095521999
      2919.80       1.3295255    0.0094704716
      2922.72       1.3323200    0.0093733167
      2925.64       1.3471963    0.0093014573
      2928.57       1.3589974    0.0092299767
      2931.50       1.3580707    0.0091731060
      2934.43       1.3709576    0.0091078843
      2937.36       1.3809935    0.0090717156
      2940.30       1.3902029    0.0090444417
      2943.24       1.3997081    0.0090236785
      2946.18       1.4150892    0.0090136730
      2949.13       1.4305507    0.0089969251
      2952.08       1.4565396    0.0090041155
      2955.03       1.4579352    0.0090193606
      2957.99       1.4666772    0.0090243310
      2960.94       1.4651150    0.0090475099
      2963.90       1.4733416    0.0090587757
      2966.87       1.4737402    0.0091050123
      2969.84       1.4701873    0.0091184096
      2972.81       1.4709206    0.0091465615
      2975.78       1.4808238    0.0091754593
      2978.76       1.4842995    0.0091834683
      2981.73       1.4846741    0.0092022616
      2984.72       1.4775118    0.0092175669
      2987.70       1.4746641    0.0092082614
      2990.69       1.4610665    0.0092090851
      2993.68       1.4557106    0.0092012730
      2996.67       1.4466277    0.0091669754
      2999.67       1.4236025    0.0091561684
      3002.67       1.4134300    0.0091006824
      3005.67       1.4000110    0.0090354599
      3008.68       1.3822824    0.0089944821
      3011.69       1.3736786    0.0089118945
      3014.70       1.3502560    0.0088336975
      3017.71       1.3401014    0.0087332159
      3020.73       1.3333989    0.0086579208
      3023.75       1.3302009    0.0085440947
      3026.78       1.3377854    0.0084362304
      3029.80       1.3336419    0.0083132531
      3032.83       1.3214441    0.0081962139
      3035.87       1.3269754    0.0080666853
      3038.90       1.3337714    0.0079659966
      3041.94       1.3384015    0.0078450306
      3044.98       1.3326674    0.0077173221
      3048.03       1.3367730    0.0076030384
      3051.08       1.3493197    0.0074879539
      3054.13       1.3584538    0.0073883037
      3057.18       1.3556305    0.0072899380
      3060.24       1.3459584    0.0072123440
      3063.30       1.3423686    0.0071628846
      3066.36       1.3426584    0.0071031585
      3069.43       1.3479551    0.0070702374
      3072.50       1.3548143    0.0070566428
      3075.57       1.3510864    0.0070536297
      3078.65       1.3438298    0.0070831231
      3081.73       1.3445147    0.0071375892
      3084.81       1.3491926    0.0072038903
      3087.89       1.3480627    0.0073115129
      3090.98       1.3512960    0.0074482373
      3094.07       1.3609991    0.0076168486
      3097.17       1.3763729    0.0077960504
      3100.26       1.3789222    0.0080211168
      3103.36       1.3857510    0.0082655618
      3106.47       1.3873704    0.0085382846
      3109.58       1.3819726    0.0088456513
      3112.68       1.3806805    0.0091471694
      3115.80       1.3831104    0.0095108558
      3118.91       1.3736517    0.0099012377
      3122.03       1.3647645     0.010313710
      3125.15       1.3594841     0.010740876
      3128.28       1.3659315     0.011174220
      3131.41       1.3582839     0.011561285
      3134.54       1.3226999     0.011957376
      3137.67       1.2917828     0.012325483
      3140.81       1.2758161     0.012639276
      3143.95       1.2814878     0.012881893
      3147.10       1.2785849     0.013042429
      3150.24       1.2735576     0.013084829
      3153.39       1.2697115     0.013059311
      3156.55       1.2750724     0.012944924
      3159.70       1.2639633     0.012755439
      3162.86       1.2803207     0.012474569
      3166.03       1.2942016     0.012189882
      3169.19       1.2870413     0.011884185
      3172.36       1.2931093     0.011536463
      3175.54       1.3015865     0.011240738
      3178.71       1.3019638     0.010955187
      3181.89       1.2813823     0.010629745
      3185.07       1.2755007     0.010338017
      3188.26       1.2811356     0.010061826
      3191.45       1.2752288    0.0097679517
      3194.64       1.2695039    0.0095150125
      3197.83       1.2681014    0.0092507328
      3201.03       1.2640622    0.0090280435
      3204.23       1.2568928    0.0088218857
      3207.44       1.2607538    0.0086156850
      3210.64       1.2588377    0.0084440924
      3213.85       1.2416781    0.0082686960
      3217.07       1.2325428    0.0081308331
      3220.28       1.2498754    0.0079934408
      3223.51       1.2568988    0.0078908458
      3226.73       1.2560499    0.0078006447
      3229.96       1.2602238    0.0077408410
      3233.19       1.2612381    0.0076916716
      3236.42       1.2598058    0.0076736775
      3239.66       1.2593060    0.0076721760
      3242.90       1.2475317    0.0076870422
      3246.14       1.2432912    0.0077108560
      3249.39       1.2351903    0.0077557641
      3252.64       1.2155597    0.0078486316
      3255.89       1.2035789    0.0079540954
      3259.14       1.1885667    0.0081000508
      3262.40       1.1747442    0.0082954793
      3265.67       1.1740022    0.0084988198
      3268.93       1.1637024    0.0087319334
      3272.20       1.1606075    0.0090165556
      3275.47       1.1418377    0.0093061891
      3278.75       1.1336437    0.0096213521
      3282.03       1.1205093    0.0099930740
      3285.31       1.1013635     0.010352309
      3288.60       1.0907547     0.010774026
      3291.88       1.0773235     0.011168331
      3295.18       1.0657330     0.011577760
      3298.47       1.0615585     0.012030946
      3301.77       1.0786864     0.012447391
      3305.07       1.0983322     0.012899959
      3308.38       1.0854521     0.013303564
      3311.69       1.0863649     0.013748222
      3315.00       1.1081048     0.014147534
      3318.31       1.1170179     0.014584778
      3321.63       1.1441952     0.014917607
      3324.95       1.1423561     0.015211383
      3328.28       1.1576086     0.015353222
      3331.61       1.1714789     0.015412112
      3334.94       1.1786573     0.015336434
      3338.27       1.1944880     0.015111159
      3341.61       1.2119572     0.014800602
      3344.95       1.2448867     0.014367777
      3348.30       1.2521282     0.013905751
      3351.65       1.2769550     0.013306903
      3355.00       1.2735609     0.012658198
      3358.35       1.2685928     0.011990050
      3361.71       1.2685330     0.011321049
      3365.07       1.2706509     0.010667071
      3368.44       1.2648566     0.010041942
      3371.81       1.2572114    0.0094531269
      3375.18       1.2526032    0.0089207742
      3378.56       1.2655587    0.0084199117
      3381.94       1.2689324    0.0079343034
      3385.32       1.2760432    0.0075436467
      3388.70       1.2806314    0.0072206813
      3392.09       1.2847630    0.0069493371
      3395.48       1.2862569    0.0067446720
      3398.88       1.2933755    0.0066080696
      3402.28       1.2961533    0.0065393095
      3405.68       1.2944892    0.0065290210
      3409.09       1.2875286    0.0065826991
      3412.49       1.2799533    0.0066834730
      3415.91       1.2770786    0.0068607354
      3419.32       1.2712625    0.0070889530
      3422.74       1.2700470    0.0073769935
      3426.17       1.2668496    0.0077412915
      3429.59       1.2572850    0.0082070739
      3433.02       1.2519650    0.0087878173
      3436.45       1.2390983    0.0095897171
      3439.89       1.2291482     0.010686349
      3443.33       1.2116710     0.012219632
      3446.78       1.1990092     0.014397272
      3450.22       1.1927743     0.017541774
      3453.67       1.2184138     0.010438740
      3457.13       1.2127436     0.010743919
      3460.58       1.2043292     0.011206950
      3464.04       1.1929575     0.011797541
      3467.51       1.1731210     0.012517060
      3470.98       1.1578557     0.013281359
      3474.45       1.1591309     0.014226601
      3477.92       1.1247711     0.015235255
      3481.40       1.0997792     0.016289171
      3484.88       1.1117416     0.017183306
      3488.37       1.1323766     0.019360831
      3491.86       1.1301260     0.019741121
      3495.35       1.1148327     0.019939003
      3498.84       1.1464995     0.019942547
      3502.34       1.1454603     0.019658959
      3505.84       1.1575706     0.019133152
      3509.35       1.1454898     0.018719890
      3512.86       1.1307856     0.018226109
      3516.37       1.1369731     0.017668569
      3519.89       1.1526018     0.017450640
      3523.41       1.1459636     0.017081411
      3526.93       1.1247293     0.026052356
      3530.46       1.1188368     0.022526232
      3533.99       1.1112928     0.019935420
      3537.53       1.1042071     0.018103919
      3541.06       1.1247864     0.016921086
      3544.60       1.1359368     0.016154111
      3548.15       1.1157539     0.015547009
      3551.70       1.1106841     0.015133803
      3555.25       1.1004452     0.014830421
      3558.80       1.0872934     0.014578475
      3562.36       1.0905448     0.014394379
      3565.92       1.0871393     0.014348924
      3569.49       1.0989863     0.014671882
      3573.06       1.0945728     0.014933346
      3576.64       1.0950358     0.015186327
      3580.21       1.1065060     0.015436460
      3583.79       1.0937004     0.015630747
      3587.38       1.0798852     0.015838953
      3590.96       1.0702738     0.016012183
      3594.55       1.0558557     0.016175666
      3598.15       1.0496942     0.016283727
      3601.75       1.0380438     0.016400701
      3605.35       1.0391757     0.016463260
      3608.96       1.0324181     0.016529689
      3612.56       1.0335460     0.016538265
      3616.18       1.0129451     0.016566730
      3619.79       1.0214038     0.016507687
      3623.41      0.99668228     0.016433132
      3627.04      0.99256083     0.016312924
      3630.66      0.99450331     0.016122034
      3634.29      0.97927536     0.015903625
      3637.93      0.96782035     0.015618360
      3641.57      0.96003652     0.015298608
      3645.21      0.96757828     0.014928788
      3648.86      0.97619142     0.014504287
      3652.50      0.97849819     0.014052194
      3656.16      0.97111838     0.013570369
      3659.81      0.96753164     0.013064111
      3663.47      0.97143961     0.012558291
      3667.14      0.97997898     0.012059166
      3670.80      0.98067345     0.011571352
      3674.48      0.98405192     0.011105742
      3678.15      0.98213477     0.010626637
      3681.83      0.96978474     0.010215087
      3685.51      0.96089070    0.0098313812
      3689.20      0.96347381    0.0094872114
      3692.88      0.96140419    0.0091931874
      3696.58      0.95525257    0.0089477068
      3700.27      0.94042880    0.0087366055
      3703.98      0.93594778    0.0086074176
      3707.68      0.92931275    0.0085438211
      3711.39      0.92753190    0.0085322783
      3715.10      0.92883624    0.0085518195
      3718.81      0.91363235    0.0085987606
      3722.53      0.91006271    0.0086871617
      3726.26      0.90740312    0.0088299764
      3729.98      0.90916426    0.0090082313
      3733.71      0.92273575    0.0092287248
      3737.45      0.92207228    0.0094811447
      3741.18      0.92103256    0.0097662621
      3744.93      0.91724591     0.010082117
      3748.67      0.90579292     0.010430729
      3752.42      0.89528544     0.010810908
      3756.17      0.90440894     0.011228664
      3759.93      0.91287890     0.011690266
      3763.69      0.91490999     0.012230937
      3767.45      0.90370007     0.012684298
      3771.22      0.90748319     0.013242367
      3774.99      0.89155629     0.013835784
      3778.77      0.88776832     0.014470342
      3782.54      0.88602535     0.015123896
      3786.33      0.89360598     0.015784463
      3790.11      0.88181980     0.016452162
      3793.90      0.86346890     0.017100927
      3797.70      0.84619926     0.017772434
      3801.50      0.85632111     0.018613518
      3805.30      0.86285123     0.019341077
      3809.10      0.83561334     0.019365628
      3812.91      0.81552952     0.019513884
      3816.73      0.80305235     0.019963520
      3820.54      0.82549056     0.020145720
      3824.36      0.82901045     0.020275846
      3828.19      0.84013865     0.020312349
      3832.02      0.84626514     0.020193146
      3835.85      0.85093090     0.019991104
      3839.68      0.85013914     0.019643731
      3843.52      0.81495554     0.019231495
      3847.37      0.79827634     0.018799436
      3851.22      0.78562413     0.018101231
      3855.07      0.74274477     0.017678047
      3858.92      0.75245240     0.017376494
      3862.78      0.77295195     0.016628758
      3866.64      0.79640505     0.015998919
      3870.51      0.81547501     0.015449260
      3874.38      0.83432075     0.014929398
      3878.26      0.86414288     0.014483734
      3882.13      0.86702042     0.014113816
      3886.02      0.88442277     0.013849987
      3889.90      0.88605784     0.013697292
      3893.79      0.88602866     0.013676972
      3897.69      0.88609821     0.013880660
      3901.59      0.88139595     0.014073298
      3905.49      0.89612778     0.013890024
      3909.39      0.90936202     0.013950615
      3913.30      0.91008332     0.014183541
      3917.22      0.92781017     0.014488947
      3921.13      0.94348591     0.014830886
      3925.06      0.94095207     0.015153252
      3928.98      0.94576621     0.015513424
      3932.91      0.94775919     0.015818626
      3936.84      0.93617355     0.016107669
      3940.78      0.90504015     0.016327841
      3944.72      0.89371664     0.016427414
      3948.67      0.87395601     0.016465793
      3952.61      0.81919829     0.016403017
      3956.57      0.80879475     0.016243521
      3960.52      0.86719215     0.015979939
      3964.48      0.90547680     0.015669092
      3968.45      0.95907349     0.015276093
      3972.42       1.0041917     0.014883732
      3976.39       1.0308863     0.014480783
      3980.37       1.0733059     0.014079690
      3984.35       1.0888428     0.013721663
      3988.33       1.0910539     0.013399770
      3992.32       1.0870271     0.013172267
      3996.31       1.0762657     0.013034416
      4000.31       1.0711221     0.012998747
      4004.31       1.0706654     0.013065556
      4008.31       1.0650719     0.013227956
      4012.32       1.0427226     0.013513719
      4016.33       1.0048655     0.013894780
      4020.35      0.99076008     0.014367980
      4024.37      0.96054252     0.014899596
      4028.40      0.90491020     0.015472525
      4032.42      0.86601140     0.016081451
      4036.46      0.82148188     0.016702861
      4040.50      0.78159296     0.017318685
      4044.54      0.74029434     0.017905861
      4048.58      0.69431666     0.018440384
      4052.63      0.62966999     0.018939314
      4056.68      0.59635231     0.019638757
      4060.74      0.64344965     0.020377787
      4064.80      0.72085710     0.021185721
      4068.86      0.75950649     0.022090551
      4072.93      0.81073152     0.023152894
      4077.01      0.85709153     0.024473749
      4081.08      0.90577171     0.026228865
      4085.17      0.95223976     0.028694682
      4089.25      0.95006975     0.032416857
      4093.34      0.96771742     0.037760039
      4097.43      0.98849484     0.045577908
      4101.53       1.0056511     0.056888706
      4105.63      0.97275875     0.072681111
