# starting wavelength =        1643.2882
# ending wavelength =        3322.4900
# O2 telluric scale =       0.89527362
# O2 telluric shift =       -6.6439857
# H2O telluric scale =        0
# H2O telluric shift =        0
      1643.41       1.2941561      0.13176134
      1645.06       1.2653287      0.12276340
      1646.70       1.2106753      0.11564269
      1648.35       1.1832334      0.11146844
      1650.00       1.1607748      0.10593001
      1651.65       1.1531367      0.10101420
      1653.30       1.1218161     0.097702612
      1654.95       1.0899332     0.093777447
      1656.61       1.0441322     0.090169864
      1658.26       1.0244151     0.088285897
      1659.92       1.0326505     0.085120532
      1661.58       1.0188042     0.082279962
      1663.24      0.99196860     0.080906764
      1664.91      0.96064130     0.078218651
      1666.57      0.94286463     0.075536134
      1668.24      0.92665919     0.074363383
      1669.91      0.93154530     0.071900140
      1671.58      0.92566913     0.069443602
      1673.25      0.91016740     0.068362759
      1674.92      0.93215461     0.066020641
      1676.60      0.91986398     0.063866521
      1678.27      0.92870300     0.062872306
      1679.95      0.91341989     0.060738295
      1681.63      0.89183320     0.058781817
      1683.31      0.89261397     0.057873254
      1685.00      0.86182443     0.055937917
      1686.68      0.87929678     0.054165315
      1688.37      0.88613820     0.053268720
      1690.06      0.88506368     0.051595374
      1691.75      0.85524962     0.050002915
      1693.44      0.84161521     0.049190771
      1695.13      0.82072589     0.047690446
      1696.83      0.82958970     0.046247690
      1698.52      0.81571992     0.045535978
      1700.22      0.78300242     0.044195880
      1701.92      0.76805088     0.042901965
      1703.63      0.76534708     0.041673733
      1705.33      0.74533814     0.041093483
      1707.03      0.75079120     0.039937656
      1708.74      0.72930479     0.038855961
      1710.45      0.71862763     0.038360121
      1712.16      0.74746528     0.037332874
      1713.87      0.76345918     0.036387086
      1715.59      0.78302036     0.035937342
      1717.30      0.79565534     0.035062127
      1719.02      0.80475603     0.034242176
      1720.74      0.79741587     0.033395430
      1722.46      0.79391733     0.033103077
      1724.18      0.80759345     0.032401667
      1725.91      0.80981753     0.031662177
      1727.63      0.79913786     0.031435830
      1729.36      0.81599008     0.030843576
      1731.09      0.82871912     0.030201418
      1732.82      0.82153989     0.029696248
      1734.55      0.83356663     0.029545519
      1736.29      0.83905653     0.028991026
      1738.03      0.83421734     0.028578570
      1739.76      0.82624542     0.028205597
      1741.50      0.83107362     0.028012012
      1743.24      0.82073596     0.027685675
      1744.99      0.81527843     0.027395917
      1746.73      0.81367872     0.027004100
      1748.48      0.82098270     0.027000105
      1750.23      0.83125778     0.026786390
      1751.98      0.82344684     0.026458059
      1753.73      0.83237657     0.026290926
      1755.48      0.82804706     0.026359876
      1757.24      0.82381352     0.026088600
      1759.00      0.81646092     0.025986739
      1760.76      0.81590358     0.025912671
      1762.52      0.82699983     0.025882716
      1764.28      0.84028308     0.025840220
      1766.04      0.83149018     0.025822763
      1767.81      0.83139627     0.025653412
      1769.58      0.84711052     0.025835920
      1771.35      0.86401852     0.025869831
      1773.12      0.87193729     0.025925317
      1774.89      0.87946892     0.025805245
      1776.67      0.89524752     0.026039673
      1778.44      0.92580836     0.026138714
      1780.22      0.95038931     0.026045939
      1782.00      0.97378756     0.026175782
      1783.79      0.99683125     0.026456950
      1785.57       1.0078918     0.026385397
      1787.36       1.0253280     0.026548202
      1789.14       1.0304540     0.026724491
      1790.93       1.0553346     0.026914232
      1792.72       1.0775344     0.026997154
      1794.52       1.0893942     0.027197501
      1796.31       1.1066699     0.027408584
      1798.11       1.1216166     0.027370566
      1799.90       1.1373244     0.027587933
      1801.70       1.1420678     0.027952806
      1803.51       1.1633828     0.028185772
      1805.31       1.1629339     0.028153501
      1807.12       1.1600008     0.028385688
      1808.92       1.1709494     0.028620789
      1810.73       1.1899882     0.029005825
      1812.54       1.1924948     0.028971304
      1814.36       1.2109742     0.029203491
      1816.17       1.2310666     0.029435709
      1817.99       1.2441959     0.029395078
      1819.80       1.2463359     0.029777358
      1821.62       1.2260039     0.029997502
      1823.45       1.2327667     0.030214060
      1825.27       1.2451008     0.030150963
      1827.09       1.2446290     0.030356717
      1828.92       1.2538317     0.037619867
      1830.75       1.2396217     0.038192289
      1832.58       1.2254678     0.037938872
      1834.41       1.2218848     0.038159351
      1836.25       1.2496486     0.038369232
      1838.08       1.2618103     0.038571702
      1839.92       1.2806647     0.039108929
      1841.76       1.2647869     0.038806362
      1843.61       1.2648635     0.038971948
      1845.45       1.2597382     0.039129350
      1847.29       1.2527092     0.039280973
      1849.14       1.2552339     0.038952720
      1850.99       1.2646448     0.039436547
      1852.84       1.2455474     0.039548612
      1854.69       1.2479688     0.039653925
      1856.55       1.2387697     0.039752083
      1858.41       1.2475569     0.039387238
      1860.26       1.2627525     0.039455307
      1862.12       1.2677873     0.039900262
      1863.99       1.2672116     0.039958939
      1865.85       1.2654876     0.040009975
      1867.72       1.2743283     0.039617812
      1869.58       1.2644331     0.039641930
      1871.45       1.2659895     0.039658719
      1873.33       1.2780591     0.039669963
      1875.20       1.2743206     0.040073073
      1877.07       1.2810659     0.039660158
      1878.95       1.2572985     0.039643615
      1880.83       1.2448698     0.039620792
      1882.71       1.2505721     0.039593687
      1884.59       1.2656222     0.039560274
      1886.48       1.2508041     0.039115782
      1888.37       1.2251349     0.039489061
      1890.25       1.2209563     0.039430689
      1892.15       1.2249685     0.039366706
      1894.04       1.2163471     0.039297251
      1895.93       1.1999260     0.039224014
      1897.83       1.1667724     0.038755818
      1899.73       1.1602278     0.038676086
      1901.62       1.1494418     0.038594616
      1903.53       1.1387294     0.038913241
      1905.43       1.1201111     0.038811762
      1907.34       1.1324097     0.038705830
      1909.24       1.1389277     0.038218150
      1911.15       1.1053241     0.038108380
      1913.06       1.0819351     0.037994809
      1914.98       1.0743547     0.037877222
      1916.89       1.0538263     0.037759214
      1918.81       1.0559420     0.037636419
      1920.73       1.0399945     0.037536615
      1922.65       1.0344127     0.037402217
      1924.57       1.0133024     0.037265875
      1926.50      0.99580238     0.037126838
      1928.42      0.96735375     0.036984817
      1930.35      0.96043805     0.036841852
      1932.28      0.96462657     0.036696434
      1934.21      0.95776560     0.036212979
      1936.15      0.93619695     0.036059544
      1938.08      0.93136209     0.035905566
      1940.02      0.93743023     0.035751432
      1941.96      0.92835601     0.035594394
      1943.91      0.91048330     0.035818626
      1945.85      0.90267733     0.035660110
      1947.79      0.89763396     0.035500532
      1949.74      0.90257167     0.035033139
      1951.69      0.89673185     0.034867612
      1953.64      0.87742496     0.034704370
      1955.60      0.88718327     0.034541591
      1957.55      0.89160230     0.034379945
      1959.51      0.89540498     0.034219802
      1961.47      0.89437030     0.034058629
      1963.43      0.91989105     0.033899426
      1965.40      0.94096336     0.033742031
      1967.36      0.96596726     0.033285536
      1969.33      0.97403060     0.033131863
      1971.30      0.97871017     0.032979580
      1973.27       1.0047426     0.032829630
      1975.24       1.0243167     0.033034578
      1977.22       1.0452729     0.032883075
      1979.20       1.0609596     0.032734709
      1981.18       1.0936652     0.032587266
      1983.16       1.1128954     0.032443312
      1985.14       1.1537819     0.032303064
      1987.12       1.1815651     0.031875749
      1989.11       1.2346383     0.031741945
      1991.10       1.2479701     0.031612971
      1993.09       1.2881315     0.031487757
      1995.09       1.2979569     0.031365964
      1997.08       1.3310319     0.031247883
      1999.08       1.3445488     0.031134377
      2001.08       1.3680049     0.031024987
      2003.08       1.3801391     0.030919450
      2005.08       1.3978646     0.030819061
      2007.09       1.4235683     0.030723090
      2009.09       1.4643333     0.030632430
      2011.10       1.4988494     0.030547396
      2013.11       1.5289564     0.030466734
      2015.13       1.5607736     0.030117186
      2017.14       1.5873365     0.030044442
      2019.16       1.6031408     0.029975963
      2021.18       1.6021126     0.029912049
      2023.20       1.6219838     0.029853526
      2025.22       1.6469281     0.029799194
      2027.25       1.6551101     0.029749097
      2029.28       1.6632517     0.029705138
      2031.31       1.6548615     0.029665096
      2033.34       1.6622914     0.029630002
      2035.37       1.6661813     0.029598640
      2037.41       1.6795777     0.029570993
      2039.44       1.6800036     0.029548039
      2041.48       1.6798099     0.029528540
      2043.53       1.6537263     0.029512424
      2045.57       1.6475731     0.029501738
      2047.61       1.6522200     0.029494223
      2049.66       1.6481427     0.029490891
      2051.71       1.6459796     0.029490631
      2053.76       1.6367381     0.029493324
      2055.82       1.6240215     0.029499999
      2057.87       1.6285085     0.029509487
      2059.93       1.6460530     0.029521652
      2061.99       1.6573604     0.029537493
      2064.05       1.6587699     0.029555730
      2066.12       1.6487104     0.029578556
      2068.18       1.6513886     0.029349565
      2070.25       1.6461493     0.029375722
      2072.32       1.6447960     0.029404812
      2074.39       1.6510645     0.029436968
      2076.47       1.6630356     0.029470044
      2078.55       1.6517625     0.029505760
      2080.62       1.6371702     0.029544168
      2082.71       1.6151185     0.029583092
      2084.79       1.5885280     0.029626403
      2086.87       1.5807876     0.029670034
      2088.96       1.5789107     0.029715958
      2091.05       1.5622787     0.029764163
      2093.14       1.5416949     0.029812493
      2095.23       1.5123661     0.029862964
      2097.33       1.4778151     0.029915255
      2099.43       1.4643283     0.029967360
      2101.52       1.4572768     0.029772195
      2103.63       1.4262985     0.029828513
      2105.73       1.3965717     0.029885526
      2107.84       1.3524526     0.029943900
      2109.94       1.3231222     0.030002856
      2112.05       1.2974918     0.030062297
      2114.17       1.2482935     0.030123021
      2116.28       1.2024283     0.030183928
      2118.40       1.1642211     0.030245137
      2120.52       1.1324689     0.030308075
      2122.64       1.0880772     0.030371117
      2124.76       1.0595706     0.030174443
      2126.88       1.0269634     0.030233358
      2129.01      0.98811869     0.030292987
      2131.14      0.95806771     0.030352522
      2133.27      0.93133085     0.030411422
      2135.40      0.90426699     0.030470840
      2137.54      0.88494563     0.030530030
      2139.68      0.86567516     0.030891191
      2141.82      0.85331530     0.030950582
      2143.96      0.85301761     0.030755254
      2146.10      0.82640409     0.030807703
      2148.25      0.81960917     0.030860263
      2150.40      0.81497993     0.030911831
      2152.55      0.81756948     0.030962088
      2154.70      0.81564592     0.031012109
      2156.86      0.80129852     0.031061078
      2159.01      0.79008966     0.031109095
      2161.17      0.75482553     0.030902627
      2163.33      0.73638146     0.030947512
      2165.50      0.72020683     0.030991790
      2167.66      0.70466048     0.031323535
      2169.83      0.70084112     0.031358867
      2172.00      0.69966404     0.031392156
      2174.17      0.71369586     0.031424532
      2176.35      0.68745606     0.031194122
      2178.52      0.67471758     0.031223267
      2180.70      0.68279830     0.031251233
      2182.88      0.69779907     0.031276163
      2185.07      0.72601375     0.031299832
      2187.25      0.74235674     0.031322475
      2189.44      0.77750455     0.031345189
      2191.63      0.79230492     0.031354145
      2193.82      0.82906698     0.031362510
      2196.01      0.86678372     0.031368238
      2198.21      0.89532621     0.031372675
      2200.41      0.93641095     0.031375807
      2202.61      0.96097606     0.031094553
      2204.81       1.0053055     0.031085159
      2207.02       1.0470263     0.031074467
      2209.22       1.0744817     0.031341405
      2211.43       1.0922892     0.031325832
      2213.64       1.1367331     0.031035980
      2215.86       1.1558863     0.031010458
      2218.07       1.1691082     0.030983458
      2220.29       1.2033783     0.030955699
      2222.51       1.2371276     0.030926905
      2224.73       1.2726902     0.030901486
      2226.96       1.2918741     0.030860817
      2229.19       1.3278174     0.030820687
      2231.42       1.3391843     0.030778604
      2233.65       1.3589779     0.030736158
      2235.88       1.3901759     0.030429494
      2238.12       1.4328241     0.030387169
      2240.36       1.4548482     0.030592898
      2242.60       1.4786377     0.030542325
      2244.84       1.5018224     0.030493028
      2247.08       1.5082886     0.030180984
      2249.33       1.5351697     0.030129860
      2251.58       1.5545593     0.030077809
      2253.83       1.5443826     0.030261605
      2256.09       1.5414217     0.029946083
      2258.34       1.5532798     0.029896485
      2260.60       1.5624775     0.029848659
      2262.86       1.5720995     0.029802651
      2265.12       1.5527247     0.029739410
      2267.39       1.5450920     0.029695692
      2269.66       1.5321836     0.029649386
      2271.93       1.5322770     0.029601580
      2274.20       1.5350374     0.029289495
      2276.47       1.5432781     0.029235184
      2278.75       1.5513149     0.029421553
      2281.03       1.5478633     0.029363475
      2283.31       1.5384651     0.029040394
      2285.59       1.5532918     0.028970095
      2287.88       1.5536618     0.028897578
      2290.17       1.5581205     0.029059780
      2292.46       1.5566240     0.028723196
      2294.75       1.5571070     0.028638862
      2297.04       1.5586329     0.028557156
      2299.34       1.5742294     0.028709636
      2301.64       1.5563940     0.028375621
      2303.94       1.5661424     0.028291418
      2306.25       1.5602465     0.028207711
      2308.55       1.5686245     0.027880375
      2310.86       1.5511863     0.028011374
      2313.17       1.5497929     0.027923654
      2315.49       1.5593220     0.027841666
      2317.80       1.5451984     0.027522704
      2320.12       1.5177323     0.027654340
      2322.44       1.4978228     0.027575929
      2324.76       1.4728845     0.027269202
      2327.09       1.4718470     0.027201710
      2329.41       1.4795782     0.027340784
      2331.74       1.4850137     0.027038458
      2334.08       1.4863534     0.026975551
      2336.41       1.4788169     0.026917747
      2338.75       1.4656897     0.027065086
      2341.08       1.4663980     0.026777960
      2343.43       1.4470756     0.026723877
      2345.77       1.4486096     0.026674926
      2348.12       1.4372819     0.026599515
      2350.46       1.4435597     0.026549730
      2352.81       1.4478286     0.026504894
      2355.17       1.4382307     0.026232008
      2357.52       1.4419949     0.026397924
      2359.88       1.4347081     0.026358301
      2362.24       1.4003864     0.026096827
      2364.60       1.4035026     0.026057807
      2366.97       1.3896837     0.026235221
      2369.33       1.3916152     0.025985487
      2371.70       1.3888994     0.025952987
      2374.08       1.3820064     0.026137639
      2376.45       1.3740976     0.025899617
      2378.83       1.3641220     0.025873893
      2381.20       1.3554514     0.025652050
      2383.59       1.3394998     0.025839330
      2385.97       1.3263774     0.025821360
      2388.36       1.3246906     0.025609900
      2390.75       1.3263456     0.025809377
      2393.14       1.3201233     0.025806456
      2395.53       1.3231923     0.025619469
      2397.93       1.3157301     0.025821250
      2400.32       1.2919269     0.025814337
      2402.72       1.3007810     0.025623026
      2405.13       1.2983673     0.025844993
      2407.53       1.2780769     0.021076313
      2409.94       1.2623865     0.020995403
      2412.35       1.2434504     0.021137396
      2414.76       1.2316186     0.021058951
      2417.18       1.2131546     0.021085879
      2419.59       1.2025454     0.021232342
      2422.01       1.1935136     0.021154834
      2424.44       1.2018709     0.021182712
      2426.86       1.1950813     0.021223097
      2429.29       1.1835610     0.021247847
      2431.72       1.1704192     0.021273465
      2434.15       1.1496986     0.021308044
      2436.58       1.1357532     0.021329543
      2439.02       1.1239280     0.021241399
      2441.46       1.1113182     0.021378594
      2443.90       1.1203758     0.021288429
      2446.34       1.1170742     0.021302705
      2448.79       1.1248545     0.021437342
      2451.24       1.1200507     0.021344860
      2453.69       1.1208888     0.021360135
      2456.14       1.1193123     0.021388668
      2458.60       1.1240510     0.021403030
      2461.06       1.1361236     0.021319228
      2463.52       1.1367112     0.021453596
      2465.98       1.1457658     0.021376981
      2468.45       1.1631545     0.021530354
      2470.92       1.1632858     0.021566976
      2473.39       1.1694976     0.021504253
      2475.86       1.1771393     0.021656607
      2478.34       1.1811770     0.021586341
      2480.82       1.1978387     0.021623822
      2483.30       1.2016048     0.021679870
      2485.78       1.1960174     0.021717928
      2488.27       1.1983997     0.021777148
      2490.76       1.1923658     0.021816225
      2493.25       1.1842478     0.021754381
      2495.74       1.1719233     0.021917085
      2498.24       1.1710486     0.021855792
      2500.74       1.1670762     0.021894184
      2503.24       1.1742791     0.021956958
      2505.74       1.1757312     0.021993413
      2508.25       1.1698226     0.022054384
      2510.75       1.1731973     0.022087996
      2513.26       1.1752012     0.022020569
      2515.78       1.1770704     0.022175483
      2518.29       1.1762382     0.022103455
      2520.81       1.1768627     0.022254770
      2523.33       1.1820624     0.022178341
      2525.86       1.1794531     0.022326637
      2528.38       1.1782716     0.022245572
      2530.91       1.1695435     0.022270994
      2533.44       1.1708365     0.022306373
      2535.98       1.1797341     0.022329567
      2538.51       1.1701879     0.022363027
      2541.05       1.1842531     0.022385050
      2543.59       1.1740619     0.022297211
      2546.13       1.1761727     0.022440281
      2548.68       1.1702900     0.022351287
      2551.23       1.1869736     0.022384818
      2553.78       1.1904071     0.022399300
      2556.34       1.1981803     0.022426550
      2558.89       1.1920671     0.022438313
      2561.45       1.1805708     0.022464180
      2564.01       1.1793461     0.022476383
      2566.58       1.1705074     0.022502769
      2569.14       1.1643780     0.022512031
      2571.71       1.1458147     0.022415805
      2574.28       1.1272217     0.022433344
      2576.86       1.1194815     0.022445182
      2579.44       1.1102316     0.022461995
      2582.01       1.0994976     0.022471830
      2584.60       1.0972687     0.022484273
      2587.18       1.0903626     0.022492162
      2589.77       1.0880809     0.022501569
      2592.36       1.0798551     0.022397330
      2594.95       1.0749896     0.022515058
      2597.55       1.0795621     0.022412616
      2600.14       1.0764465     0.022546613
      2602.74       1.0823283     0.022502659
      2605.35       1.0695565     0.022562265
      2607.95       1.0610112     0.022557196
      2610.56       1.0610621     0.022547888
      2613.17       1.0490450     0.022539452
      2615.79       1.0503012     0.022536873
      2618.40       1.0508557     0.022431832
      2621.02       1.0547325     0.022558074
      2623.64       1.0477004     0.022490080
      2626.26       1.0331287     0.022659361
      2628.89       1.0267678     0.022633601
      2631.52       1.0072406     0.022752251
      2634.15       1.0037172     0.022838975
      2636.79      0.99438698     0.022978639
      2639.42      0.97104435     0.023075418
      2642.06      0.96098342     0.023220381
      2644.70      0.94673137     0.023236912
      2647.35      0.94466503     0.023466316
      2650.00      0.92695887     0.023469633
      2652.65      0.92329536     0.023592172
      2655.30      0.89918551     0.023796471
      2657.96      0.88839162     0.023743936
      2660.61      0.88061869     0.023806409
      2663.27      0.86613250     0.023827253
      2665.94      0.85142746     0.023842788
      2668.60      0.83938163     0.023715012
      2671.27      0.83385318     0.023809341
      2673.94      0.82293777     0.023658979
      2676.62      0.81503400     0.023599198
      2679.29      0.81338735     0.023550969
      2681.97      0.81420574     0.023468660
      2684.66      0.80562349     0.023382457
      2687.34      0.80584772     0.023323936
      2690.03      0.81153670     0.023242268
      2692.72      0.81918839     0.023074055
      2695.41      0.81381156     0.023141772
      2698.11      0.82414313     0.023120899
      2700.81      0.83787413     0.023026049
      2703.51      0.84824812     0.023198639
      2706.21      0.85873212     0.023163174
      2708.92      0.85396449     0.023207441
      2711.62      0.85907126     0.023202046
      2714.34      0.85975343     0.023233468
      2717.05      0.86163371     0.023294336
      2719.77      0.87088201     0.023240731
      2722.49      0.88020886     0.023387518
      2725.21      0.88783746     0.023339506
      2727.94      0.89184407     0.023400501
      2730.66      0.89769537     0.023557309
      2733.39      0.90398488     0.023501505
      2736.13      0.90855874     0.023578735
      2738.86      0.92003694     0.023692197
      2741.60      0.92252597     0.023786222
      2744.34      0.92170297     0.023943914
      2747.09      0.92930150     0.023983513
      2749.84      0.93608443     0.024176214
      2752.59      0.92931053     0.024455293
      2755.34      0.93310772     0.024533158
      2758.09      0.93897934     0.024765855
      2760.85      0.94305122     0.025009823
      2763.61      0.95496112     0.025172843
      2766.38      0.96598869     0.025433063
      2769.14      0.97061041     0.025699186
      2771.91      0.97768007     0.025789479
      2774.69      0.97887833     0.026137903
      2777.46      0.98175810     0.026402270
      2780.24      0.96837073     0.026483543
      2783.02      0.95867026     0.026736365
      2785.80      0.96618437     0.026901237
      2788.59      0.97770655     0.027136741
      2791.38      0.98636502     0.027356949
      2794.17       1.0045672     0.027557502
      2796.96       1.0111424     0.027574273
      2799.76       1.0151443     0.027843866
      2802.56       1.0143466     0.027988472
      2805.36       1.0162380     0.027956905
      2808.17       1.0175280     0.028071239
      2810.98       1.0232264     0.028175640
      2813.79       1.0151682     0.028235546
      2816.60       1.0030180     0.028334655
      2819.42       1.0016458     0.028442496
      2822.24      0.99775118     0.028407892
      2825.06       1.0055948     0.028533888
      2827.88       1.0075978     0.028763008
      2830.71       1.0142090     0.028852847
      2833.54       1.0098851     0.028777662
      2836.38       1.0077732     0.028825119
      2839.21      0.98879458     0.028863241
      2842.05      0.97815034     0.028891885
      2844.90      0.96595468     0.028961593
      2847.74      0.94981442     0.029065322
      2850.59      0.94337265     0.029175980
      2853.44      0.91043295     0.029125056
      2856.29      0.89170354     0.029216401
      2859.15      0.87649109     0.029313667
      2862.01      0.86538625     0.029377388
      2864.87      0.85411981     0.029486860
      2867.74      0.83512207     0.029596163
      2870.60      0.82655682     0.029703383
      2873.47      0.83161442     0.029673727
      2876.35      0.81395042     0.029872101
      2879.22      0.80091288     0.030182910
      2882.10      0.77417459     0.030531258
      2884.99      0.76587795     0.030636181
      2887.87      0.76261136     0.030714930
      2890.76      0.75158036     0.030790335
      2893.65      0.75505000     0.030871106
      2896.54      0.75011591     0.030924140
      2899.44      0.74847242     0.030821483
      2902.34      0.74912578     0.031003779
      2905.24      0.74224932     0.031361011
      2908.15      0.73500090     0.031763481
      2911.06      0.73183403     0.032104468
      2913.97      0.73112724     0.032699238
      2916.88      0.72597652     0.033353942
      2919.80      0.72960154     0.034049831
      2922.72      0.74454983     0.034766585
      2925.64      0.74489635     0.035154948
      2928.57      0.75716871     0.035835358
      2931.50      0.77737886     0.036467967
      2934.43      0.79931121     0.037024768
      2937.36      0.82306985     0.037658249
      2940.30      0.83199563     0.037709535
      2943.24      0.83547464     0.037935744
      2946.18      0.83286605     0.038003926
      2949.13      0.83247700     0.037908912
      2952.08      0.80593345     0.037654998
      2955.03      0.80669690     0.037256273
      2957.99      0.79916980     0.036587534
      2960.94      0.81932865     0.035993295
      2963.90      0.82509119     0.035326855
      2966.87      0.81580793     0.034614861
      2969.84      0.83987580     0.033882345
      2972.81      0.87058988     0.033151304
      2975.78      0.88479893     0.032475608
      2978.76      0.87423340     0.031806636
      2981.73      0.87424257     0.031191527
      2984.72      0.85239872     0.030655128
      2987.70      0.84238338     0.030242557
      2990.69      0.82624846     0.030035191
      2993.68      0.81746859     0.030010612
      2996.67      0.80631579     0.029812028
      2999.67      0.79761880     0.029571809
      3002.67      0.79212590     0.029342588
      3005.67      0.77553989     0.029192997
      3008.68      0.76857185     0.029017228
      3011.69      0.75135615     0.028805406
      3014.70      0.74704429     0.028602712
      3017.71      0.72693100     0.028422375
      3020.73      0.70483647     0.028262943
      3023.75      0.69773568     0.028026334
      3026.78      0.68358188     0.027900936
      3029.80      0.66849582     0.027789920
      3032.83      0.65808590     0.027688590
      3035.87      0.66342577     0.027592586
      3038.90      0.67045663     0.027500332
      3041.94      0.67045068     0.027411770
      3044.98      0.68890723     0.027325623
      3048.03      0.69973834     0.027241338
      3051.08      0.70662744     0.027158913
      3054.13      0.71400136     0.027079967
      3057.18      0.71416621     0.026903847
      3060.24      0.71088977     0.026833455
      3063.30      0.70451991     0.026767648
      3066.36      0.70857926     0.026706165
      3069.43      0.70749345     0.026648869
      3072.50      0.72814261     0.026596000
      3075.57      0.74149603     0.026548147
      3078.65      0.76146799     0.026506922
      3081.73      0.77397872     0.026476061
      3084.81      0.78737639     0.026453139
      3087.89      0.79430987     0.026335614
      3090.98      0.79637862     0.026327892
      3094.07      0.78703907     0.026323194
      3097.17      0.77438628     0.026316520
      3100.26      0.77072044     0.026313816
      3103.36      0.75928576     0.026320002
      3106.47      0.76448552     0.026338819
      3109.58      0.77268411     0.026369391
      3112.68      0.75874830     0.026425144
      3115.80      0.75164469     0.026524703
      3118.91      0.75331446     0.026657739
      3122.03      0.74271291     0.026702403
      3125.15      0.73046188     0.026821622
      3128.28      0.72353294     0.026964884
      3131.41      0.70937834     0.027132327
      3134.54      0.70594315     0.027319989
      3137.67      0.68335220     0.027519237
      3140.81      0.67987498     0.027716628
      3143.95      0.68132009     0.027912766
      3147.10      0.67226316     0.028017063
      3150.24      0.68324957     0.028208740
      3153.39      0.69202092     0.028395781
      3156.55      0.69477119     0.028568547
      3159.70      0.69436000     0.028727255
      3162.86      0.69650969     0.028871444
      3166.03      0.71579888     0.029001308
      3169.19      0.71994847     0.029011248
      3172.36      0.72338801     0.029103637
      3175.54      0.73081214     0.029180355
      3178.71      0.73270132     0.029241227
      3181.89      0.73509742     0.029286789
      3185.07      0.73895052     0.029319334
      3188.26      0.75268436     0.029226267
      3191.45      0.75144646     0.029233920
      3194.64      0.75335944     0.029235233
      3197.83      0.73471649     0.029233097
      3201.03      0.72907343     0.029229183
      3204.23      0.69833787     0.029097967
      3207.44      0.68652182     0.029086299
      3210.64      0.67429519     0.029065094
      3213.85      0.67248128     0.029032836
      3217.07      0.65792350     0.029092286
      3220.28      0.65898543     0.028886630
      3223.51      0.65690262     0.028796574
      3226.73      0.65283124     0.028697123
      3229.96      0.63808219     0.028590887
      3233.19      0.62085936     0.028483349
      3236.42      0.59250500     0.028253755
      3239.66      0.59621483     0.028161596
      3242.90      0.58749112     0.028041177
      3246.14      0.57989363     0.027876298
      3249.39      0.56395720     0.027648821
      3252.64      0.55875820     0.027487066
      3255.89      0.55662528     0.027318978
      3259.14      0.55656998     0.027291160
      3262.40      0.54550468     0.027582272
      3265.67      0.55213892     0.027887415
      3268.93      0.55056005     0.028272674
      3272.20      0.55233910     0.028657838
      3275.47      0.55646431     0.029203188
      3278.75      0.54767115     0.029859366
      3282.03      0.54281147     0.030457740
      3285.31      0.55315785     0.031455688
      3288.60      0.56383595     0.032349544
      3291.88      0.58201367     0.033961799
      3295.18      0.58238171     0.035390918
      3298.47      0.58819606     0.037528422
      3301.77      0.59309497     0.040938169
      3305.07      0.59071595     0.044004642
      3308.38      0.58403852     0.049682419
      3311.69      0.57212819     0.054840723
      3315.00      0.56148691     0.064065457
      3318.31      0.56093502     0.074502060
      3321.63      0.57291633     0.085463974
