# starting wavelength =        1716.1405
# ending wavelength =        3443.4200
# O2 telluric scale =        0
# O2 telluric shift =        0
# H2O telluric scale =        0
# H2O telluric shift =        0
      1717.30      0.20349177      0.15271287
      1719.02      0.23799163      0.14901723
      1720.74      0.31488548      0.14356694
      1722.46      0.32362509      0.13849066
      1724.18      0.33366859      0.13613611
      1725.91      0.41742252      0.13149852
      1727.63      0.45326716      0.12703438
      1729.36      0.47186071      0.12484451
      1731.09      0.47622815      0.12056652
      1732.82      0.47963359      0.11631089
      1734.55      0.47396334      0.11442804
      1736.29      0.46444211      0.11050077
      1738.03      0.46888046      0.10660308
      1739.76      0.47882168      0.10486299
      1741.50      0.50393059      0.10115172
      1743.24      0.49467809     0.097719559
      1744.99      0.52656721     0.096124626
      1746.73      0.49310591     0.092748153
      1748.48      0.47230898     0.089637148
      1750.23      0.36657415     0.086679669
      1751.98      0.37268973     0.085133732
      1753.73      0.35492659     0.082320768
      1755.48      0.36576358     0.079637516
      1757.24      0.36412952     0.078250266
      1759.00      0.36728019     0.075721352
      1760.76      0.37797533     0.073302062
      1762.52      0.29640638     0.048346502
      1764.28      0.32203547     0.047670937
      1766.04      0.31435897     0.046371230
      1767.81      0.32322737     0.045138073
      1769.58      0.32329707     0.043971202
      1771.35      0.32832381     0.043395900
      1773.12      0.32852768     0.042312564
      1774.89      0.33521929     0.041289744
      1776.67      0.32793671     0.040493312
      1778.44      0.33316161     0.039841550
      1780.22      0.34217714     0.038952492
      1782.00      0.34403230     0.038250479
      1783.79      0.35817453     0.037445332
      1785.57      0.35374633     0.037059618
      1787.36      0.36164952     0.036321575
      1789.14      0.36225089     0.035632368
      1790.93      0.37063921     0.034984854
      1792.72      0.36866318     0.034678926
      1794.52      0.35013328     0.034097559
      1796.31      0.36581665     0.033549834
      1798.11      0.37949997     0.033050895
      1799.90      0.39147014     0.032805951
      1801.70      0.40205559     0.032360683
      1803.51      0.41150968     0.031953109
      1805.31      0.41324591     0.031586917
      1807.12      0.42191972     0.031396928
      1808.92      0.43980667     0.031073118
      1810.73      0.44548982     0.030766802
      1812.54      0.44709541     0.030493980
      1814.36      0.44983588     0.030252368
      1816.17      0.45142083     0.030139946
      1817.99      0.47155308     0.029938938
      1819.80      0.47453271     0.029726560
      1821.62      0.48127952     0.029577735
      1823.45      0.49157620     0.029554457
      1825.27      0.50002371     0.029395675
      1827.09      0.52113312     0.029307530
      1828.92      0.52959331     0.029243525
      1830.75      0.52705477     0.029115958
      1832.58      0.53463094     0.029182572
      1834.41      0.54313071     0.029172589
      1836.25      0.55426690     0.029083995
      1838.08      0.56875007     0.029106674
      1839.92      0.57021931     0.029149658
      1841.76      0.57845300     0.029177975
      1843.61      0.58513880     0.029247403
      1845.45      0.59513879     0.029335621
      1847.29      0.59236640     0.029347294
      1849.14      0.59050965     0.029466272
      1850.99      0.59172232     0.029630862
      1852.84      0.59593313     0.029670295
      1854.69      0.59279151     0.029827935
      1856.55      0.60265249     0.030001374
      1858.41      0.60419002     0.030031211
      1860.26      0.62365364     0.030226308
      1862.12      0.62594156     0.030491744
      1863.99      0.63424049     0.030544156
      1865.85      0.64074154     0.030770772
      1867.72      0.64320828     0.031009854
      1869.58      0.63828743     0.031260755
      1871.45      0.64358977     0.031371642
      1873.33      0.65616594     0.031655271
      1875.20      0.66758840     0.031930617
      1877.07      0.67761943     0.032051340
      1878.95      0.69823975     0.032339479
      1880.83      0.72272857     0.032635828
      1882.71      0.73006109     0.032731557
      1884.59      0.72502146     0.033088428
      1886.48      0.73288289     0.033399575
      1888.37      0.72622733     0.033715819
      1890.25      0.72115902     0.033818481
      1892.15      0.72099204     0.034137610
      1894.04      0.70896838     0.034459380
      1895.93      0.63384699     0.049960754
      1897.83      0.64367066     0.050511948
      1899.73      0.63557292     0.051280543
      1901.62      0.65174939     0.051298871
      1903.53      0.70166902     0.051821457
      1905.43      0.74021421     0.052333553
      1907.34      0.75503774     0.052833898
      1909.24      0.74238367     0.053321186
      1911.15      0.74294755     0.053530733
      1913.06      0.75326950     0.053985990
      1914.98      0.77135590     0.054426447
      1916.89      0.76809045     0.054849568
      1918.81      0.76579814     0.054751140
      1920.73      0.74090826     0.055134167
      1922.65      0.75835230     0.055499446
      1924.57      0.75569199     0.056154098
      1926.50      0.75340961     0.056008273
      1928.42      0.74544973     0.056319436
      1930.35      0.73945067     0.056612222
      1932.28      0.74535858     0.056886885
      1934.21      0.73434853     0.057143517
      1936.15      0.72784171     0.056910490
      1938.08      0.72462884     0.057487263
      1940.02      0.66993719     0.057691975
      1941.96      0.67001713     0.057878631
      1943.91      0.66792477     0.058050358
      1945.85      0.66004543     0.057749647
      1947.79      0.61977582     0.057891962
      1949.74      0.58716917     0.058018116
      1951.69      0.55780689     0.058504350
      1953.64      0.54174657     0.058594745
      1955.60      0.53834761     0.058232297
      1957.55      0.52357797     0.058296305
      1959.51      0.51708104     0.058345566
      1961.47      0.53669877     0.058381279
      1963.43      0.53204859     0.058403211
      1965.40      0.53850044     0.057999873
      1967.36      0.50804814     0.057990328
      1969.33      0.50194122     0.058363706
      1971.30      0.48786454     0.058332365
      1973.27      0.50340225     0.058288411
      1975.24      0.51636969     0.058232298
      1977.22      0.50919007     0.057781810
      1979.20      0.52294738     0.057698318
      1981.18      0.52917483     0.057603561
      1983.16      0.53705516     0.057497804
      1985.14      0.54235003     0.057382288
      1987.12      0.58871462     0.057256788
      1989.11      0.60478268     0.057188819
      1991.10      0.59955163     0.057041054
      1993.09      0.63852164     0.056885122
      1995.09      0.65490948     0.056719890
      1997.08      0.67656103     0.056545693
      1999.08      0.69863911     0.056362817
      2001.08      0.72919715     0.055831436
      2003.08      0.76080615     0.055635648
      2005.08      0.77782249     0.055432083
      2007.09      0.82410952     0.055221057
      2009.09      0.85030319     0.055004557
      2011.10      0.88486452     0.054780460
      2013.11      0.90972569     0.054549200
      2015.13      0.91734905     0.053997482
      2017.14      0.92962705     0.054163271
      2019.16      0.95222708     0.053912941
      2021.18      0.98639380     0.053657141
      2023.20       1.0360823     0.053396219
      2025.22       1.0671047     0.053130598
      2027.25       1.1019997     0.052860297
      2029.28       1.1466348     0.052585789
      2031.31       1.1963269     0.052029712
      2033.34       1.2473396     0.051748435
      2035.37       1.2869628     0.051463272
      2037.41       1.3032063     0.051174564
      2039.44       1.3092151     0.050882692
      2041.48       1.3102564     0.050588688
      2043.53       1.3085280     0.050293136
      2045.57       1.3070365     0.049995820
      2047.61       1.3422506     0.049696908
      2049.66       1.3276357     0.049140204
      2051.71       1.3264186     0.048841727
      2053.76       1.3251200     0.048542620
      2055.82       1.3388175     0.048244039
      2057.87       1.3554885     0.047945888
      2059.93       1.3679115     0.047647481
      2061.99       1.3734066     0.047349193
      2064.05       1.3804756     0.047051312
      2066.12       1.4210000     0.046754817
      2068.18       1.4135070     0.046460310
      2070.25       1.4075234     0.045934154
      2072.32       1.4273404     0.045643139
      2074.39       1.4233067     0.045354502
      2076.47       1.4412212     0.045068541
      2078.55       1.4370227     0.044785555
      2080.62       1.4821311     0.044507278
      2082.71       1.4931900     0.044232053
      2084.79       1.4917545     0.043960249
      2086.87       1.5082315     0.043692157
      2088.96       1.5132823     0.043428117
      2091.05       1.5130618     0.043169529
      2093.14       1.5207363     0.042915872
      2095.23       1.5359020     0.042667415
      2097.33       1.5424935     0.042211097
      2099.43       1.5305131     0.041974240
      2101.52       1.5445707     0.041743340
      2103.63       1.5524498     0.041519270
      2105.73       1.5570723     0.041301963
      2107.84       1.5706819     0.041090956
      2109.94       1.5964944     0.040886470
      2112.05       1.6030992     0.040688787
      2114.17       1.6058706     0.040498108
      2116.28       1.5748041     0.040315758
      2118.40       1.5289739     0.040141053
      2120.52       1.5274346     0.039974243
      2122.64       1.5076601     0.039815301
      2124.76       1.4888669     0.039664436
      2126.88       1.4449203     0.039521687
      2129.01       1.4209604     0.039388179
      2131.14       1.3824290     0.039262523
      2133.27       1.3575630     0.039144795
      2135.40       1.3332125     0.039034968
      2137.54       1.3056249     0.038933039
      2139.68       1.2704339     0.038839513
      2141.82       1.2351068     0.038754591
      2143.96       1.1909504     0.038431455
      2146.10       1.1589178     0.038364781
      2148.25       1.1327069     0.038306096
      2150.40       1.0627514     0.038255151
      2152.55       1.0268188     0.038212793
      2154.70      0.99980295     0.038177667
      2156.86      0.96086985     0.038149682
      2159.01      0.92585411     0.038128765
      2161.17      0.90178300     0.038114787
      2163.33      0.87575214     0.038107671
      2165.50      0.81972945     0.038108502
      2167.66      0.77556682     0.038116294
      2169.83      0.73575440     0.038130952
      2172.00      0.70760473     0.037938855
      2174.17      0.67114662     0.037967229
      2176.35      0.63363898     0.038002214
      2178.52      0.60097796     0.038043236
      2180.70      0.56226588     0.038090193
      2182.88      0.53584197     0.038143018
      2185.07      0.55506278     0.038201535
      2187.25      0.52200840     0.038265648
      2189.44      0.49850573     0.038335842
      2191.63      0.46646150     0.038412244
      2193.82      0.42644669     0.038291256
      2196.01      0.38558403     0.038379423
      2198.21      0.36447298     0.038473338
      2200.41      0.32812575     0.038572707
      2202.61      0.32520858     0.038676930
      2204.81      0.34052489     0.038785901
      2207.02      0.31876435     0.038899520
      2209.22      0.31388873     0.039017705
      2211.43      0.31439529     0.038942284
      2213.64      0.33632425     0.039066654
      2215.86      0.34937350     0.039196456
      2218.07      0.36896790     0.039330586
      2220.29      0.40528008     0.039468857
      2222.51      0.43724868     0.039611606
      2224.73      0.47470292     0.039758552
      2226.96      0.49579534     0.039909145
      2229.19      0.52595356     0.039871576
      2231.42      0.56032484     0.040312374
      2233.65      0.59016143     0.040471418
      2235.88      0.63678180     0.040633517
      2238.12      0.67619928     0.040798498
      2240.36      0.70731476     0.040967747
      2242.60      0.74324827     0.040945890
      2244.84      0.77435643     0.041120703
      2247.08      0.82150894     0.041299050
      2249.33      0.83943515     0.041479888
      2251.58      0.88626835     0.041663125
      2253.83      0.92787131     0.041848638
      2256.09      0.96592743     0.042036322
      2258.34       1.0344753     0.042019854
      2260.60       1.0738271     0.042206508
      2262.86       1.1245857     0.042697839
      2265.12       1.1719187     0.042890844
      2267.39       1.2085143     0.043085696
      2269.66       1.2363826     0.043081590
      2271.93       1.2671974     0.043274888
      2274.20       1.2699480     0.043469382
      2276.47       1.2827957     0.043664945
      2278.75       1.3054953     0.043861502
      2281.03       1.3544713     0.043857581
      2283.31       1.3831599     0.044369168
      2285.59       1.4156603     0.044562938
      2287.88       1.4548063     0.044757762
      2290.17       1.4812190     0.044953977
      2292.46       1.5046661     0.044942977
      2294.75       1.5181583     0.045139640
      2297.04       1.5373009     0.045336415
      2299.34       1.5566343     0.045533228
      2301.64       1.5664823     0.045730065
      2303.94       1.6220086     0.046021857
      2306.25       1.6378236     0.046214550
      2308.55       1.6508769     0.046408337
      2310.86       1.6559624     0.046601216
      2313.17       1.6454004     0.046792298
      2315.49       1.6187787     0.046750760
      2317.80       1.6103504     0.046931082
      2320.12       1.5791775     0.047437589
      2322.44       1.5601987     0.047621262
      2324.76       1.5512201     0.047576049
      2327.09       1.5259738     0.047750075
      2329.41       1.5195022     0.047927369
      2331.74       1.5001731     0.048108143
      2334.08       1.4837962     0.048062860
      2336.41       1.4665177     0.048561533
      2338.75       1.4696739     0.048732163
      2341.08       1.4755629     0.048904428
      2343.43       1.4538890     0.048845658
      2345.77       1.4278909     0.049015684
      2348.12       1.4279651     0.049184604
      2350.46       1.4033575     0.049672982
      2352.81       1.3761974     0.049591334
      2355.17       1.3553713     0.049745772
      2357.52       1.3375977     0.049897491
      2359.88       1.3217934     0.050046364
      2362.24       1.2964609     0.050258524
      2364.60       1.2807579     0.050392453
      2366.97       1.2449726     0.050522762
      2369.33       1.2407993     0.050391730
      2371.70       1.2064377     0.050502637
      2374.08       1.1648059     0.050608920
      2376.45       1.1551490     0.051031518
      2378.83       1.1343598     0.050862281
      2381.20       1.1135952     0.050944860
      2383.59       1.0956462     0.051024013
      2385.97       1.0893589     0.050843137
      2388.36       1.0775609     0.051221797
      2390.75       1.0819536     0.051288261
      2393.14       1.0834511     0.051355197
      2395.53       1.1047018     0.051162060
      2397.93       1.0912080     0.051535836
      2400.32       1.0878371     0.051596606
      2402.72       1.0925708     0.051389295
      2405.13       1.0852881     0.051444012
      2407.53       1.0867607     0.051498188
      2409.94       1.0731600     0.051574994
      2412.35       1.0740164     0.051626736
      2414.76       1.0782260     0.051679394
      2417.18       1.1180277     0.051455418
      2419.59       1.1500617     0.051801648
      2422.01       1.1285596     0.051852075
      2424.44       1.1321268     0.051630420
      2426.86       1.1465052     0.051666925
      2429.29       1.1732745     0.052002893
      2431.72       1.1687522     0.051772440
      2434.15       1.1687282     0.051803873
      2436.58       1.1573906     0.051837192
      2439.02       1.1657025     0.051901579
      2441.46       1.1857406     0.051925400
      2443.90       1.1953878     0.051950241
      2446.34       1.1909623     0.051706290
      2448.79       1.1950147     0.052020526
      2451.24       1.1854301     0.052037174
      2453.69       1.1705272     0.051784474
      2456.14       1.1442089     0.051804207
      2458.60       1.1587797     0.052105978
      2461.06       1.1478377     0.051866051
      2463.52       1.1265759     0.051899663
      2465.98       1.1361159     0.051634891
      2468.45       1.1594646     0.051925435
      2470.92       1.1432499     0.051928178
      2473.39       1.1523912     0.051646033
      2475.86       1.1783818     0.051931888
      2478.34       1.1723300     0.051936700
      2480.82       1.1824978     0.051668730
      2483.30       1.1943436     0.051680046
      2485.78       1.2211466     0.051719048
      2488.27       1.2580667     0.051736075
      2490.76       1.2968176     0.051758670
      2493.25       1.3055943     0.051807166
      2495.74       1.3126356     0.051826971
      2498.24       1.3269510     0.051583187
      2500.74       1.3539278     0.051889880
      2503.24       1.3602555     0.051902197
      2505.74       1.3576028     0.051643461
      2508.25       1.3779972     0.051933380
      2510.75       1.3770172     0.051656475
      2513.26       1.3938540     0.051651392
      2515.78       1.4015917     0.051914661
      2518.29       1.4047181     0.051612421
      2520.81       1.4425907     0.051586098
      2523.33       1.4746974     0.051534071
      2525.86       1.5004408     0.051488713
      2528.38       1.4987101     0.051151315
      2530.91       1.5286655     0.051356537
      2533.44       1.5261865     0.051296075
      2535.98       1.5375363     0.050942805
      2538.51       1.5536646     0.051135759
      2541.05       1.5662592     0.050783174
      2543.59       1.5735354     0.050708804
      2546.13       1.5568543     0.050612931
      2548.68       1.5312127     0.050536657
      2551.23       1.5231078     0.050201741
      2553.78       1.5332835     0.050397454
      2556.34       1.5656991     0.050091895
      2558.89       1.5460516     0.050059370
      2561.45       1.5181317     0.050272514
      2564.01       1.5426964     0.049953026
      2566.58       1.5005733     0.050155325
      2569.14       1.4449890     0.049849054
      2571.71       1.4438175     0.049810947
      2574.28       1.4251892     0.049752797
      2576.86       1.3907719     0.049714197
      2579.44       1.3599094     0.049412443
      2582.01       1.3662673     0.049621179
      2584.60       1.3386078     0.049320551
      2587.18       1.3166108     0.049528868
      2589.77       1.2896959     0.049229416
      2592.36       1.2500316     0.049185466
      2594.95       1.2269297     0.049132493
      2597.55       1.2070166     0.049083358
      2600.14       1.1933196     0.049024764
      2602.74       1.1624731     0.048970134
      2605.35       1.1400021     0.048663025
      2607.95       1.1297922     0.048844317
      2610.56       1.1108267     0.048531631
      2613.17       1.1049987     0.048708546
      2615.79       1.1098362     0.048392174
      2618.40       1.1129928     0.048335977
      2621.02       1.1184639     0.048246947
      2623.64       1.1171658     0.048189121
      2626.26       1.1142964     0.048102316
      2628.89       1.0994735     0.048046412
      2631.52       1.1013558     0.047964650
      2634.15       1.0939746     0.047912558
      2636.79       1.1122540     0.047605264
      2639.42       1.0937191     0.047540364
      2642.06       1.1055241     0.047484785
      2644.70       1.0900453     0.047416445
      2647.35       1.0754868     0.047358903
      2650.00       1.1004403     0.047294163
      2652.65       1.1179813     0.047242327
      2655.30       1.1281711     0.047188592
      2657.96       1.1279214     0.047141653
      2660.61       1.1164338     0.046860923
      2663.27       1.1009422     0.047038555
      2665.94       1.1089454     0.046764960
      2668.60       1.0717617     0.046715117
      2671.27       1.0590693     0.046682730
      2673.94       1.0515027     0.046634873
      2676.62       1.0477752     0.046603815
      2679.29       1.0082809     0.046556546
      2681.97       1.0075934     0.046527392
      2684.66      0.99500865     0.046483061
      2687.34      0.97737394     0.046222611
      2690.03      0.97228789     0.046430142
      2692.72      0.96578479     0.046257316
      2695.41      0.95797796     0.046575225
      2698.11      0.97295918     0.046390567
      2700.81      0.96819527     0.046337640
      2703.51      0.95423033     0.046290617
      2706.21      0.95762486     0.046248343
      2708.92      0.96678035     0.046215521
      2711.62      0.97154628     0.046210791
      2714.34      0.96980935     0.046024232
      2717.05      0.99050622     0.046325273
      2719.77      0.99188907     0.046233568
      2722.49       1.0177606     0.046622567
      2725.21       1.0263741     0.046596677
      2727.94       1.0285195     0.046858716
      2730.66       1.0442613     0.047044472
      2733.39       1.0453152     0.047328370
      2736.13       1.0612464     0.047357827
      2738.86       1.0684150     0.047816289
      2741.60       1.0834676     0.047831713
      2744.34       1.1163102     0.048095422
      2747.09       1.1419422     0.048240018
      2749.84       1.1680942     0.048433638
      2752.59       1.2018580     0.048808574
      2755.34       1.2069342     0.048638912
      2758.09       1.2083398     0.048694783
      2760.85       1.2175091     0.048691594
      2763.61       1.2323723     0.048658752
      2766.38       1.2129407     0.048358984
      2769.14       1.1909656     0.048497184
      2771.91       1.1971446     0.048158955
      2774.69       1.1829254     0.047996306
      2777.46       1.1897502     0.048052127
      2780.24       1.1965604     0.047690514
      2783.02       1.2035987     0.047508444
      2785.80       1.1993575     0.047396435
      2788.59       1.2287377     0.047252357
      2791.38       1.2281452     0.046945230
      2794.17       1.2349200     0.047141863
      2796.96       1.2114228     0.047199566
      2799.76       1.2274291     0.047093020
      2802.56       1.2378539     0.047242375
      2805.36       1.2379705     0.047235607
      2808.17       1.2522865     0.047227135
      2810.98       1.2382558     0.047310228
      2813.79       1.2458650     0.047361065
      2816.60       1.2356205     0.047447209
      2819.42       1.2354194     0.047316985
      2822.24       1.2244223     0.047400585
      2825.06       1.2335947     0.047682551
      2827.88       1.2210526     0.047528604
      2830.71       1.2322530     0.047612007
      2833.54       1.2183955     0.047697864
      2836.38       1.1998756     0.047885198
      2839.21       1.2100483     0.048134433
      2842.05       1.2112543     0.048154408
      2844.90       1.2227564     0.048613966
      2847.74       1.2045738     0.048948894
      2850.59       1.1857372     0.049036015
      2853.44       1.1978761     0.049424377
      2856.29       1.1639540     0.049679045
      2859.15       1.1181893     0.050091400
      2862.01       1.0810147     0.050526233
      2864.87       1.0587319     0.050644862
      2867.74       1.0289696     0.051258094
      2870.60       1.0093045     0.051704014
      2873.47      0.99422271     0.051807729
      2876.35      0.98066324     0.052236782
      2879.22      0.96864949     0.052847510
      2882.10      0.99502765     0.052927729
      2884.99      0.98504566     0.053321237
      2887.87      0.98414345     0.053692392
      2890.76      0.98548593     0.053920406
      2893.65      0.99127845     0.054227063
      2896.54      0.99921796     0.054497836
      2899.44       1.0081477     0.054430013
      2902.34      0.98581553     0.054636233
      2905.24      0.96735145     0.055048631
      2908.15      0.97163382     0.054914255
      2911.06      0.99789116     0.055067653
      2913.97      0.97563016     0.055222383
      2916.88      0.99034122     0.055393029
      2919.80      0.99760046     0.055510050
      2922.72      0.97432643     0.055735352
      2925.64      0.98096317     0.055969875
      2928.57      0.98153324     0.055877699
      2931.50      0.99524559     0.056046574
      2934.43      0.97146979     0.056175450
      2937.36      0.98331819     0.056247548
      2940.30      0.97683316     0.056350841
      2943.24      0.97199259     0.056496866
      2946.18      0.96662887     0.056729608
      2949.13      0.96733940     0.056704318
      2952.08      0.99796861     0.057204301
      2955.03      0.98745272     0.057469460
      2957.99      0.96665036     0.057748036
      2960.94      0.96913868     0.057747338
      2963.90      0.97678503     0.058081577
      2966.87      0.99061460     0.058439881
      2969.84       1.0027724     0.058475270
      2972.81       1.0324782     0.059043706
      2975.78       1.0506319     0.059476046
      2978.76       1.0690161     0.060066770
      2981.73       1.0813732     0.060515720
      2984.72       1.1230124     0.061245358
      2987.70       1.1523599     0.061733949
      2990.69       1.1696538     0.062120422
      2993.68       1.1605431     0.062561305
      2996.67       1.1841952     0.062847164
      2999.67       1.1880337     0.063269508
      3002.67       1.1981168     0.063786957
      3005.67       1.2222817     0.064529671
      3008.68       1.2098525     0.065155006
      3011.69       1.1904524     0.066426343
      3014.70       1.1863695     0.067906076
      3017.71       1.1598599     0.069554814
      3020.73       1.1463968     0.071341573
      3023.75       1.1382973     0.072580664
      3026.78       1.1138267     0.074530646
      3029.80       1.0816390     0.076538466
      3032.83       1.1268195     0.078561566
      3035.87       1.0829980     0.080552336
      3038.90       1.0573704     0.081607190
      3041.94       1.0163917     0.083362659
      3044.98      0.98080933     0.084920142
      3048.03      0.95345596     0.086216603
      3051.08      0.94213420     0.087199466
      3054.13      0.97357478     0.087168336
      3057.18      0.98866091     0.087490954
      3060.24      0.95489942     0.087460084
      3063.30      0.94422792     0.087100632
      3066.36      0.92942515     0.086452248
      3069.43      0.93768778     0.086243322
      3072.50      0.89557729     0.084872657
      3075.57      0.90423277     0.083744195
      3078.65      0.90894013     0.082558954
      3081.73      0.88599292     0.081380792
      3084.81      0.86833999     0.080279580
      3087.89      0.84298841     0.079338758
      3090.98      0.82668110     0.078681521
      3094.07      0.79740000     0.078204116
      3097.17      0.80030640     0.078614809
      3100.26      0.79578590     0.079485507
      3103.36      0.81407181     0.079643543
      3106.47      0.85153174     0.079478842
      3109.58      0.85690351     0.079589189
      3112.68      0.87127383     0.079798423
      3115.80      0.89867791     0.079573159
      3118.91      0.89942192     0.079501798
      3122.03      0.89334447     0.079463948
      3125.15      0.87543414     0.079500143
      3128.28      0.85793709     0.079603913
      3131.41      0.81688912     0.079764958
      3134.54      0.81516050     0.079966693
      3137.67      0.81679924     0.080190400
      3140.81      0.80831344     0.080420070
      3143.95      0.76437509     0.080644085
      3147.10      0.75752697     0.080472976
      3150.24      0.74887583     0.080672004
      3153.39      0.79637270     0.080852566
      3156.55      0.77912617     0.081011358
      3159.70      0.79937541     0.081146991
      3162.86      0.84059101     0.081263509
      3166.03      0.88157605     0.081360810
      3169.19      0.92021342     0.081102518
      3172.36      0.94051806     0.081154942
      3175.54      0.95080358     0.081183803
      3178.71      0.94133935     0.081189294
      3181.89      0.94086663     0.081171845
      3185.07      0.93728406     0.081132916
      3188.26      0.92969248     0.081082766
      3191.45      0.93196450     0.080700371
      3194.64      0.89950015     0.080629294
      3197.83      0.91553766     0.080540538
      3201.03      0.89805220     0.080435588
      3204.23      0.87415714     0.080296172
      3207.44      0.84700739     0.080112680
      3210.64      0.82810446     0.079907623
      3213.85      0.84158776     0.079316854
      3217.07      0.86964425     0.079112064
      3220.28      0.86751607     0.078930725
      3223.51      0.90516637     0.078838017
      3226.73      0.94078228     0.078857549
      3229.96      0.94716658     0.078869382
      3233.19      0.91191954     0.078788037
      3236.42      0.87925261     0.078699827
      3239.66      0.88341348     0.078668742
      3242.90      0.84665216     0.078684285
      3246.14      0.81127700     0.078434215
      3249.39      0.81526310     0.078492329
      3252.64      0.82049369     0.078518413
      3255.89      0.81344981     0.078522088
      3259.14      0.81796118     0.078510427
      3262.40      0.82833461     0.078491497
      3265.67      0.80421466     0.078451293
      3268.93      0.81706260     0.078026735
      3272.20      0.84128114     0.077908013
      3275.47      0.85514199     0.077766569
      3278.75      0.84168872     0.077609888
      3282.03      0.88188487     0.077433688
      3285.31      0.88424251     0.077240234
      3288.60      0.94281789     0.077037461
      3291.88      0.96640645     0.076512897
      3295.18      0.94306954     0.076312332
      3298.47      0.96157758     0.076121231
      3301.77      0.99859731     0.075944168
      3305.07       1.0008357     0.076035037
      3308.38       1.0206756     0.075919692
      3311.69       1.0222618     0.075572729
      3315.00       1.0207143     0.075564863
      3318.31       1.0119739     0.075608295
      3321.63       1.0058585     0.075690379
      3324.95       1.0211613     0.075810142
      3328.28       1.0371291     0.075695036
      3331.61       1.0497060     0.075852772
      3334.94       1.0392002     0.076027907
      3338.27       1.0460406     0.076247202
      3341.61       1.0672833     0.076515092
      3344.95       1.0690869     0.076641528
      3348.30       1.0495340     0.077437873
      3351.65       1.0783200     0.078036153
      3355.00       1.0653944     0.078691810
      3358.35       1.0500070     0.079089249
      3361.71       1.0229519     0.079660136
      3365.07       1.0261495     0.080382589
      3368.44       1.0408789     0.081252648
      3371.81       1.0284176     0.082086119
      3375.18       1.0282715     0.083153559
      3378.56       1.0423644     0.085044089
      3381.94       1.0144893     0.086681063
      3385.32      0.99929433     0.088608684
      3388.70      0.98105362     0.090663620
      3392.09      0.98054258     0.093273594
      3395.48      0.95351940     0.095920278
      3398.88      0.96104648     0.099475516
      3402.28      0.92239450      0.10304886
      3405.68      0.88435721      0.10806102
      3409.09      0.90042927      0.11434981
      3412.49      0.92918665      0.12062394
      3415.91      0.85673509      0.13038671
      3419.32      0.85683205      0.14014180
      3422.74      0.80693500      0.15580855
      3426.17      0.76668806      0.17419491
      3429.59      0.74494115      0.19433467
      3433.02      0.70246429      0.22701821
      3436.45      0.67777980      0.25970895
      3439.89      0.65137362      0.31259677
      3443.33      0.69244086      0.36582402
