# starting wavelength =        3290.5500
# ending wavelength =        8395.0000
# O2 telluric scale =        0
# O2 telluric shift =        0
# H2O telluric scale =        0
# H2O telluric shift =        0
      3291.88      0.60825848     0.065115833
      3295.18      0.59786949     0.054955985
      3298.47      0.59328578     0.047115045
      3301.77      0.59538187     0.042728491
      3305.07      0.60043003     0.037621420
      3308.38      0.60580250     0.033661888
      3311.69      0.60805273     0.029751300
      3315.00      0.61291000     0.027537068
      3318.31      0.62838832     0.025801283
      3321.63      0.63662191     0.024798566
      3324.95      0.63803141     0.023629263
      3328.28      0.65301414     0.022678495
      3331.61      0.65821443     0.021839946
      3334.94      0.66593388     0.021225720
      3338.27      0.67038738     0.020886382
      3341.61      0.66416790     0.020407194
      3344.95      0.65689314     0.019983059
      3348.30      0.65917236     0.019732700
      3351.65      0.66191661     0.019401917
      3355.00      0.66661534     0.019231897
      3358.35      0.66593994     0.019362767
      3361.71      0.66922434     0.019335197
      3365.07      0.66859634     0.019309376
      3368.44      0.67282405     0.019437368
      3371.81      0.67919024     0.019270356
      3375.18      0.69135041     0.019243015
      3378.56      0.68165111     0.019368708
      3381.94      0.66124633     0.019344201
      3385.32      0.65630301     0.019321416
      3388.70      0.65214932     0.019453593
      3392.09      0.63637004     0.019426966
      3395.48      0.64078750     0.019251577
      3398.88      0.63340224     0.019228285
      3402.28      0.63531310     0.019361089
      3405.68      0.63743068     0.019334663
      3409.09      0.64738207     0.019309150
      3412.49      0.64727696     0.019441937
      3415.91      0.65788481     0.019419432
      3419.32      0.65967846     0.019242579
      3422.74      0.65984514     0.019373291
      3426.17      0.66252511     0.019348344
      3429.59      0.66658203     0.019324900
      3433.02      0.66838541     0.019463115
      3436.45      0.68254807     0.019436666
      3439.89      0.68529615     0.019411481
      3443.33      0.69164791     0.019386921
      3446.78      0.69391714     0.019372028
      3450.22      0.70127938     0.019344559
      3453.67      0.70599677     0.019318615
      3457.13      0.69592399     0.019455251
      3460.58      0.68659904     0.019431098
      3464.04      0.68755816     0.019408101
      3467.51      0.69177157     0.019551030
      3470.98      0.69825426     0.019524732
      3474.45      0.69532408     0.019499471
      3477.92      0.69422932     0.019312929
      3481.40      0.69667551     0.019460333
      3484.88      0.69513231     0.019432903
      3488.37      0.69512986     0.019406648
      3491.86      0.68624943     0.019548552
      3495.35      0.67249272     0.019523933
      3498.84      0.66723725     0.019500386
      3502.34      0.66392870     0.019478258
      3505.84      0.66529505     0.019625611
      3509.35      0.66328602     0.019599516
      3512.86      0.65851106     0.019574286
      3516.37      0.66405653     0.019550179
      3519.89      0.66174196     0.019536160
      3523.41      0.65098908     0.019508388
      3526.93      0.64923268     0.019481710
      3530.46      0.63989386     0.019629478
      3533.99      0.63742636     0.019604170
      3537.53      0.64185539     0.019579978
      3541.06      0.64730596     0.019556544
      3544.60      0.65011010     0.019715218
      3548.15      0.64971996     0.019688354
      3551.70      0.64821676     0.019662059
      3555.25      0.64662905     0.019636372
      3558.80      0.65203768     0.019792521
      3562.36      0.64458750     0.019768735
      3565.92      0.64879870     0.019745712
      3569.49      0.66494888     0.019723296
      3573.06      0.67793712     0.019883812
      3576.64      0.68265124     0.019857687
      3580.21      0.68677448     0.019832644
      3583.79      0.70043433     0.019808024
      3587.38      0.71175751     0.019972670
      3590.96      0.71604991     0.019768520
      3594.55      0.71977950     0.019741063
      3598.15      0.72004832     0.019714617
      3601.75      0.72954558     0.019688433
      3605.35      0.73227767     0.019850161
      3608.96      0.72647715     0.019824886
      3612.56      0.72355214     0.019800578
      3616.18      0.72120380     0.019777148
      3619.79      0.71780775     0.019955918
      3623.41      0.70915440     0.019927896
      3627.04      0.71221532     0.019900499
      3630.66      0.70359220     0.019874303
      3634.29      0.69640110     0.019848676
      3637.93      0.70225972     0.020019222
      3641.57      0.69013234     0.019993666
      3645.21      0.68884719     0.019969110
      3648.86      0.68929124     0.019945530
      3652.50      0.69322909     0.020134929
      3656.16      0.70066385     0.020107349
      3659.81      0.70500420     0.020079790
      3663.47      0.71209090     0.020053323
      3667.14      0.71631237     0.020026891
      3670.80      0.71803427     0.020206246
      3674.48      0.72354562     0.020426993
      3678.15      0.73276742     0.021080918
      3681.83      0.72715280     0.021638892
      3685.51      0.72172304     0.022324864
      3689.20      0.73115480     0.023197863
      3692.88      0.73963678     0.024357931
      3696.58      0.73074619     0.025971321
      3700.27      0.72690367     0.023247090
      3703.98      0.73056612     0.023033268
      3707.68      0.72427596     0.023954884
      3711.39      0.71858207     0.025039298
      3715.10      0.70846799     0.026394676
      3718.81      0.69991793     0.027903636
      3722.53      0.70820005     0.029378483
      3726.26      0.72321073     0.030561839
      3729.98      0.71719357     0.032634645
      3733.71      0.71789995     0.031618990
      3737.45      0.71843016     0.030356814
      3741.18      0.70412720     0.028765258
      3744.93      0.67847299     0.027128353
      3748.67      0.66326040     0.026395672
      3752.42      0.65434218     0.025352294
      3756.17      0.64817285     0.025189944
      3759.93      0.64576038     0.029915069
      3763.69      0.64837025     0.026782366
      3767.45      0.66475634     0.024711523
      3771.22      0.67242973     0.023278883
      3774.99      0.67385374     0.022364191
      3778.77      0.67046497     0.021650633
      3782.54      0.66664169     0.021074056
      3786.33      0.66983412     0.021046745
      3790.11      0.66516737     0.021020454
      3793.90      0.66871797     0.020994480
      3797.70      0.67867161     0.021500001
      3801.50      0.68669409     0.021473526
      3805.30      0.69718623     0.021446481
      3809.10      0.70446933     0.021419958
      3812.91      0.70477179     0.021393265
      3816.73      0.68542993     0.021366946
      3820.54      0.66995332     0.021064296
      3824.36      0.64952971     0.021038432
      3828.19      0.64484331     0.021012997
      3832.02      0.63947576     0.020987171
      3835.85      0.64262506     0.020961004
      3839.68      0.64974562     0.020934848
      3843.52      0.66252858     0.020909873
      3847.37      0.67474737     0.020884077
      3851.22      0.68437461     0.020858461
      3855.07      0.69517124     0.020831929
      3858.92      0.70843873     0.020806566
      3862.78      0.71446777     0.020781397
      3866.64      0.73887404     0.020507341
      3870.51      0.76194937     0.020481358
      3874.38      0.79063722     0.020456266
      3878.26      0.80711363     0.020432026
      3882.13      0.81698700     0.020407151
      3886.02      0.82596333     0.020381908
      3889.90      0.83901628     0.020356951
      3893.79      0.86001687     0.020332950
      3897.69      0.87716162     0.020308357
      3901.59      0.91428577     0.020283491
      3905.49      0.95038663     0.020258872
      3909.39      0.97906898     0.020235143
      3913.30      0.99702424     0.020211707
      3917.22       1.0200481     0.020188024
      3921.13       1.0402613     0.020163703
      3925.06       1.0475512     0.020140258
      3928.98       1.0467511     0.020117836
      3932.91       1.0452116     0.020094881
      3936.84       1.0432221     0.020071718
      3940.78       1.0371909     0.020048694
      3944.72       1.0094891     0.019768580
      3948.67      0.98596119     0.019989440
      3952.61      0.95312210     0.019963877
      3956.57      0.92623122     0.019938707
      3960.52      0.91908434     0.019914443
      3964.48      0.91552613     0.019890575
      3968.45      0.91916102     0.019866649
      3972.42      0.93137968     0.019842312
      3976.39      0.95977087     0.019819169
      3980.37      0.98381099     0.019796548
      3984.35       1.0055626     0.019773969
      3988.33       1.0264915     0.019751441
      3992.32       1.0620942     0.019488509
      3996.31       1.0876741     0.019463506
      4000.31       1.1171593     0.019438118
      4004.31       1.1500689     0.019412480
      4008.31       1.1818539     0.019387798
      4012.32       1.2012992     0.019364294
      4016.33       1.2076801     0.019341297
      4020.35       1.2228042     0.019317877
      4024.37       1.2263958     0.019534785
      4028.40       1.2116342     0.019288147
      4032.42       1.1993395     0.019261542
      4036.46       1.1957178     0.019234558
      4040.50       1.1809556     0.019208161
      4044.54       1.1712049     0.019182992
      4048.58       1.1559732     0.019159135
      4052.63       1.1439463     0.019135124
      4056.68       1.1332269     0.019111099
      4060.74       1.1285230     0.018870263
      4064.80       1.1111265     0.018849340
      4068.86       1.0990063     0.018829207
      4072.93       1.0804398     0.019030158
      4077.01       1.0720193     0.019004153
      4081.08       1.0699853     0.018979747
      4085.17       1.0685732     0.018955474
      4089.25       1.0600152     0.018715090
      4093.34       1.0573057     0.018693030
      4097.43       1.0625951     0.018672467
      4101.53       1.0536797     0.018652855
      4105.63       1.0462282     0.018633501
      4109.74       1.0479754     0.018825547
      4113.85       1.0534731     0.018801224
      4117.96       1.0576788     0.018563525
      4122.08       1.0604574     0.018540758
      4126.20       1.0589884     0.018519803
      4130.33       1.0603646     0.018500475
      4134.46       1.0585545     0.018483004
      4138.59       1.0652724     0.018465618
      4142.73       1.0645154     0.018435158
      4146.88       1.0692761     0.018412981
      4151.02       1.0710463     0.018392565
      4155.18       1.0792609     0.018372375
      4159.33       1.0843797     0.018353602
      4163.49       1.0792461     0.018118306
      4167.65       1.0755486     0.018095184
      4171.82       1.0710793     0.018286921
      4175.99       1.0700034     0.018265458
      4180.17       1.0611066     0.018246137
      4184.35       1.0521130     0.018019117
      4188.54       1.0533480     0.017994417
      4192.72       1.0596948     0.017970953
      4196.92       1.0629883     0.017949477
      4201.11       1.0594477     0.018142988
      4205.31       1.0597651     0.017920316
      4209.52       1.0499161     0.017894412
      4213.73       1.0413541     0.017870747
      4217.94       1.0427859     0.017849491
      4222.16       1.0418090     0.017829692
      4226.38       1.0416206     0.017820815
      4230.61       1.0364021     0.017795245
      4234.84       1.0361416     0.017772097
      4239.08       1.0304322     0.017750574
      4243.32       1.0381912     0.017536857
      4247.56       1.0415070     0.017721942
      4251.81       1.0469886     0.017697022
      4256.06       1.0504082     0.017673823
      4260.32       1.0494655     0.017652461
      4264.58       1.0534816     0.017441213
      4268.84       1.0625385     0.017622962
      4273.11       1.0661561     0.017598434
      4277.38       1.0628180     0.017575887
      4281.66       1.0559093     0.017364576
      4285.94       1.0387247     0.017348130
      4290.23       1.0082746     0.017524028
      4294.52      0.98940032     0.017500763
      4298.81      0.97963661     0.017289820
      4303.11      0.96788872     0.017273117
      4307.42      0.94772342     0.017258646
      4311.72      0.92280050     0.017426524
      4316.04      0.93856520     0.017216157
      4320.35      0.94773722     0.017199401
      4324.67      0.96149858     0.017185055
      4329.00      0.96668883     0.017163234
      4333.33      0.97865646     0.017143574
      4337.66      0.98251403     0.017127135
      4342.00      0.98709347     0.017113026
      4346.34      0.98995040     0.016899959
      4350.69      0.98901907     0.017072101
      4355.04      0.97729621     0.017056509
      4359.39      0.96248848     0.016850893
      4363.75      0.94425938     0.016829615
      4368.12      0.91403107     0.017001988
      4372.48      0.89390335     0.016987591
      4376.86      0.88113144     0.016780249
      4381.23      0.87060660     0.016760105
      4385.61      0.85589163     0.016933239
      4390.00      0.85145460     0.016732218
      4394.39      0.85276544     0.016710449
      4398.79      0.88154857     0.016692031
      4403.18      0.89948198     0.016685096
      4407.59      0.91772966     0.016661955
      4412.00      0.93682170     0.016642368
      4416.41      0.95806533     0.016638912
      4420.82      0.97619325     0.016614525
      4425.25      0.99253009     0.016594048
      4429.67       1.0081086     0.016576791
      4434.10       1.0127683     0.016567350
      4438.54       1.0225414     0.016545888
      4442.97       1.0277424     0.016528238
      4447.42       1.0270179     0.016520898
      4451.86       1.0291438     0.016498454
      4456.32       1.0267249     0.016308088
      4460.77       1.0312000     0.016294456
      4465.24       1.0288940     0.016451838
      4469.70       1.0288806     0.016261702
      4474.17       1.0303051     0.016247684
      4478.65       1.0232558     0.016405736
      4483.12       1.0298588     0.016215714
      4487.61       1.0378348     0.016201887
      4492.09       1.0473872     0.016359754
      4496.59       1.0572464     0.016170429
      4501.08       1.0619025     0.016156796
      4505.58       1.0653465     0.016313912
      4510.09       1.0704222     0.016125754
      4514.60       1.0746778     0.016112971
      4519.12       1.0856104     0.015925919
      4523.63       1.1000201     0.016082281
      4528.16       1.1069545     0.016070414
      4532.69       1.1195047     0.015882382
      4537.22       1.1319553     0.016039033
      4541.76       1.1390547     0.016028416
      4546.30       1.1551579     0.015839576
      4550.85       1.1610175     0.015997064
      4555.40       1.1592686     0.015815068
      4559.95       1.1617635     0.015969013
      4564.51       1.1640150     0.015956653
      4569.08       1.1802773     0.015772350
      4573.65       1.1935221     0.015928019
      4578.22       1.2009739     0.015749546
      4582.80       1.2084293     0.015730850
      4587.38       1.2109703     0.015888018
      4591.97       1.2081994     0.015706862
      4596.56       1.2031285     0.015690448
      4601.16       1.1931612     0.015685098
      4605.76       1.1905239     0.015665657
      4610.37       1.1805733     0.015822055
      4614.98       1.1659113     0.015642859
      4619.59       1.1603972     0.015626298
      4624.21       1.1610385     0.015621710
      4628.84       1.1574409     0.015602438
      4633.47       1.1625907     0.015433542
      4638.10       1.1602474     0.015579872
      4642.74       1.1602047     0.015408718
      4647.38       1.1649538     0.015558947
      4652.03       1.1732982     0.015540846
      4656.68       1.1802275     0.015374187
      4661.34       1.1890456     0.015518285
      4666.00       1.1931765     0.015349962
      4670.67       1.2044029     0.015497190
      4675.33       1.2022126     0.015326733
      4680.01       1.1943867     0.015317796
      4684.69       1.1808557     0.015304818
      4689.38       1.1721984     0.015294277
      4694.07       1.1613905     0.015437726
      4698.76       1.1485446     0.015271224
      4703.46       1.1378457     0.015266008
      4708.16       1.1363190     0.015249360
      4712.87       1.1390957     0.015242205
      4717.58       1.1399388     0.015227950
      4722.30       1.1466210     0.015219818
      4727.03       1.1503467     0.015206797
      4731.75       1.1460645     0.015197643
      4736.48       1.1527447     0.015030376
      4741.22       1.1577880     0.015177052
      4745.96       1.1627371     0.015010544
      4750.71       1.1686784     0.015156658
      4755.46       1.1721961     0.014991916
      4760.22       1.1700069     0.015136873
      4764.97       1.1614148     0.014973003
      4769.74       1.1552574     0.015117324
      4774.51       1.1533223     0.014954730
      4779.29       1.1426532     0.015097911
      4784.07       1.1369307     0.014936287
      4788.85       1.1226651     0.014923715
      4793.64       1.1064965     0.014918387
      4798.43       1.0948112     0.014905425
      4803.23       1.0825402     0.015208333
      4808.03       1.0733065     0.015600820
      4812.84       1.0578647     0.016353355
      4817.66       1.0450478     0.017190889
      4822.48       1.0287774     0.018240080
      4827.30       1.0243264     0.020055148
      4832.12       1.0207914     0.023814305
      4836.96       1.0106210     0.018010310
      4841.79      0.99449847     0.019769892
      4846.63      0.98620315     0.020341785
      4851.48      0.95802778     0.022777047
      4856.33      0.94943664     0.023438106
      4861.19      0.93865309     0.025632421
      4866.05      0.93495284     0.025310174
      4870.92      0.92239981     0.024427480
      4875.79      0.91095451     0.022772844
      4880.66      0.88116207     0.021454350
      4885.55      0.88756372     0.019818071
      4890.43      0.88177814     0.019114630
      4895.32      0.87909392     0.018584237
      4900.22      0.88153738     0.021069203
      4905.12      0.88587130     0.018929875
      4910.02      0.89356717     0.018031575
      4914.94      0.90463658     0.017864647
      4919.85      0.91907934     0.018295171
      4924.77      0.93692274     0.019644834
      4929.70      0.95816921     0.022510683
      4934.62      0.98474692     0.017700027
      4939.56       1.0159380     0.018818449
      4944.50       1.0432777     0.020095843
      4949.44       1.0716693     0.023165029
      4954.39       1.1083564     0.029117542
      4959.35       1.1529988     0.036158563
      4964.31       1.2002248     0.045354152
      4969.27       1.2349480     0.059817929
      4974.24       1.2690955     0.091077116
      4979.22       1.3581439     0.032153167
      4984.20       1.3598892     0.024418625
      4989.18       1.3746653     0.024646461
      4994.17       1.3837604     0.025179789
      4999.16       1.3228372      0.11090482
      5004.16       1.3540939     0.071924646
      5009.17       1.3581599     0.053828128
      5014.18       1.3386481     0.042011808
      5019.19       1.3131086     0.033181801
      5024.21       1.2795083     0.025543476
      5029.23       1.2553548     0.021963151
      5034.26       1.2309045     0.020236166
      5039.30       1.2030387     0.019508354
      5044.34       1.1746877     0.025660765
      5049.39       1.1343541     0.021372177
      5054.43       1.0829271     0.018400827
      5059.49       1.0435474     0.017105334
      5064.55       1.0144674     0.016056181
      5069.61      0.99457527     0.015205100
      5074.68      0.99040356     0.014659113
      5079.76      0.98144003     0.014295366
      5084.84      0.98027211     0.014156119
      5089.92      0.97716496     0.014155627
      5095.01      0.98282889     0.014153439
      5100.11       1.0038149     0.014149671
      5105.21       1.0216388     0.014149782
      5110.31       1.0374835     0.014147027
      5115.42       1.0606364     0.014144231
      5120.54       1.0786208     0.014008540
      5125.66       1.0975733     0.014141891
      5130.79       1.1143297     0.014139992
      5135.92       1.1289427     0.014004405
      5141.05       1.1353821     0.014138077
      5146.20       1.1398517     0.014136845
      5151.34       1.1456873     0.014001270
      5156.49       1.1549720     0.014005158
      5161.65       1.1579396     0.014134609
      5166.81       1.1605908     0.013999061
      5171.98       1.1638737     0.014002644
      5177.15       1.1578328     0.014133361
      5182.33       1.1552449     0.013997778
      5187.51       1.1487666     0.014001018
      5192.70       1.1466747     0.014007125
      5197.89       1.1419946     0.013997879
      5203.09       1.1349793     0.014000487
      5208.29       1.1295586     0.014005912
      5213.50       1.1243482     0.013875987
      5218.72       1.1158121     0.014001243
      5223.93       1.1096779     0.014005758
      5229.16       1.1093946     0.013878871
      5234.39       1.1073721     0.013880351
      5239.62       1.1100456     0.014006906
      5244.86       1.1148189     0.013883353
      5250.11       1.1272914     0.013884276
      5255.36       1.1322429     0.013886782
      5260.61       1.1439393     0.014014576
      5265.87       1.1546454     0.013890115
      5271.14       1.1683259     0.013891838
      5276.41       1.1852842     0.013895489
      5281.69       1.1960141     0.013898508
      5286.97       1.2119864     0.013899155
      5292.26       1.2233438     0.013901702
      5297.55       1.2261520     0.013906022
      5302.85       1.2266418     0.013781829
      5308.15       1.2254659     0.013910790
      5313.46       1.2146268     0.013913982
      5318.77       1.2080420     0.013918324
      5324.09       1.1985165     0.013794068
      5329.42       1.1861633     0.013801358
      5334.75       1.1826562     0.013928138
      5340.08       1.1844504     0.013932391
      5345.42       1.1941853     0.013808049
      5350.77       1.2083725     0.013815052
      5356.12       1.2153608     0.013823238
      5361.48       1.2335693     0.013948868
      5366.83       1.2411268     0.013824049
      5372.20       1.2542904     0.013830840
      5377.58       1.2754853     0.013838679
      5382.95       1.2843461     0.013847658
      5388.34       1.2913351     0.013842751
      5393.72       1.2859422     0.013849055
      5399.12       1.2796992     0.013856487
      5404.52       1.2628911     0.013864859
      5409.92       1.2427957     0.013874164
      5415.33       1.2229867     0.013753648
      5420.75       1.2085384     0.013760486
      5426.17       1.1842234     0.013884947
      5431.60       1.1622312     0.013893637
      5437.03       1.1649864     0.013778719
      5442.47       1.1716719     0.013784849
      5447.91       1.1687534     0.013791821
      5453.36       1.1743480     0.013799405
      5458.81       1.1845377     0.013807849
      5464.27       1.2070079     0.013934320
      5469.73       1.2390444     0.013820129
      5475.20       1.2783921     0.013827250
      5480.68       1.3178156     0.013834973
      5486.16       1.3678881     0.013843327
      5491.65       1.4106450     0.013852263
      5497.14       1.4465206     0.013736248
      5502.64       1.4764031     0.013746052
      5508.14       1.4979639     0.013875506
      5513.65       1.5160852     0.013883696
      5519.16       1.5236287     0.013892361
      5524.68       1.5250539     0.013901759
      5530.20       1.5090414     0.013911570
      5535.73       1.4858254     0.013795416
      5541.27       1.4662182     0.013806214
      5546.81       1.4347527     0.013817194
      5552.36       1.3813432     0.013828447
      5557.91       1.3486171     0.013840512
      5563.47       1.3054548     0.013852631
      5569.04       1.2763635     0.013977722
      5574.60       1.2513358     0.013861297
      5580.18       1.2260195     0.013872337
      5585.76       1.2026416     0.013883557
      5591.35       1.1956300     0.013895185
      5596.94       1.1771707     0.013907283
      5602.53       1.1692751     0.013919426
      5608.14       1.1637683     0.013932218
      5613.75       1.1726373     0.013945046
      5619.36       1.1859648     0.013834794
      5624.98       1.2057559     0.013846468
      5630.60       1.2212347     0.013858467
      5636.23       1.2248546     0.013870381
      5641.87       1.2359722     0.013882855
      5647.51       1.2469256     0.013895590
      5653.16       1.2508445     0.013908180
      5658.82       1.2467227     0.013921318
      5664.47       1.2339275     0.013934696
      5670.14       1.2081288     0.013947800
      5675.81       1.1765209     0.013961642
      5681.48       1.1304354     0.013852554
      5687.17       1.0816393     0.013866203
      5692.85       1.0194334     0.013880242
      5698.55      0.96275831     0.013894706
      5704.25      0.90260357     0.013908831
      5709.95      0.84991048     0.013923404
      5715.66      0.79884281     0.013938106
      5721.38      0.76284034     0.013952535
      5727.10      0.72469486     0.013967785
      5732.83      0.69055835     0.013983696
      5738.56      0.66667211     0.014000142
      5744.30      0.65509987     0.014017379
      5750.04      0.66792759     0.014034021
      5755.79      0.67469123     0.014050667
      5761.55      0.69498898     0.014069323
      5767.31      0.72620354     0.014091494
      5773.08      0.77463092     0.014117700
      5778.85      0.82638361     0.014146561
      5784.63      0.87754962     0.014175281
      5790.41      0.93535172     0.014205225
      5796.21       1.0065317     0.014237405
      5802.00       1.0674082     0.014267665
      5807.81       1.1412024     0.014292372
      5813.61       1.2050792     0.014314283
      5819.43       1.2655157     0.014334099
      5825.25       1.3207044     0.014351692
      5831.07       1.3782762     0.014367499
      5836.90       1.4168074     0.014381479
      5842.74       1.4520314     0.014396015
      5848.58       1.4913263     0.014412435
      5854.43       1.5221222     0.014315161
      5860.29       1.5449075     0.014328923
      5866.15       1.5497113     0.014341494
      5872.01       1.5549833     0.014352078
      5877.89       1.5630969     0.014362835
      5883.76       1.5643949     0.014374508
      5889.65       1.5538507     0.014384117
      5895.54       1.5372501     0.014392331
      5901.43       1.5286618     0.014403002
      5907.34       1.5076524     0.014416495
      5913.24       1.4837048     0.014430587
      5919.16       1.4680371     0.014330114
      5925.08       1.4452458     0.014342066
      5931.00       1.4203863     0.014356958
      5936.93       1.3964543     0.014373609
      5942.87       1.3851740     0.014390751
      5948.81       1.3674803     0.014409028
      5954.76       1.3538503     0.014428426
      5960.72       1.3490414     0.014448292
      5966.68       1.3396911     0.014360554
      5972.64       1.3247498     0.014504558
      5978.62       1.3031974     0.014523639
      5984.60       1.2831380     0.014543644
      5990.58       1.2673936     0.014563734
      5996.57       1.2444015     0.014584219
      6002.57       1.2232547     0.014605514
      6008.57       1.2164619     0.014517555
      6014.58       1.2060527     0.014539394
      6020.60       1.1860074     0.014561855
      6026.62       1.1673015     0.014584588
      6032.65       1.1446346     0.014608025
      6038.68       1.1193635     0.014750494
      6044.72       1.0936945     0.014661938
      6050.76       1.0809726     0.014684455
      6056.81       1.0715749     0.014707365
      6062.87       1.0571967     0.014730697
      6068.93       1.0462746     0.014754997
      6075.00       1.0377420     0.014666429
      6081.08       1.0321144     0.014688465
      6087.16       1.0358858     0.014835630
      6093.25       1.0304779     0.014859110
      6099.34       1.0205700     0.014883503
      6105.44       1.0179418     0.014797889
      6111.54       1.0203700     0.014820803
      6117.66       1.0251497     0.014846985
      6123.78       1.0293729     0.014878364
      6129.90       1.0212348     0.015034312
      6136.03       1.0129776     0.014946738
      6142.17      0.99807829     0.014974751
      6148.31      0.98914042     0.015011541
      6154.46      0.98786977     0.015056963
      6160.61      0.97874685     0.015005704
      6166.77      0.98515782     0.015196387
      6172.94      0.99123737     0.015254767
      6179.11      0.99919508     0.015311948
      6185.29       1.0169161     0.015365211
      6191.48       1.0418107     0.015300400
      6197.67       1.0659785     0.015336568
      6203.87       1.1000128     0.015484457
      6210.07       1.1255105     0.015380620
      6216.28       1.1406638     0.015383958
      6222.50       1.1578714     0.015384058
      6228.72       1.1692761     0.015385271
      6234.95       1.1734218     0.015394173
      6241.19       1.1586544     0.015409648
      6247.42       1.1363543     0.015425123
      6253.67       1.1146121     0.015437274
      6259.93       1.0738925     0.015458732
      6266.19       1.0427795     0.015476732
      6272.46       1.0078915     0.015497046
      6278.73      0.96473268     0.015403947
      6285.01      0.92183595     0.015424260
      6291.29      0.87014499     0.015572972
      6297.58      0.81801940     0.015486393
      6303.88      0.77407435     0.015510018
      6310.19      0.73589040     0.015536448
      6316.50      0.70443301     0.015693567
      6322.81      0.68701639     0.015609483
      6329.14      0.67833368     0.015637636
      6335.47      0.67192316     0.015669293
      6341.80      0.66421769     0.015722150
      6348.14      0.68124592     0.015758841
      6354.49      0.70340702     0.015801091
      6360.85      0.72318864     0.015867076
      6367.21      0.74571041     0.015905013
      6373.57      0.76936786     0.015943898
      6379.95      0.79584152     0.015873779
      6386.33      0.83502993     0.016039316
      6392.72      0.87032684     0.015960820
      6399.11      0.89687037     0.015992245
      6405.51      0.90545757     0.016146186
      6411.92      0.92192261     0.016057858
      6418.32      0.94095850     0.016084345
      6424.74      0.95093226     0.016114015
      6431.17      0.96448896     0.016152776
      6437.60      0.98295851     0.016184588
      6444.04      0.99600753     0.016100895
      6450.48       1.0096373     0.016256425
      6456.94       1.0137806     0.016284581
      6463.39       1.0143340     0.016193509
      6469.85       1.0203964     0.016348721
      6476.33       1.0087636     0.016379697
      6482.80      0.96520421     0.016289662
      6489.28      0.93607692     0.016444134
      6495.77      0.87985770     0.016354736
      6502.27      0.85560427     0.016382253
      6508.77      0.84211267     0.016431572
      6515.28      0.81008271     0.016460587
      6521.80      0.79898801     0.016493182
      6528.32      0.82106031     0.016543951
      6534.85      0.83308890     0.016576130
      6541.38      0.85827666     0.016630096
      6547.92      0.90625225     0.016660578
      6554.47      0.96557301     0.016583099
      6561.03       1.0223153     0.016747159
      6567.59       1.0618954     0.016780763
      6574.16       1.1054195     0.016705509
      6580.73       1.1400381     0.016868737
      6587.31       1.1615117     0.016791833
      6593.90       1.1643909     0.016957633
      6600.50       1.1553526     0.016879007
      6607.10       1.1344319     0.016918037
      6613.70       1.1219741     0.016967613
      6620.32       1.0892129     0.017005965
      6626.94       1.0667491     0.017057544
      6633.57       1.0392241     0.017095079
      6640.20      0.99807422     0.017148496
      6646.84      0.98727644     0.017185544
      6653.49      0.99558686     0.017106474
      6660.14      0.96964828     0.017277171
      6666.80      0.94386182     0.017198427
      6673.47      0.97999958     0.017369795
      6680.14      0.99345651     0.017291305
      6686.82       1.0090620     0.017464477
      6693.51       1.0397969     0.017405610
      6700.20       1.0687715     0.017487861
      6706.90       1.0908281     0.017595977
      6713.61       1.0960998     0.017616864
      6720.32       1.0961856     0.017686614
      6727.05       1.0917533     0.017793144
      6733.77       1.0802113     0.018019838
      6740.51       1.0625800     0.018232566
      6747.25       1.0287094     0.018585515
      6754.00      0.99049447     0.018870606
      6760.75      0.95297316     0.019267414
      6767.51      0.91863473     0.019418842
      6774.28      0.86602753     0.019831143
      6781.05      0.82777098     0.019828480
      6787.84      0.78031134     0.020043748
      6794.62      0.73549941     0.019850312
      6801.42      0.74288238     0.019859278
      6808.22      0.73648402     0.019555755
      6815.03      0.74182396     0.019350183
      6821.85      0.74575449     0.019225871
      6828.67      0.74206211     0.019152254
      6835.50      0.72750278     0.019110274
      6842.33      0.70751538     0.019002597
      6849.17      0.68500199     0.018818436
      6856.02      0.66004901     0.018930679
      6862.88      0.63561354     0.018794796
      6869.74      0.61529123     0.018919825
      6876.61      0.59237002     0.018803884
      6883.49      0.58075383     0.018839993
      6890.37      0.57257770     0.018868672
      6897.27      0.56238686     0.018927178
      6904.16      0.56410256     0.019110379
      6911.07      0.57323059     0.019022342
      6917.98      0.60432342     0.019072621
      6924.89      0.64205445     0.019094346
      6931.82      0.69138035     0.019130246
      6938.75      0.73928484     0.019031293
      6945.69      0.79433125     0.019197951
      6952.64      0.84504114     0.019246906
      6959.59      0.89783287     0.019150161
      6966.55      0.94668621     0.019320320
      6973.52      0.99065721     0.019230895
      6980.49       1.0258765     0.019284254
      6987.47       1.0573339     0.019329978
      6994.46       1.0882515     0.019403256
      7001.46       1.1031233     0.019488263
      7008.46       1.1068438     0.019552215
      7015.46       1.0995244     0.019643835
      7022.48       1.0892251     0.019754378
      7029.51       1.0762604     0.019857907
      7036.53       1.0743751     0.020036842
      7043.57       1.0679853     0.020122074
      7050.62       1.0599048     0.020506249
      7057.66       1.0454798     0.020832679
      7064.72       1.0204234     0.020959790
      7071.79      0.99598680     0.021212652
      7078.86      0.98444981     0.021539432
      7085.94      0.97421258     0.021507880
      7093.03      0.96406938     0.021612849
      7100.12      0.95205017     0.021818874
      7107.22      0.92700602     0.021677819
      7114.33      0.90568960     0.021693538
      7121.44      0.89287788     0.021730119
      7128.56      0.88364467     0.021774000
      7135.69      0.87623798     0.021873290
      7142.83      0.87723575     0.021978959
      7149.97      0.86446576     0.021896227
      7157.12      0.85851275     0.022104334
      7164.28      0.85845353     0.022125063
      7171.44      0.88577505     0.021958925
      7178.62      0.91721266     0.021925193
      7185.80      0.92595485     0.022050350
      7192.98      0.92740254     0.021888812
      7200.17      0.92843162     0.021852498
      7207.38      0.95979006     0.021796942
      7214.58       1.0096035     0.021741464
      7221.80       1.0446183     0.021703861
      7229.02       1.0639346     0.021670439
      7236.25       1.0801612     0.021654212
      7243.49       1.0913977     0.021504815
      7250.73       1.1233205     0.021518466
      7257.98       1.1556461     0.021683042
      7265.24       1.1852103     0.021718229
      7272.51       1.2044558     0.021605888
      7279.78       1.2107543     0.021640271
      7287.06       1.2077227     0.021675948
      7294.35       1.2218035     0.021720252
      7301.64       1.2416381     0.021745707
      7308.94       1.2598545     0.021798791
      7316.25       1.2445734     0.021857772
      7323.57       1.1981096     0.021921203
      7330.89       1.1593117     0.021831588
      7338.22       1.1300308     0.021895608
      7345.56       1.1246435     0.022096831
      7352.91       1.1099563     0.022169200
      7360.26       1.0806060     0.022243118
      7367.62       1.0433481     0.022162725
      7374.99       1.0191353     0.022237571
      7382.37      0.98653249     0.022314192
      7389.75      0.97964847     0.022392109
      7397.14      0.98081371     0.022482630
      7404.53      0.97251368     0.022594239
      7411.94      0.97176153     0.022871874
      7419.35      0.97940573     0.023222772
      7426.77      0.99237199     0.023400572
      7434.20       1.0038260     0.023384425
      7441.63       1.0060183     0.023660656
      7449.07      0.99605928     0.024107329
      7456.52      0.98095582     0.025104952
      7463.98      0.95757847     0.026459935
      7471.45      0.94846173     0.028130646
      7478.92      0.94097538     0.030044527
      7486.40      0.96079356     0.032069216
      7493.88      0.95276955     0.033522123
      7501.38      0.93015779     0.035139221
      7508.88      0.87093495     0.036054824
      7516.39      0.82365247     0.036039743
      7523.91      0.80120002     0.035124675
      7531.43      0.85918484     0.033588632
      7538.96      0.88295752     0.031781543
      7546.50      0.85633788     0.030018519
      7554.05      0.82232255     0.028610743
      7561.60      0.77907131     0.027492665
      7569.16      0.79032800     0.026574033
      7576.73      0.80815085     0.025833866
      7584.31      0.82117507     0.025404652
      7591.89      0.80210754     0.025188069
      7599.49      0.78556657     0.025008411
      7607.09      0.73871215     0.024866367
      7614.70      0.75534177     0.024779922
      7622.31      0.78695761     0.024746178
      7629.93      0.82414416     0.024755494
      7637.56      0.82976523     0.024636851
      7645.20      0.83182230     0.024691482
      7652.85      0.82599285     0.024760191
      7660.50      0.84128775     0.024835658
      7668.16      0.90450581     0.024917789
      7675.83      0.96517242     0.025004176
      7683.50      0.98696963     0.025092748
      7691.19      0.98368208     0.025181204
      7698.88      0.97448899     0.025271709
      7706.58       1.0019096     0.025363076
      7714.29       1.0656336     0.025454493
      7722.00       1.1093887     0.025549570
      7729.73       1.1235968     0.025649750
      7737.45       1.0920325     0.025612315
      7745.19       1.0776779     0.025719827
      7752.94       1.0379450     0.025833568
      7760.69       1.0772461     0.025951168
      7768.45       1.0877758     0.026067902
      7776.22       1.0691952     0.026173773
      7784.00       1.0302958     0.026272041
      7791.78      0.99084032     0.026367416
      7799.57      0.92183566     0.026461212
      7807.37      0.91502132     0.026554260
      7815.18      0.93634417     0.026645824
      7822.99      0.93769408     0.026736987
      7830.82      0.92913440     0.026676547
      7838.65      0.88597578     0.026772251
      7846.49      0.84279942     0.026873221
      7854.34      0.84210240     0.026975745
      7862.19      0.85602435     0.027077114
      7870.05      0.87393750     0.027179621
      7877.93      0.86330884     0.027280782
      7885.80      0.84326091     0.027227312
      7893.69      0.82714444     0.027317797
      7901.58      0.81472111     0.027083208
      7909.49      0.83984596     0.027028728
      7917.40      0.86653307     0.026812768
      7925.31      0.87030589     0.026614157
      7933.24      0.85612129     0.026715045
      7941.17      0.83323139     0.026532077
      7949.11      0.82006969     0.026534744
      7957.06      0.81837738     0.026396219
      7965.02      0.83033351     0.026433118
      7972.98      0.84150706     0.026353651
      7980.96      0.84057097     0.026575428
      7988.94      0.83411459     0.026562507
      7996.93      0.83024339     0.026745545
      8004.93      0.81592186     0.026821442
      8012.93      0.79011926     0.026884528
      8020.95      0.77012497     0.027032973
      8028.97      0.77550887     0.026991044
      8036.99      0.78901917     0.027216244
      8045.03      0.79058444     0.027165947
      8053.08      0.76956968     0.027251953
      8061.13      0.74349980     0.027141758
      8069.20      0.74868559     0.027124257
      8077.26      0.75076883     0.026945647
      8085.34      0.75411767     0.026889507
      8093.43      0.75277201     0.026691208
      8101.52      0.77252019     0.026601033
      8109.62      0.77044572     0.026401729
      8117.73      0.75423519     0.026333824
      8125.85      0.75277741     0.026160037
      8133.98      0.73610650     0.026105428
      8142.11      0.74887484     0.025939874
      8150.25      0.76621127     0.025887518
      8158.41      0.77547743     0.025723567
      8166.56      0.79151624     0.025654031
      8174.73      0.76902627     0.025467915
      8182.91      0.76348738     0.025377023
      8191.09      0.75840110     0.025190480
      8199.28      0.76890556     0.025095541
      8207.48      0.77990400     0.024915010
      8215.69      0.79047929     0.024839162
      8223.91      0.80389372     0.024694529
      8232.13      0.79723144     0.024665229
      8240.36      0.79096006     0.024533164
      8248.60      0.78955353     0.024457468
      8256.85      0.78621782     0.024452249
      8265.11      0.78656639     0.024815833
      8273.37      0.78505362     0.025162014
      8281.65      0.77393082     0.025682432
      8289.93      0.75716848     0.026293841
      8298.22      0.74109435     0.027079531
      8306.52      0.72548765     0.027895719
      8314.83      0.72275147     0.029063780
      8323.14      0.73623038     0.030549843
      8331.46      0.72023244     0.032738353
      8339.80      0.69981806     0.035351746
      8348.13      0.67766586     0.038350495
      8356.48      0.65548156     0.042653046
      8364.84      0.63422753     0.048910517
      8373.21      0.60270806     0.056200686
      8381.58      0.57737501     0.064269443
      8389.96      0.56896122     0.075769824
