# starting wavelength =        3417.1900
# ending wavelength =        7255.8800
# O2 telluric scale =        0
# O2 telluric shift =        0
# H2O telluric scale =        0
# H2O telluric shift =        0
      3419.32       1.1555101      0.12180222
      3422.74       1.1517852      0.10592501
      3426.17       1.1752195     0.091003234
      3429.59       1.1905552     0.079168470
      3433.02       1.2094253     0.069851013
      3436.45       1.2311481     0.062562183
      3439.89       1.2355100     0.055929238
      3443.33       1.2414220     0.051756155
      3446.78       1.2627749     0.048533011
      3450.22       1.2641354     0.046027481
      3453.67       1.2622159     0.044261318
      3457.13       1.2855162     0.042581848
      3460.58       1.2998193     0.041231116
      3464.04       1.2969232     0.040126793
      3467.51       1.2817140     0.039209180
      3470.98       1.2881285     0.038167669
      3474.45       1.2883090     0.037516681
      3477.92       1.2970366     0.036953214
      3481.40       1.2933547     0.036628965
      3484.88       1.3060034     0.036257168
      3488.37       1.2976841     0.036295874
      3491.86       1.3117129     0.036338682
      3495.35       1.3229614     0.036206036
      3498.84       1.3275377     0.036005624
      3502.34       1.3328782     0.035871816
      3505.84       1.3318051     0.035910660
      3509.35       1.3059836     0.035958030
      3512.86       1.2960658     0.035581432
      3516.37       1.2908264     0.035626796
      3519.89       1.3044419     0.035496025
      3523.41       1.3090036     0.035535121
      3526.93       1.2982046     0.035344114
      3530.46       1.2951406     0.035206081
      3533.99       1.3192773     0.035257830
      3537.53       1.3460560     0.035062757
      3541.06       1.3618867     0.034929587
      3544.60       1.3736511     0.034976117
      3548.15       1.3781294     0.035029847
      3551.70       1.3750516     0.034650322
      3555.25       1.3768727     0.034701900
      3558.80       1.3488146     0.034755233
      3562.36       1.3588860     0.034377137
      3565.92       1.3672610     0.034430042
      3569.49       1.3684534     0.034484707
      3573.06       1.3686516     0.034355254
      3576.64       1.3640316     0.034159697
      3580.21       1.3377509     0.034217990
      3583.79       1.3242489     0.034082060
      3587.38       1.3278266     0.033895634
      3590.96       1.3066359     0.033952386
      3594.55       1.3024912     0.033822975
      3598.15       1.3061590     0.033878008
      3601.75       1.3048160     0.033691959
      3605.35       1.3227247     0.033555677
      3608.96       1.3068962     0.033624570
      3612.56       1.2938493     0.033432443
      3616.18       1.2801143     0.033499331
      3619.79       1.2574987     0.033362453
      3623.41       1.2331873     0.033177272
      3627.04       1.2420441     0.033243162
      3630.66       1.2370688     0.033116930
      3634.29       1.2437068     0.032925116
      3637.93       1.2537454     0.032994161
      3641.57       1.2572583     0.033065547
      3645.21       1.2532916     0.032674434
      3648.86       1.2382821     0.032746423
      3652.50       1.2251796     0.032819586
      3656.16       1.1938074     0.032641622
      3659.81       1.1760035     0.032501417
      3663.47       1.1538747     0.032580974
      3667.14       1.1432526     0.032393060
      3670.80       1.1082395     0.032475211
      3674.48       1.0764637     0.032338240
      3678.15       1.0226429     0.032157562
      3681.83      0.98481108     0.032237512
      3685.51      0.95334058     0.032321708
      3689.20      0.92977353     0.031922642
      3692.88      0.90782235     0.032003615
      3696.58      0.90429986     0.032094962
      3700.27      0.89203876     0.031908479
      3703.98      0.86697936     0.032001315
      3707.68      0.83837324     0.031864645
      3711.39      0.81415492     0.031683381
      3715.10      0.79414143     0.031777531
      3718.81      0.77489180     0.031871010
      3722.53      0.75522847     0.031464752
      3726.26      0.73768951     0.031554775
      3729.98      0.71500589     0.031376402
      3733.71      0.70125396     0.031475010
      3737.45      0.68472784     0.031576075
      3741.18      0.65093979     0.031400103
      3744.93      0.62754920     0.031258619
      3748.67      0.59908183     0.031376324
      3752.42      0.58278031     0.031187427
      3756.17      0.55935160     0.031295411
      3759.93      0.54774426     0.031120370
      3763.69      0.52325146     0.031227351
      3767.45      0.51282915     0.031103705
      3771.22      0.49740587     0.030915275
      3774.99      0.48440446     0.031029566
      3778.77      0.49290133     0.031160695
      3782.54      0.49452791     0.030971087
      3786.33      0.49713255     0.031097014
      3790.11      0.48523940     0.030924905
      3793.90      0.49599636     0.030780106
      3797.70      0.50852424     0.030926047
      3801.50      0.51902944     0.030733855
      3805.30      0.53400042     0.030550504
      3809.10      0.55551397     0.030425497
      3812.91      0.58568042     0.030238889
      3816.73      0.60992748     0.030060784
      3820.54      0.63945352     0.029935327
      3824.36      0.67598489     0.029750375
      3828.19      0.70844621     0.029317825
      3832.02      0.74553822     0.029449336
      3835.85      0.78195712     0.029269764
      3839.68      0.81481623     0.028844635
      3843.52      0.85192890     0.028972736
      3847.37      0.89082296     0.028793469
      3851.22      0.93504153     0.028373813
      3855.07      0.97528616     0.028210410
      3858.92       1.0256262     0.028325295
      3862.78       1.0702061     0.027911581
      3866.64       1.1275943     0.027747750
      3870.51       1.1792688     0.027861215
      3874.38       1.2290408     0.027452784
      3878.26       1.2998573     0.027292088
      3882.13       1.3636862     0.027136234
      3886.02       1.4329913     0.027002235
      3889.90       1.4936830     0.026840321
      3893.79       1.5331513     0.026684389
      3897.69       1.5613664     0.026556182
      3901.59       1.5938380     0.026396862
      3905.49       1.6226426     0.026241137
      3909.39       1.6597076     0.025860932
      3913.30       1.6870856     0.025957449
      3917.22       1.6994386     0.025801769
      3921.13       1.7047455     0.025434088
      3925.06       1.7050882     0.025275960
      3928.98       1.7073495     0.025371279
      3932.91       1.7193233     0.025013456
      3936.84       1.7212483     0.024854810
      3940.78       1.7349555     0.024700657
      3944.72       1.7483249     0.024795304
      3948.67       1.7699057     0.024444190
      3952.61       1.7868067     0.024288555
      3956.57       1.7923154     0.024136844
      3960.52       1.8076576     0.023790321
      3964.48       1.8022830     0.023884969
      3968.45       1.7831953     0.023733736
      3972.42       1.7656698     0.023584932
      3976.39       1.7687505     0.023244818
      3980.37       1.7734151     0.023336925
      3984.35       1.7850247     0.023188353
      3988.33       1.7790506     0.023043217
      3992.32       1.7680140     0.022710731
      3996.31       1.7698170     0.022570763
      4000.31       1.7456256     0.022654665
      4004.31       1.7154628     0.022510744
      4008.31       1.6988591     0.022185775
      4012.32       1.6746771     0.022048466
      4016.33       1.6521532     0.021912878
      4020.35       1.6178730     0.021991026
      4024.37       1.5800384     0.021670904
      4028.40       1.5553038     0.021535629
      4032.42       1.5202100     0.021402261
      4036.46       1.4889062     0.021270301
      4040.50       1.4562909     0.020966224
      4044.54       1.4285697     0.021033981
      4048.58       1.4045208     0.020902038
      4052.63       1.3978744     0.020771804
      4056.68       1.3901111     0.020642817
      4060.74       1.3719465     0.020348956
      4064.80       1.3589987     0.020217876
      4068.86       1.3467634     0.020090039
      4072.93       1.3319688     0.020157014
      4077.01       1.3092453     0.020030819
      4081.08       1.3031341     0.019749043
      4085.17       1.2929378     0.019620636
      4089.25       1.2752800     0.019495141
      4093.34       1.2606967     0.019371603
      4097.43       1.2641408     0.019248974
      4101.53       1.2707305     0.019167284
      4105.63       1.2864789     0.019041661
      4109.74       1.2916660     0.018917864
      4113.85       1.2929442     0.018796530
      4117.96       1.3133195     0.018676352
      4122.08       1.3263776     0.018556891
      4126.20       1.3329085     0.018292278
      4130.33       1.3420144     0.018176068
      4134.46       1.3405235     0.018062154
      4138.59       1.3442421     0.018122676
      4142.73       1.3542134     0.018005272
      4146.88       1.3582588     0.017888537
      4151.02       1.3569356     0.017773211
      4155.18       1.3559521     0.017520162
      4159.33       1.3525152     0.017408699
      4163.49       1.3468511     0.017297772
      4167.65       1.3450560     0.017187410
      4171.82       1.3360307     0.017077966
      4175.99       1.3348603     0.016970328
      4180.17       1.3363893     0.016863906
      4184.35       1.3179255     0.016624340
      4188.54       1.3166258     0.016517168
      4192.72       1.3032905     0.016564705
      4196.92       1.2915512     0.016458689
      4201.11       1.2821677     0.016353894
      4205.31       1.2699008     0.016249451
      4209.52       1.2658528     0.016145381
      4213.73       1.2675148     0.016041685
      4217.94       1.2738898     0.015939843
      4222.16       1.2804854     0.015719524
      4226.38       1.2774153     0.015618095
      4230.61       1.2845905     0.015517127
      4234.84       1.2976669     0.015416616
      4239.08       1.3003041     0.015317470
      4243.32       1.3077865     0.015219637
      4247.56       1.3029166     0.015122150
      4251.81       1.3063526     0.015025070
      4256.06       1.3162235     0.014928399
      4260.32       1.3196526     0.014832638
      4264.58       1.3202028     0.014738312
      4268.84       1.3236226     0.014644254
      4273.11       1.3233436     0.014439785
      4277.38       1.3138320     0.014347180
      4281.66       1.3132527     0.014255509
      4285.94       1.3062733     0.014165117
      4290.23       1.3087183     0.014074995
      4294.52       1.3082501     0.013985212
      4298.81       1.3013383     0.013895799
      4303.11       1.2867404     0.013807251
      4307.42       1.2691194     0.013719943
      4311.72       1.2544668     0.013632897
      4316.04       1.2374835     0.013546187
      4320.35       1.2086264     0.013459835
      4324.67       1.1790791     0.013374068
      4329.00       1.1446741     0.013289918
      4333.33       1.1276264     0.013206005
      4337.66       1.1042908     0.013122394
      4342.00       1.0744354     0.013039072
      4346.34       1.0453123     0.012956788
      4350.69       1.0170108     0.012875347
      4355.04      0.99667387     0.012794232
      4359.39      0.98145930     0.012713474
      4363.75      0.96143181     0.012633104
      4368.12      0.94368674     0.012440542
      4372.48      0.94119848     0.012362899
      4376.86      0.93068889     0.012285625
      4381.23      0.92968689     0.012208780
      4385.61      0.92388627     0.012132361
      4390.00      0.92581826     0.012056966
      4394.39      0.92717080     0.011982500
      4398.79      0.93291824     0.011908432
      4403.18      0.92975257     0.011834810
      4407.59      0.92408612     0.011761647
      4412.00      0.92567422     0.011689345
      4416.41      0.93589995     0.011618036
      4420.82      0.95447873     0.011441869
      4425.25      0.96018936     0.011370941
      4429.67      0.97422236     0.011300459
      4434.10      0.99922259     0.011231355
      4438.54       1.0280826     0.011162805
      4442.97       1.0604561     0.011094710
      4447.42       1.0828438     0.011027124
      4451.86       1.1133372     0.010960252
      4456.32       1.1463251     0.010894298
      4460.77       1.1790784     0.010814156
      4465.24       1.2155952     0.010748078
      4469.70       1.2461431     0.010877423
      4474.17       1.2745617     0.011181906
      4478.65       1.3024703     0.011529717
      4483.12       1.3200948     0.010610853
      4487.61       1.3413886     0.010541636
      4492.09       1.3554523     0.010606500
      4496.59       1.3747220     0.010840825
      4501.08       1.3916078     0.011101245
      4505.58       1.4043309     0.011349285
      4510.09       1.4067603     0.011546024
      4514.60       1.4215834     0.011767235
      4519.12       1.4308568     0.011659051
      4523.63       1.4471396     0.011306684
      4528.16       1.4612879     0.010985075
      4532.69       1.4745078     0.010626806
      4537.22       1.4815122     0.010266711
      4541.76       1.4949156    0.0099365878
      4546.30       1.5139648    0.0096049623
      4550.85       1.5298534    0.0095821966
      4555.40       1.5513055    0.0098525586
      4559.95       1.5660682    0.0099011593
      4564.51       1.5753978    0.0095704089
      4569.08       1.5885521    0.0092108373
      4573.65       1.6043343    0.0091591002
      4578.22       1.6123969    0.0091081240
      4582.80       1.6252622    0.0090583292
      4587.38       1.6299550    0.0090747973
      4591.97       1.6250664    0.0089487715
      4596.56       1.6302032    0.0088994346
      4601.16       1.6338555    0.0088510774
      4605.76       1.6327853    0.0088037031
      4610.37       1.6366246    0.0086839795
      4614.98       1.6379686    0.0087001061
      4619.59       1.6383973    0.0086532252
      4624.21       1.6329560    0.0086074990
      4628.84       1.6348272    0.0085626794
      4633.47       1.6291855    0.0084479274
      4638.10       1.6192673    0.0084645662
      4642.74       1.6073808    0.0084203260
      4647.38       1.5921452    0.0083773755
      4652.03       1.5769034    0.0082661093
      4656.68       1.5619901    0.0082255323
      4661.34       1.5463531    0.0082421339
      4666.00       1.5302159    0.0081329263
      4670.67       1.5083858    0.0080930680
      4675.33       1.4803937    0.0080544482
      4680.01       1.4483427    0.0080168202
      4684.69       1.4313064    0.0079665987
      4689.38       1.4010354    0.0079288235
      4694.07       1.3755986    0.0078920249
      4698.76       1.3540026    0.0077898340
      4703.46       1.3254248    0.0077531100
      4708.16       1.2933403    0.0077727104
      4712.87       1.2588787    0.0077381269
      4717.58       1.2162498    0.0076388542
      4722.30       1.1751572    0.0076042942
      4727.03       1.1368419    0.0076251461
      4731.75       1.0965011    0.0075296482
      4736.48       1.0618114    0.0074959988
      4741.22       1.0244521    0.0074637009
      4745.96      0.98955546    0.0074250382
      4750.71      0.96220805    0.0073926625
      4755.46      0.93651241    0.0073614128
      4760.22      0.90848825    0.0073250712
      4764.97      0.89206332    0.0072936532
      4769.74      0.88154561    0.0072634381
      4774.51      0.87974725    0.0071774744
      4779.29      0.87434446    0.0071992278
      4784.07      0.87883341    0.0071703742
      4788.85      0.88826444    0.0070864264
      4793.64      0.89084321    0.0071093871
      4798.43      0.88522447    0.0070818088
      4803.23      0.88204704    0.0069999752
      4808.03      0.87856604    0.0069753208
      4812.84      0.87491404    0.0069426256
      4817.66      0.86652679    0.0069180732
      4822.48      0.85795045    0.0068947013
      4827.30      0.85206248    0.0068633831
      4832.12      0.84413181    0.0068400994
      4836.96      0.83745880    0.0067636348
      4841.79      0.83613368    0.0067884804
      4846.63      0.83542970    0.0067667092
      4851.48      0.83552162    0.0066916739
      4856.33      0.84403811    0.0067178604
      4861.19      0.85285081    0.0066455930
      4866.05      0.87042559    0.0066241060
      4870.92      0.89550262    0.0066514702
      4875.79      0.92241374    0.0065802918
      4880.66      0.95007087    0.0065607247
      4885.55      0.97930211    0.0065390123
      4890.43       1.0035705    0.0065193086
      4895.32       1.0391750    0.0065012744
      4900.22       1.0748584    0.0064803861
      4905.12       1.1000471    0.0064626236
      4910.02       1.1347608    0.0064433846
      4914.94       1.1551688    0.0064258269
      4919.85       1.1739338    0.0063621167
      4924.77       1.1870828    0.0063913503
      4929.70       1.1865124    0.0063282951
      4934.62       1.1839356    0.0063144189
      4939.56       1.1680736    0.0062963481
      4944.50       1.1464942    0.0062830200
      4949.44       1.1204008    0.0063131514
      4954.39       1.0876316    0.0062532507
      4959.35       1.0617413    0.0062418164
      4964.31       1.0267585    0.0062256362
      4969.27      0.99547220    0.0062146813
      4974.24      0.96352624    0.0061996211
      4979.22      0.93650549    0.0061890847
      4984.20      0.91321324    0.0061755897
      4989.18      0.90093235    0.0061656436
      4994.17      0.89102528    0.0061095286
      4999.16      0.88449675    0.0061436873
      5004.16      0.88639474    0.0060888133
      5009.17      0.88589757    0.0061237900
      5014.18      0.89629496    0.0060700961
      5019.19      0.90706978    0.0061052327
      5024.21      0.91694172    0.0060525493
      5029.23      0.93338333    0.0060886214
      5034.26      0.94761366    0.0060369961
      5039.30      0.95995963    0.0059873763
      5044.34      0.97681609    0.0060226183
      5049.39      0.99263366    0.0059741366
      5054.43       1.0112259    0.0060101738
      5059.49       1.0351863    0.0059624075
      5064.55       1.0495566    0.0059988571
      5069.61       1.0604701    0.0059521621
      5074.68       1.0648792    0.0059894148
      5079.76       1.0731781    0.0059436163
      5084.84       1.0786107    0.0059811269
      5089.92       1.0910691    0.0059364022
      5095.01       1.1023619    0.0059333259
      5100.11       1.1068465    0.0059309290
      5105.21       1.1113913    0.0059280757
      5110.31       1.1089280    0.0059266161
      5115.42       1.1134629    0.0059247060
      5120.54       1.1164017    0.0058821240
      5125.66       1.1185997    0.0059225609
      5130.79       1.1220824    0.0058802579
      5135.92       1.1263150    0.0059220664
      5141.05       1.1342505    0.0058802816
      5146.20       1.1453331    0.0058822194
      5151.34       1.1592780    0.0059238490
      5156.49       1.1698112    0.0058838224
      5161.65       1.1734173    0.0059268699
      5166.81       1.1871102    0.0058868803
      5171.98       1.1969982    0.0058908545
      5177.15       1.2154248    0.0058912628
      5182.33       1.2342126    0.0058957521
      5187.51       1.2636251    0.0058583097
      5192.70       1.2872036    0.0059016435
      5197.89       1.3025658    0.0059077314
      5203.09       1.3237108    0.0059094798
      5208.29       1.3364552    0.0059155803
      5213.50       1.3607331    0.0058796422
      5218.72       1.3783909    0.0059247005
      5223.93       1.3952327    0.0058905135
      5229.16       1.4065835    0.0058968637
      5234.39       1.4213426    0.0059430612
      5239.62       1.4317557    0.0059090889
      5244.86       1.4331990    0.0059168337
      5250.11       1.4364714    0.0059232620
      5255.36       1.4348188    0.0059307452
      5260.61       1.4357031    0.0059393146
      5265.87       1.4364486    0.0059464290
      5271.14       1.4380439    0.0059551772
      5276.41       1.4385825    0.0059647527
      5281.69       1.4398538    0.0059325800
      5286.97       1.4472753    0.0059821258
      5292.26       1.4500350    0.0059498225
      5297.55       1.4513167    0.0059611730
      5302.85       1.4520493    0.0060115187
      5308.15       1.4530731    0.0059798282
      5313.46       1.4530884    0.0059921126
      5318.77       1.4511169    0.0060050892
      5324.09       1.4456127    0.0060120401
      5329.42       1.4338121    0.0060251620
      5334.75       1.4300059    0.0060389621
      5340.08       1.4199556    0.0060092455
      5345.42       1.4086411    0.0060603439
      5350.77       1.3973406    0.0060748923
      5356.12       1.3857501    0.0060463464
      5361.48       1.3784426    0.0060603191
      5366.83       1.3675165    0.0061128862
      5372.20       1.3603030    0.0060856112
      5377.58       1.3535063    0.0061594350
      5382.95       1.3483715    0.0061213864
      5388.34       1.3496085    0.0061695960
      5393.72       1.3433192    0.0061557871
      5399.12       1.3416119    0.0062002624
      5404.52       1.3340471    0.0062535153
      5409.92       1.3369225    0.0062653398
      5415.33       1.3299482    0.0063520050
      5420.75       1.3160458    0.0063953772
      5426.17       1.3003550    0.0064267436
      5431.60       1.2981314    0.0063954424
      5437.03       1.3073771    0.0064003436
      5442.47       1.3075419    0.0064373339
      5447.91       1.3114501    0.0064200408
      5453.36       1.3104689    0.0063529051
      5458.81       1.3074656    0.0063342164
      5464.27       1.3028124    0.0063241932
      5469.73       1.2944724    0.0063327328
      5475.20       1.2851285    0.0063498270
      5480.68       1.2753000    0.0064309199
      5486.16       1.2563005    0.0063818727
      5491.65       1.2452132    0.0064017220
      5497.14       1.2301485    0.0063763441
      5502.64       1.2166503    0.0063959142
      5508.14       1.1955370    0.0064542672
      5513.65       1.1794221    0.0064744182
      5519.16       1.1558214    0.0064949520
      5524.68       1.1277164    0.0064704207
      5530.20       1.1097013    0.0064905507
      5535.73       1.1040164    0.0065108501
      5541.27       1.0946075    0.0065316384
      5546.81       1.0789125    0.0065527906
      5552.36       1.0652969    0.0065280788
      5557.91       1.0471785    0.0065891249
      5563.47       1.0243870    0.0066100969
      5569.04       1.0074162    0.0066313822
      5574.60      0.98495174    0.0066527832
      5580.18      0.96135655    0.0066743511
      5585.76      0.93579409    0.0066493322
      5591.35      0.92085958    0.0066712866
      5596.94      0.90604736    0.0066933292
      5602.53      0.88574776    0.0067155385
      5608.14      0.86985788    0.0067380654
      5613.75      0.85389495    0.0067607157
      5619.36      0.84214092    0.0067356477
      5624.98      0.83083218    0.0067970688
      5630.60      0.81118137    0.0068195470
      5636.23      0.78705118    0.0068422116
      5641.87      0.76777700    0.0068648618
      5647.51      0.75247496    0.0068876602
      5653.16      0.73837753    0.0069106278
      5658.82      0.72564901    0.0069336536
      5664.47      0.71340798    0.0069097463
      5670.14      0.70610866    0.0069323169
      5675.81      0.70220707    0.0069551655
      5681.48      0.69675272    0.0069779808
      5687.17      0.69340329    0.0070008315
      5692.85      0.69596625    0.0070238870
      5698.55      0.70764591    0.0070473890
      5704.25      0.71613192    0.0070712968
      5709.95      0.73230403    0.0070953327
      5715.66      0.75059430    0.0071190828
      5721.38      0.77038224    0.0071430517
      5727.10      0.79102690    0.0071676616
      5732.83      0.80744942    0.0071447881
      5738.56      0.82088346    0.0071731692
      5744.30      0.83422276    0.0072027363
      5750.04      0.86283464    0.0072323297
      5755.79      0.89366718    0.0072628240
      5761.55      0.91516814    0.0072942261
      5767.31      0.93904294    0.0073245246
      5773.08      0.96076142    0.0073521852
      5778.85      0.98444557    0.0073781674
      5784.63       1.0113358    0.0073612448
      5790.41       1.0403511    0.0073847433
      5796.21       1.0611443    0.0074069817
      5802.00       1.0878554    0.0074282518
      5807.81       1.1123804    0.0074498511
      5813.61       1.1288603    0.0074718467
      5819.43       1.1503439    0.0074937664
      5825.25       1.1624263    0.0075145627
      5831.07       1.1775696    0.0075344388
      5836.90       1.1913112    0.0075534871
      5842.74       1.1995056    0.0075722864
      5848.58       1.2043364    0.0075912183
      5854.43       1.2126673    0.0076091798
      5860.29       1.2220366    0.0075811559
      5866.15       1.2262413    0.0075985667
      5872.01       1.2173074    0.0076178350
      5877.89       1.2107911    0.0076368060
      5883.76       1.2091265    0.0076547585
      5889.65       1.2081746    0.0076731522
      5895.54       1.2097869    0.0076928426
      5901.43       1.2044518    0.0077132573
      5907.34       1.1913717    0.0077415703
      5913.24       1.1817556    0.0077619001
      5919.16       1.1704520    0.0077825248
      5925.08       1.1575046    0.0078033526
      5931.00       1.1462473    0.0078238221
      5936.93       1.1310318    0.0078444686
      5942.87       1.1237680    0.0078213873
      5948.81       1.1132758    0.0078420319
      5954.76       1.0908871    0.0078626294
      5960.72       1.0785193    0.0078833107
      5966.68       1.0732892    0.0079040430
      5972.64       1.0616110    0.0079247008
      5978.62       1.0534172    0.0079497275
      5984.60       1.0435032    0.0079694984
      5990.58       1.0369446    0.0079892929
      5996.57       1.0370003    0.0080088347
      6002.57       1.0314838    0.0080285628
      6008.57       1.0241214    0.0080020568
      6014.58       1.0192416    0.0080205747
      6020.60       1.0126755    0.0080390427
      6026.62       1.0096002    0.0081096092
      6032.65       1.0056417    0.0080832171
      6038.68       1.0027197    0.0081005338
      6044.72      0.99827189    0.0081180790
      6050.76      0.99617750    0.0081357098
      6056.81      0.99684232    0.0081084854
      6062.87      0.99025785    0.0081775353
      6068.93      0.98510817    0.0081939858
      6075.00      0.99079352    0.0082109661
      6081.08      0.99433556    0.0081848397
      6087.16      0.99309839    0.0082056705
      6093.25      0.99680831    0.0082235705
      6099.34      0.99708151    0.0082890312
      6105.44      0.99157379    0.0082624831
      6111.54      0.98741523    0.0082858288
      6117.66      0.97836760    0.0083135757
      6123.78      0.96511820    0.0083450078
      6129.90      0.94895871    0.0083864481
      6136.03      0.92537267    0.0084202866
      6142.17      0.90412083    0.0084530050
      6148.31      0.88200547    0.0084350407
      6154.46      0.85995281    0.0085118485
      6160.61      0.83245111    0.0085288545
      6166.77      0.81006541    0.0084894201
      6172.94      0.78885690    0.0084923540
      6179.11      0.77304881    0.0084915031
      6185.29      0.76342944    0.0084893686
      6191.48      0.75741726    0.0084853330
      6197.67      0.75742269    0.0084859341
      6203.87      0.75520319    0.0084438653
      6210.07      0.75884003    0.0084967721
      6216.28      0.76447563    0.0084971277
      6222.50      0.77221077    0.0084537207
      6228.72      0.77667086    0.0085084961
      6234.95      0.79249991    0.0084650465
      6241.19      0.80267240    0.0084703080
      6247.42      0.81382661    0.0084765265
      6253.67      0.82245880    0.0084837275
      6259.93      0.83770866    0.0084896623
      6266.19      0.85251553    0.0084970267
      6272.46      0.86607983    0.0085056779
      6278.73      0.87696637    0.0085126685
      6285.01      0.89866725    0.0084717828
      6291.29      0.91265290    0.0085287558
      6297.58      0.92354837    0.0085363373
      6303.88      0.93552627    0.0084969785
      6310.19      0.94622774    0.0085582041
      6316.50      0.95020947    0.0085240147
      6322.81      0.95714568    0.0085344129
      6329.14      0.96081109    0.0085486965
      6335.47      0.95946425    0.0085559699
      6341.80      0.95828500    0.0085632106
      6348.14      0.95526023    0.0085726083
      6354.49      0.95621909    0.0085756693
      6360.85      0.95705615    0.0085299267
      6367.21      0.95315844    0.0085770721
      6373.57      0.94904208    0.0085276716
      6379.95      0.95003191    0.0085733479
      6386.33      0.94629211    0.0085229616
      6392.72      0.93387391    0.0085219185
      6399.11      0.92312949    0.0085205161
      6405.51      0.90989697    0.0085182684
      6411.92      0.88920770    0.0085139932
      6418.32      0.86949879    0.0085087646
      6424.74      0.85177732    0.0084539761
      6431.17      0.83752152    0.0084953065
      6437.60      0.81957974    0.0084415940
      6444.04      0.80513117    0.0084818136
      6450.48      0.78582100    0.0084247170
      6456.94      0.77048518    0.0084631931
      6463.39      0.76383586    0.0084077853
      6469.85      0.75710727    0.0083999585
      6476.33      0.75102307    0.0083924064
      6482.80      0.76121562    0.0083844513
      6489.28      0.77256376    0.0083762686
      6495.77      0.78669687    0.0083211831
      6502.27      0.80145398    0.0083580146
      6508.77      0.81426519    0.0083019686
      6515.28      0.82950388    0.0083370464
      6521.80      0.84993947    0.0082804618
      6528.32      0.86546975    0.0083145898
      6534.85      0.87892922    0.0082568071
      6541.38      0.89430585    0.0082430731
      6547.92      0.90521456    0.0082308127
      6554.47      0.91700536    0.0082153229
      6561.03      0.92206782    0.0082020130
      6567.59      0.92297100    0.0081851086
      6574.16      0.92406278    0.0081244022
      6580.73      0.92572346    0.0081522197
      6587.31      0.92992145    0.0080902057
      6593.90      0.92508208    0.0081170655
      6600.50      0.92579935    0.0080533230
      6607.10      0.93257849    0.0080331324
      6613.70      0.93401078    0.0080140831
      6620.32      0.93382714    0.0079918125
      6626.94      0.93765294    0.0079273986
      6633.57      0.93383677    0.0079479677
      6640.20      0.93276737    0.0079237225
      6646.84      0.92865362    0.0078586278
      6653.49      0.91730507    0.0078868200
      6660.14      0.90680448    0.0078535293
      6666.80      0.89568829    0.0078431568
      6673.47      0.88286660    0.0078091790
      6680.14      0.87450756    0.0077856549
      6686.82      0.86266823    0.0078013486
      6693.51      0.85141392    0.0078356382
      6700.20      0.84521231    0.0079033416
      6706.90      0.84017812    0.0079451512
      6713.61      0.83262765    0.0080709807
      6720.32      0.82151487    0.0081643362
      6727.05      0.81817103    0.0081839581
      6733.77      0.81894750    0.0082181334
      6740.51      0.81751623    0.0082573772
      6747.25      0.81679576    0.0081552942
      6754.00      0.81769766    0.0080558686
      6760.75      0.81352804    0.0079853379
      6767.51      0.80323922    0.0078061785
      6774.28      0.79256075    0.0076637822
      6781.05      0.79327197    0.0075155547
      6787.84      0.78702273    0.0074683164
      6794.62      0.78196784    0.0073754814
      6801.42      0.78076635    0.0072704429
      6808.22      0.77806974    0.0071531227
      6815.03      0.77151821    0.0070786905
      6821.85      0.76999582    0.0070502058
      6828.67      0.76277154    0.0069508174
      6835.50      0.75887489    0.0068861197
      6842.33      0.75848334    0.0068263059
      6849.17      0.75427593    0.0067390832
      6856.02      0.75172947    0.0067238040
      6862.88      0.75468427    0.0066665166
      6869.74      0.75314069    0.0065769425
      6876.61      0.75564999    0.0065141864
      6883.49      0.75620105    0.0063814981
      6890.37      0.75610399    0.0062247995
      6897.27      0.75270149    0.0061329114
      6904.16      0.75289288    0.0060075640
      6911.07      0.75469252    0.0058853261
      6917.98      0.75857933    0.0057656249
      6924.89      0.76192206    0.0056801323
      6931.82      0.76305312    0.0055645623
      6938.75      0.76201638    0.0054570525
      6945.69      0.76289525    0.0053356581
      6952.64      0.76061206    0.0052619611
      6959.59      0.75922231    0.0051573652
      6966.55      0.76360163    0.0050540735
      6973.52      0.76685419    0.0049548834
      6980.49      0.76657348    0.0048918343
      6987.47      0.76968437    0.0048193026
      6994.46      0.77533450    0.0047558609
      7001.46      0.77537815    0.0046878592
      7008.46      0.77843983    0.0046118649
      7015.46      0.77897424    0.0045522752
      7022.48      0.78201024    0.0044552887
      7029.51      0.77725909    0.0043680710
      7036.53      0.77255087    0.0042749401
      7043.57      0.76930128    0.0041790760
      7050.62      0.76607210    0.0040796153
      7057.66      0.76059373    0.0039762742
      7064.72      0.76079571    0.0038921514
      7071.79      0.76185504    0.0037876265
      7078.86      0.75830272    0.0036845699
      7085.94      0.76200262    0.0035814041
      7093.03      0.76279912    0.0034779863
      7100.12      0.75709302    0.0033749097
      7107.22      0.75732163    0.0032728563
      7114.33      0.75862600    0.0031738985
      7121.44      0.76023536    0.0030758708
      7128.56      0.75884646    0.0029875206
      7135.69      0.76262529    0.0029053656
      7142.83      0.76353338    0.0029183129
      7149.97      0.76430138    0.0029390365
      7157.12      0.76594721    0.0029690209
      7164.28      0.76889012    0.0030103579
      7171.44      0.77150841    0.0030663735
      7178.62      0.77379880    0.0031421037
      7185.80      0.77697728    0.0032446858
      7192.98      0.77957018    0.0033854940
      7200.17      0.78220662    0.0035803162
      7207.38      0.78653039    0.0038448434
      7214.58      0.78995381    0.0041958879
      7221.80      0.79207970    0.0046492603
      7229.02      0.79325464    0.0052259576
      7236.25      0.79376769    0.0059582038
      7243.49      0.79396466    0.0068824909
      7250.73      0.79267624    0.0080410882
