# starting wavelength =        3423.0000
# ending wavelength =        7279.5200
# O2 telluric scale =        0
# O2 telluric shift =        0
# H2O telluric scale =        0
# H2O telluric shift =        0
      3426.17      0.99676476      0.13332144
      3429.59      0.99852934      0.11346708
      3433.02       1.0165924     0.097710590
      3436.45       1.0342328     0.083045186
      3439.89       1.0456867     0.073834593
      3443.33       1.0781073     0.066673732
      3446.78       1.1089497     0.061108233
      3450.22       1.1322063     0.056812451
      3453.67       1.1510900     0.054022597
      3457.13       1.1819461     0.051247317
      3460.58       1.1962429     0.049060448
      3464.04       1.2073593     0.047319666
      3467.51       1.2309427     0.045555486
      3470.98       1.2221960     0.044429827
      3474.45       1.2348009     0.043487578
      3477.92       1.2329514     0.042687700
      3481.40       1.2313359     0.041773657
      3484.88       1.2390006     0.041143232
      3488.37       1.2388402     0.040990097
      3491.86       1.2175635     0.040841856
      3495.35       1.1859988     0.040903131
      3498.84       1.1828939     0.040490285
      3502.34       1.1955230     0.040548530
      3505.84       1.1704035     0.040607313
      3509.35       1.1425646     0.040460936
      3512.86       1.0976021     0.040257576
      3516.37       1.0821279     0.040110217
      3519.89       1.0705284     0.040174086
      3523.41       1.0342142     0.040234281
      3526.93       1.0178551     0.039823449
      3530.46       1.0123820     0.039884670
      3533.99       1.0112573     0.039740270
      3537.53       1.0158478     0.039537636
      3541.06       1.0280497     0.039601112
      3544.60       1.0255480     0.039461718
      3548.15       1.0079343     0.039522554
      3551.70      0.99211128     0.039323786
      3555.25      0.99856712     0.039175770
      3558.80      0.99890747     0.039247200
      3562.36      0.98715298     0.039315950
      3565.92       1.0094595     0.038901165
      3569.49       1.0115082     0.038969895
      3573.06       1.0206752     0.039044230
      3576.64       1.0239214     0.038626460
      3580.21       1.0088899     0.038698822
      3583.79       1.0100570     0.038774354
      3587.38       1.0131098     0.038629534
      3590.96       1.0046512     0.038430325
      3594.55      0.99438054     0.038506834
      3598.15      0.99626783     0.038370436
      3601.75      0.98657428     0.038164197
      3605.35      0.96169430     0.038244893
      3608.96      0.94648548     0.038099627
      3612.56      0.93932139     0.037903300
      3616.18      0.93283207     0.037983570
      3619.79      0.93012563     0.037847926
      3623.41      0.91561561     0.037924578
      3627.04      0.94037193     0.037727676
      3630.66      0.95595604     0.037814279
      3634.29      0.96091831     0.037679269
      3637.93      0.97372802     0.037473626
      3641.57      0.96259469     0.037563099
      3645.21      0.96577370     0.037420067
      3648.86      0.94967606     0.037223312
      3652.50      0.95849341     0.037316751
      3656.16      0.95279265     0.037410404
      3659.81      0.94742001     0.036978986
      3663.47      0.93770005     0.037070608
      3667.14      0.92854567     0.037172919
      3670.80      0.95007445     0.036972841
      3674.48      0.95797952     0.036835607
      3678.15      0.94089500     0.036929977
      3681.83      0.93894366     0.036738023
      3685.51      0.95921039     0.036840277
      3689.20      0.96600066     0.036707645
      3692.88      0.99437581     0.036503417
      3696.58       1.0087328     0.036608861
      3700.27       1.0281467     0.036723387
      3703.98       1.0546482     0.036271127
      3707.68       1.0587268     0.036387660
      3711.39       1.0736233     0.036494738
      3715.10       1.0621846     0.036303265
      3718.81       1.0721908     0.036420410
      3722.53       1.0802166     0.036290728
      3726.26       1.0824751     0.036084797
      3729.98       1.0700772     0.036201582
      3733.71       1.0529856     0.036012977
      3737.45       1.0385850     0.036133835
      3741.18       1.0148582     0.036002583
      3744.93      0.99975187     0.035799050
      3748.67      0.96581388     0.035924958
      3752.42      0.92405539     0.036065676
      3756.17      0.87291967     0.035865967
      3759.93      0.83433041     0.036006009
      3763.69      0.78965755     0.035531377
      3767.45      0.76495129     0.035664674
      3771.22      0.73302820     0.035814928
      3774.99      0.67332483     0.035615007
      3778.77      0.64373825     0.035762389
      3782.54      0.59689945     0.035919043
      3786.33      0.55851406     0.035421761
      3790.11      0.51676500     0.035585112
      3793.90      0.46368782     0.035383471
      3797.70      0.41884635     0.035537598
      3801.50      0.40866401     0.035708549
      3805.30      0.39908004     0.035508264
      3809.10      0.39259698     0.035678157
      3812.91      0.39074784     0.035173357
      3816.73      0.41645952     0.034977840
      3820.54      0.43476384     0.034845635
      3824.36      0.45300756     0.034644442
      3828.19      0.46992544     0.034452884
      3832.02      0.47215586     0.034319924
      3835.85      0.50622371     0.034122507
      3839.68      0.52933106     0.033637664
      3843.52      0.57672967     0.033801527
      3847.37      0.58484091     0.033607883
      3851.22      0.59695832     0.033129866
      3855.07      0.63059337     0.033290750
      3858.92      0.65246443     0.033098616
      3862.78      0.67373640     0.032627566
      3866.64      0.67582748     0.032451953
      3870.51      0.69781904     0.032596581
      3874.38      0.72147821     0.032130940
      3878.26      0.76643342     0.031956592
      3882.13      0.80979537     0.032100560
      3886.02      0.86182815     0.031640778
      3889.90      0.91217548     0.031467474
      3893.79      0.96019863     0.031300296
      3897.69       1.0098678     0.031156438
      3901.59       1.0565379     0.030983944
      3905.49       1.0887115     0.030817186
      3909.39       1.1249862     0.030679281
      3913.30       1.1647986     0.030506808
      3917.22       1.2116540     0.030339710
      3921.13       1.2269891     0.029913597
      3925.06       1.2574408     0.030036440
      3928.98       1.2554293     0.029869340
      3932.91       1.2817590     0.029455023
      3936.84       1.2858734     0.029284073
      3940.78       1.2891360     0.029405612
      3944.72       1.3050652     0.029242412
      3948.67       1.3167536     0.028832610
      3952.61       1.3450336     0.028665660
      3956.57       1.3694330     0.028785371
      3960.52       1.3926389     0.028389725
      3964.48       1.4068561     0.028222385
      3968.45       1.4197573     0.028059122
      3972.42       1.4521145     0.027899875
      3976.39       1.4651825     0.027787638
      3980.37       1.4708621     0.027623655
      3984.35       1.4618192     0.027463561
      3988.33       1.4721933     0.027078994
      3992.32       1.4748362     0.027197382
      3996.31       1.4834898     0.027036465
      4000.31       1.4802960     0.026878999
      4004.31       1.4642665     0.026500968
      4008.31       1.4724343     0.026351047
      4012.32       1.4558782     0.026460967
      4016.33       1.4338506     0.026305014
      4020.35       1.4130894     0.025934419
      4024.37       1.4017034     0.025785517
      4028.40       1.4014601     0.025639583
      4032.42       1.3934641     0.025496498
      4036.46       1.3747906     0.025378464
      4040.50       1.3704885     0.025231215
      4044.54       1.3498596     0.025086464
      4048.58       1.3484577     0.024944098
      4052.63       1.3230477     0.024803727
      4056.68       1.2966405     0.024688863
      4060.74       1.2605793     0.024544650
      4064.80       1.2617011     0.024403269
      4068.86       1.2446359     0.024263835
      4072.93       1.2291542     0.023929465
      4077.01       1.1980421     0.023788213
      4081.08       1.1822411     0.023648576
      4085.17       1.1666186     0.023736089
      4089.25       1.1503360     0.023599249
      4093.34       1.1410028     0.023278285
      4097.43       1.1275742     0.023139046
      4101.53       1.1355164     0.023002150
      4105.63       1.1350510     0.022866902
      4109.74       1.1339594     0.022733134
      4113.85       1.1425193     0.022645261
      4117.96       1.1483407     0.022508746
      4122.08       1.1382278     0.022374369
      4126.20       1.1472573     0.022241395
      4130.33       1.1377545     0.022109891
      4134.46       1.1258312     0.021979398
      4138.59       1.1089225     0.021676093
      4142.73       1.1134027     0.021549373
      4146.88       1.0983247     0.021424316
      4151.02       1.0897307     0.021505582
      4155.18       1.0944438     0.021377312
      4159.33       1.0949715     0.021250752
      4163.49       1.0951381     0.021125237
      4167.65       1.0860800     0.020832651
      4171.82       1.0884871     0.020710289
      4175.99       1.0910326     0.020589060
      4180.17       1.1059470     0.020468836
      4184.35       1.1089829     0.020349456
      4188.54       1.1114728     0.020231458
      4192.72       1.1273575     0.020114161
      4196.92       1.1213433     0.019837397
      4201.11       1.1215666     0.019719641
      4205.31       1.1248087     0.019785762
      4209.52       1.1128373     0.019669197
      4213.73       1.1072066     0.019553666
      4217.94       1.0987431     0.019438734
      4222.16       1.1133927     0.019325033
      4226.38       1.1143776     0.019212043
      4230.61       1.1179398     0.019099738
      4234.84       1.1205759     0.018843940
      4239.08       1.1112719     0.018731771
      4243.32       1.1169466     0.018620743
      4247.56       1.1252954     0.018510574
      4251.81       1.1380595     0.018401228
      4256.06       1.1494526     0.018292619
      4260.32       1.1575438     0.018184659
      4264.58       1.1666196     0.018077398
      4268.84       1.1610396     0.017971031
      4273.11       1.1708724     0.017865403
      4277.38       1.1650575     0.017760504
      4281.66       1.1696074     0.017656575
      4285.94       1.1536472     0.017418097
      4290.23       1.1447761     0.017315938
      4294.52       1.1317598     0.017214549
      4298.81       1.1160081     0.017114001
      4303.11       1.1068361     0.017013723
      4307.42       1.0844844     0.016914421
      4311.72       1.0578219     0.016815539
      4316.04       1.0406549     0.016717336
      4320.35       1.0353367     0.016619650
      4324.67       1.0277341     0.016522595
      4329.00       1.0224845     0.016426176
      4333.33       1.0193417     0.016330409
      4337.66       1.0140027     0.016235440
      4342.00       1.0238821     0.016141118
      4346.34       1.0226625     0.016047085
      4350.69       1.0035990     0.015953740
      4355.04      0.99442629     0.015861299
      4359.39      0.97288835     0.015769093
      4363.75      0.95991751     0.015677747
      4368.12      0.94385811     0.015587098
      4372.48      0.93325331     0.015497041
      4376.86      0.91466878     0.015407240
      4381.23      0.89294552     0.015181562
      4385.61      0.87539955     0.015094138
      4390.00      0.84494878     0.015007375
      4394.39      0.82680707     0.014921154
      4398.79      0.82583774     0.014835577
      4403.18      0.83106585     0.014750625
      4407.59      0.83006455     0.014666417
      4412.00      0.83677943     0.014583041
      4416.41      0.85101152     0.014500051
      4420.82      0.85250646     0.014417660
      4425.25      0.86561862     0.014336302
      4429.67      0.88925156     0.014255617
      4434.10      0.91050366     0.014175352
      4438.54      0.93571626     0.013967448
      4442.97      0.96025921     0.013888151
      4447.42      0.98730157     0.013809532
      4451.86       1.0058865     0.013731578
      4456.32       1.0133451     0.013654217
      4460.77       1.0123274     0.013577619
      4465.24       1.0086107     0.013501785
      4469.70       1.0128432     0.013426598
      4474.17       1.0029354     0.013336274
      4478.65       1.0064436     0.013260935
      4483.12       1.0101115     0.013186368
      4487.61       1.0135082     0.013112487
      4492.09       1.0104940     0.013039352
      4496.59       1.0105497     0.012966965
      4501.08       1.0100932     0.012895593
      4505.58       1.0237174     0.012824997
      4510.09       1.0551959     0.012644935
      4514.60       1.0929796     0.012576379
      4519.12       1.1154140     0.012508876
      4523.63       1.1351212     0.012442196
      4528.16       1.1527109     0.012462799
      4532.69       1.1630861     0.012394823
      4537.22       1.1758455     0.012221882
      4541.76       1.2022370     0.012156555
      4546.30       1.2184497     0.012092098
      4550.85       1.2325748     0.012028269
      4555.40       1.2532300     0.011965595
      4559.95       1.2652256     0.011797935
      4564.51       1.2750641     0.011735241
      4569.08       1.2841167     0.011758422
      4573.65       1.2962557     0.011697149
      4578.22       1.3029315     0.011636694
      4582.80       1.3123388     0.011477357
      4587.38       1.3132655     0.011416787
      4591.97       1.3171118     0.011357362
      4596.56       1.3143085     0.011299095
      4601.16       1.3141281     0.011323850
      4605.76       1.3072024     0.011171014
      4610.37       1.3091669     0.011112986
      4614.98       1.3090149     0.011056154
      4619.59       1.3187359     0.011000167
      4624.21       1.3307677     0.010945262
      4628.84       1.3486767     0.010878390
      4633.47       1.3539666     0.010822959
      4638.10       1.3718923     0.010768665
      4642.74       1.3865266     0.010715487
      4647.38       1.3914094     0.010574959
      4652.03       1.3926035     0.010524513
      4656.68       1.3964337     0.010546900
      4661.34       1.3955832     0.010495503
      4666.00       1.3908652     0.010358779
      4670.67       1.3928620     0.010310160
      4675.33       1.3900480     0.010262646
      4680.01       1.3730924     0.010199294
      4684.69       1.3656782     0.010151310
      4689.38       1.3636945     0.010104709
      4694.07       1.3550509     0.010059186
      4698.76       1.3414563    0.0099987870
      4703.46       1.3382585    0.0099528324
      4708.16       1.3270487    0.0099082002
      4712.87       1.3164167    0.0098649272
      4717.58       1.3084969    0.0097373987
      4722.30       1.3059663    0.0097634184
      4727.03       1.3050749    0.0097209175
      4731.75       1.2881877    0.0095979688
      4736.48       1.2639687    0.0095554479
      4741.22       1.2451255    0.0095826253
      4745.96       1.2313313    0.0094637321
      4750.71       1.2169276    0.0094220871
      4755.46       1.2031998    0.0093818234
      4760.22       1.1912406    0.0093341650
      4764.97       1.1700604    0.0092935696
      4769.74       1.1429568    0.0092544445
      4774.51       1.1153338    0.0091436419
      4779.29       1.0906036    0.0091699958
      4784.07       1.0503969    0.0091320397
      4788.85       1.0091372    0.0090236054
      4793.64      0.97759349    0.0090512589
      4798.43      0.94015512    0.0090145396
      4803.23      0.91267061    0.0089083191
      4808.03      0.88986544    0.0088750630
      4812.84      0.86657673    0.0089015019
      4817.66      0.85079540    0.0087978979
      4822.48      0.83629880    0.0087658367
      4827.30      0.83718975    0.0087239316
      4832.12      0.84224763    0.0086917062
      4836.96      0.86143805    0.0086611087
      4841.79      0.88684935    0.0086208171
      4846.63      0.89963802    0.0085903146
      4851.48      0.90508898    0.0085613868
      4856.33      0.90557640    0.0085223554
      4861.19      0.90674138    0.0084933802
      4866.05      0.90515715    0.0083977297
      4870.92      0.89822548    0.0084283528
      4875.79      0.88477373    0.0084010949
      4880.66      0.87660804    0.0083069446
      4885.55      0.86259732    0.0083387911
      4890.43      0.85294388    0.0082475271
      4895.32      0.84696358    0.0082204425
      4900.22      0.83677022    0.0081905475
      4905.12      0.82764575    0.0081634796
      4910.02      0.83315458    0.0081382794
      4914.94      0.84593158    0.0081089759
      4919.85      0.87105593    0.0080839392
      4924.77      0.89284676    0.0080569251
      4929.70      0.92276613    0.0080318997
      4934.62      0.95393321    0.0079487573
      4939.56      0.97908311    0.0079820696
      4944.50      0.99766074    0.0078996732
      4949.44       1.0270394    0.0078791452
      4954.39       1.0656876    0.0079117901
      4959.35       1.0996427    0.0078322654
      4964.31       1.1340645    0.0078663272
      4969.27       1.1766750    0.0077876137
      4974.24       1.2101759    0.0077696663
      4979.22       1.2457617    0.0077449738
      4984.20       1.2784346    0.0077274299
      4989.18       1.3073428    0.0077043078
      4994.17       1.3124289    0.0076871872
      4999.16       1.3175851    0.0076655650
      5004.16       1.3111157    0.0076488368
      5009.17       1.2883480    0.0075749801
      5014.18       1.2634518    0.0076124580
      5019.19       1.2177687    0.0075399467
      5024.21       1.1811504    0.0075778299
      5029.23       1.1342826    0.0075066600
      5034.26       1.0800913    0.0075449139
      5039.30       1.0256038    0.0074750217
      5044.34      0.98690129    0.0074606477
      5049.39      0.94919892    0.0074450540
      5054.43      0.91683747    0.0074313648
      5059.49      0.89503093    0.0074167494
      5064.55      0.88816045    0.0073511599
      5069.61      0.88728892    0.0073901658
      5074.68      0.89688760    0.0073255832
      5079.76      0.91114018    0.0073650216
      5084.84      0.92464183    0.0073016632
      5089.92      0.94351128    0.0073415477
      5095.01      0.96472723    0.0072792947
      5100.11      0.98626372    0.0073197516
      5105.21       1.0077043    0.0072585751
      5110.31       1.0263455    0.0072479623
      5115.42       1.0475700    0.0072394859
      5120.54       1.0636277    0.0072294785
      5125.66       1.0745693    0.0072220287
      5130.79       1.0880674    0.0072125798
      5135.92       1.0955988    0.0072061634
      5141.05       1.0990764    0.0071972968
      5146.20       1.1036782    0.0071397310
      5151.34       1.1070410    0.0071835138
      5156.49       1.1014581    0.0071263845
      5161.65       1.0944722    0.0071713827
      5166.81       1.0959357    0.0071146461
      5171.98       1.0979570    0.0071101912
      5177.15       1.1060603    0.0071549958
      5182.33       1.1114916    0.0071002587
      5187.51       1.1140217    0.0070978352
      5192.70       1.1118201    0.0070919355
      5197.89       1.1151768    0.0070896859
      5203.09       1.1177106    0.0070851860
      5208.29       1.1164426    0.0070830605
      5213.50       1.1213904    0.0070325268
      5218.72       1.1187071    0.0070781433
      5223.93       1.1239288    0.0070776494
      5229.16       1.1313227    0.0070274847
      5234.39       1.1347754    0.0070744886
      5239.62       1.1427337    0.0070259578
      5244.86       1.1544941    0.0070256625
      5250.11       1.1635949    0.0070739249
      5255.36       1.1614793    0.0070260338
      5260.61       1.1664979    0.0070269874
      5265.87       1.1853615    0.0070280181
      5271.14       1.1989563    0.0070291166
      5276.41       1.2140230    0.0070313059
      5281.69       1.2235384    0.0070329313
      5286.97       1.2271061    0.0070351090
      5292.26       1.2341973    0.0069891702
      5297.55       1.2387127    0.0070408219
      5302.85       1.2434925    0.0070440658
      5308.15       1.2424186    0.0069988895
      5313.46       1.2425111    0.0070043061
      5318.77       1.2415352    0.0070558427
      5324.09       1.2427873    0.0070114099
      5329.42       1.2482449    0.0070176370
      5334.75       1.2467967    0.0070248723
      5340.08       1.2446077    0.0070264424
      5345.42       1.2405820    0.0070333674
      5350.77       1.2343729    0.0070413018
      5356.12       1.2254634    0.0070440377
      5361.48       1.2219822    0.0070516819
      5366.83       1.2249499    0.0070601921
      5372.20       1.2202160    0.0070191857
      5377.58       1.2141391    0.0070724210
      5382.95       1.2070015    0.0070814587
      5388.34       1.2017285    0.0070419666
      5393.72       1.1940139    0.0070506818
      5399.12       1.1854534    0.0070601879
      5404.52       1.1791410    0.0070672953
      5409.92       1.1670400    0.0070764534
      5415.33       1.1576172    0.0070863713
      5420.75       1.1448869    0.0070969236
      5426.17       1.1400577    0.0071048362
      5431.60       1.1398901    0.0071150970
      5437.03       1.1388933    0.0071260412
      5442.47       1.1412921    0.0070878599
      5447.91       1.1449275    0.0070999498
      5453.36       1.1505130    0.0071577096
      5458.81       1.1618776    0.0071694545
      5464.27       1.1737878    0.0071317933
      5469.73       1.1836512    0.0071445850
      5475.20       1.1859797    0.0071579437
      5480.68       1.1920847    0.0071718621
      5486.16       1.1996775    0.0071791988
      5491.65       1.2061040    0.0071926533
      5497.14       1.2103677    0.0072066290
      5502.64       1.2144002    0.0072211028
      5508.14       1.2151914    0.0072360564
      5513.65       1.2053655    0.0071999923
      5519.16       1.1966496    0.0072144577
      5524.68       1.1865370    0.0072736264
      5530.20       1.1816857    0.0072889061
      5535.73       1.1700603    0.0072547769
      5541.27       1.1654071    0.0072696873
      5546.81       1.1506658    0.0072849150
      5552.36       1.1446565    0.0073004341
      5557.91       1.1365607    0.0073164151
      5563.47       1.1267937    0.0072823303
      5569.04       1.1100924    0.0073440085
      5574.60       1.0965564    0.0073599327
      5580.18       1.0834913    0.0073761002
      5585.76       1.0706252    0.0073926045
      5591.35       1.0658918    0.0074093190
      5596.94       1.0634614    0.0073753146
      5602.53       1.0670713    0.0073924844
      5608.14       1.0654228    0.0074098519
      5613.75       1.0643765    0.0074274651
      5619.36       1.0604040    0.0074453924
      5624.98       1.0557670    0.0074633522
      5630.60       1.0494527    0.0074737300
      5636.23       1.0505879    0.0074914410
      5641.87       1.0428412    0.0075093665
      5647.51       1.0402478    0.0075273530
      5653.16       1.0311742    0.0075456799
      5658.82       1.0242318    0.0075640342
      5664.47      0.99980576    0.0075825695
      5670.14      0.97531678    0.0076012084
      5675.81      0.93940388    0.0075691258
      5681.48      0.90299226    0.0075874392
      5687.17      0.85970104    0.0076059235
      5692.85      0.81712304    0.0076245971
      5698.55      0.77958827    0.0076434072
      5704.25      0.73952900    0.0076622849
      5709.95      0.70189175    0.0076813450
      5715.66      0.66459127    0.0077008156
      5721.38      0.64029794    0.0077208386
      5727.10      0.62173320    0.0077410820
      5732.83      0.60899820    0.0077609901
      5738.56      0.61162005    0.0077283444
      5744.30      0.62594042    0.0077489405
      5750.04      0.64235526    0.0077715362
      5755.79      0.67357741    0.0077965217
      5761.55      0.70718639    0.0078227826
      5767.31      0.75274290    0.0078493387
      5773.08      0.79582766    0.0078766513
      5778.85      0.84777692    0.0079050763
      5784.63      0.89522145    0.0079324569
      5790.41      0.94718884    0.0079571588
      5796.21      0.99945429    0.0079798076
      5802.00       1.0444054    0.0080013488
      5807.81       1.0932881    0.0080216303
      5813.61       1.1369299    0.0080405317
      5819.43       1.1855765    0.0080120976
      5825.25       1.2257650    0.0080300911
      5831.07       1.2646700    0.0080486807
      5836.90       1.2957669    0.0080671035
      5842.74       1.3190415    0.0080846299
      5848.58       1.3367930    0.0081009787
      5854.43       1.3441817    0.0081165396
      5860.29       1.3384644    0.0081317071
      5866.15       1.3391263    0.0081471791
      5872.01       1.3312114    0.0081617239
      5877.89       1.3252225    0.0081750915
      5883.76       1.3113366    0.0081410733
      5889.65       1.2994489    0.0081568653
      5895.54       1.2845739    0.0081726840
      5901.43       1.2720729    0.0081873935
      5907.34       1.2515249    0.0082025916
      5913.24       1.2304685    0.0082190701
      5919.16       1.2200449    0.0082363464
      5925.08       1.2128470    0.0082539484
      5931.00       1.2103450    0.0082252618
      5936.93       1.2017445    0.0082971646
      5942.87       1.2009465    0.0083150325
      5948.81       1.1944372    0.0083327729
      5954.76       1.1814804    0.0083506646
      5960.72       1.1729286    0.0083685966
      5966.68       1.1630848    0.0083393775
      5972.64       1.1487167    0.0083574955
      5978.62       1.1403399    0.0083755076
      5984.60       1.1280670    0.0083936648
      5990.58       1.1172796    0.0084117875
      5996.57       1.1077604    0.0084298456
      6002.57       1.0940286    0.0084518251
      6008.57       1.0766363    0.0084690399
      6014.58       1.0622333    0.0084862123
      6020.60       1.0427314    0.0085035514
      6026.62       1.0280917    0.0085208189
      6032.65       1.0133836    0.0084886919
      6038.68      0.99845961    0.0085049631
      6044.72      0.98610050    0.0085212533
      6050.76      0.98043264    0.0085922793
      6056.81      0.97570809    0.0085603680
      6062.87      0.96583090    0.0085756188
      6068.93      0.96029396    0.0085909449
      6075.00      0.96518348    0.0086063738
      6081.08      0.96767594    0.0085740709
      6087.16      0.97354657    0.0086435388
      6093.25      0.97164306    0.0086581955
      6099.34      0.97724449    0.0086742379
      6105.44      0.97737406    0.0086463890
      6111.54      0.97512899    0.0086627641
      6117.66      0.97646583    0.0086764427
      6123.78      0.96879145    0.0087456616
      6129.90      0.96596341    0.0087195720
      6136.03      0.96229587    0.0087455224
      6142.17      0.96059477    0.0087757238
      6148.31      0.96044009    0.0087612660
      6154.46      0.95248798    0.0088500387
      6160.61      0.95236696    0.0088820835
      6166.77      0.95032331    0.0088621806
      6172.94      0.94574134    0.0088841782
      6179.11      0.94582798    0.0089567650
      6185.29      0.95016435    0.0089664224
      6191.48      0.95297393    0.0089160953
      6197.67      0.95044180    0.0089131521
      6203.87      0.94467378    0.0089613242
      6210.07      0.92931991    0.0089031932
      6216.28      0.91821601    0.0089011233
      6222.50      0.90462149    0.0088543473
      6228.72      0.88732656    0.0089094157
      6234.95      0.87092588    0.0089078194
      6241.19      0.85080105    0.0088598342
      6247.42      0.83962755    0.0088635912
      6253.67      0.83073593    0.0089187227
      6259.93      0.82110457    0.0088725640
      6266.19      0.81542173    0.0088772224
      6272.46      0.80078649    0.0089336763
      6278.73      0.80135310    0.0088887139
      6285.01      0.79808774    0.0088946452
      6291.29      0.80601755    0.0088503685
      6297.58      0.81378556    0.0089090749
      6303.88      0.81739747    0.0089157506
      6310.19      0.82253533    0.0088709168
      6316.50      0.82631253    0.0089304907
      6322.81      0.82417884    0.0088889801
      6329.14      0.82674086    0.0088982028
      6335.47      0.82981672    0.0089155099
      6341.80      0.83208317    0.0089256217
      6348.14      0.83165005    0.0089347347
      6354.49      0.83533025    0.0089470557
      6360.85      0.84019669    0.0089538657
      6367.21      0.84994132    0.0089640287
      6373.57      0.85882686    0.0089664915
      6379.95      0.86355261    0.0089180914
      6386.33      0.87014450    0.0089680178
      6392.72      0.87384396    0.0089154860
      6399.11      0.88179226    0.0089130830
      6405.51      0.88632064    0.0089104414
      6411.92      0.89472554    0.0089085309
      6418.32      0.89337829    0.0089575345
      6424.74      0.89277276    0.0089051551
      6431.17      0.89599832    0.0089023749
      6437.60      0.88880962    0.0088958050
      6444.04      0.88319058    0.0088902436
      6450.48      0.88061049    0.0088826546
      6456.94      0.87241725    0.0088272554
      6463.39      0.85983203    0.0088198101
      6469.85      0.84245387    0.0088111393
      6476.33      0.82415439    0.0088015325
      6482.80      0.80458232    0.0087942806
      6489.28      0.78312542    0.0087861889
      6495.77      0.75440164    0.0087797228
      6502.27      0.72772521    0.0087714528
      6508.77      0.69684415    0.0087645272
      6515.28      0.66972234    0.0087556501
      6521.80      0.65053200    0.0087475594
      6528.32      0.63501010    0.0087376909
      6534.85      0.62114225    0.0086806810
      6541.38      0.62196051    0.0086693362
      6547.92      0.62524203    0.0086600470
      6554.47      0.64142969    0.0086473631
      6561.03      0.66055984    0.0086372209
      6567.59      0.69288702    0.0086230258
      6574.16      0.72700002    0.0086120627
      6580.73      0.76178464    0.0085963366
      6587.31      0.79912994    0.0085346719
      6593.90      0.83553253    0.0085674183
      6600.50      0.87659743    0.0085504073
      6607.10      0.90765263    0.0084877128
      6613.70      0.93672184    0.0085173181
      6620.32      0.96534090    0.0084532630
      6626.94      0.98746540    0.0084818369
      6633.57       1.0048332    0.0084162757
      6640.20       1.0227744    0.0083961780
      6646.84       1.0348524    0.0083769468
      6653.49       1.0375234    0.0083549754
      6660.14       1.0413133    0.0082887650
      6666.80       1.0433752    0.0083120090
      6673.47       1.0357333    0.0082976663
      6680.14       1.0331165    0.0082633012
      6686.82       1.0274159    0.0083019175
      6693.51       1.0220700    0.0082265722
      6700.20       1.0125188    0.0082024683
      6706.90       1.0018267    0.0082133696
      6713.61      0.99416174    0.0082561620
      6720.32      0.98699291    0.0083293907
      6727.05      0.97776995    0.0084054314
      6733.77      0.96413096    0.0085116756
      6740.51      0.95684444    0.0086160826
      6747.25      0.95075419    0.0086442821
      6754.00      0.94208984    0.0087372742
      6760.75      0.93392621    0.0086876653
      6767.51      0.92340118    0.0086406996
      6774.28      0.91200589    0.0086085945
      6781.05      0.90365106    0.0084387332
      6787.84      0.89801504    0.0082921311
      6794.62      0.88761089    0.0081458328
      6801.42      0.87790311    0.0080408317
      6808.22      0.86588736    0.0079437581
      6815.03      0.85699502    0.0078529664
      6821.85      0.84888396    0.0077158549
      6828.67      0.84154906    0.0076244849
      6835.50      0.82826255    0.0075980017
      6842.33      0.82031360    0.0074930783
      6849.17      0.79979541    0.0074246282
      6856.02      0.77696113    0.0073618041
      6862.88      0.76060449    0.0073153859
      6869.74      0.74409183    0.0072599449
      6876.61      0.72397907    0.0072065010
      6883.49      0.70613384    0.0071527524
      6890.37      0.69017078    0.0070638965
      6897.27      0.67508324    0.0070046243
      6904.16      0.66918817    0.0068404197
      6911.07      0.66555116    0.0067473604
      6917.98      0.66743001    0.0066163311
      6924.89      0.66994824    0.0064892794
      6931.82      0.68059921    0.0064024686
      6938.75      0.69608600    0.0062798809
      6945.69      0.71628605    0.0061596505
      6952.64      0.74095310    0.0060430429
      6959.59      0.76683452    0.0059652248
      6966.55      0.79586865    0.0058417443
      6973.52      0.82090154    0.0057385820
      6980.49      0.84321995    0.0056342537
      6987.47      0.85945427    0.0055588371
      6994.46      0.88175019    0.0054594161
      7001.46      0.89621292    0.0053708117
      7008.46      0.91097956    0.0053001397
      7015.46      0.91852320    0.0052404256
      7022.48      0.92592453    0.0051986123
      7029.51      0.93164341    0.0051280170
      7036.53      0.93416913    0.0050354413
      7043.57      0.93473283    0.0049590160
      7050.62      0.92555894    0.0048811125
      7057.66      0.92015956    0.0048206840
      7064.72      0.91116491    0.0047343189
      7071.79      0.89913605    0.0046453009
      7078.86      0.88612286    0.0045546086
      7085.94      0.87563745    0.0044623722
      7093.03      0.85616653    0.0043713057
      7100.12      0.84430235    0.0042844989
      7107.22      0.83719107    0.0042026088
      7114.33      0.82324446    0.0041256968
      7121.44      0.81242673    0.0040695611
      7128.56      0.80282199    0.0040009767
      7135.69      0.79867816    0.0039295904
      7142.83      0.79305054    0.0038707063
      7149.97      0.78787964    0.0038171191
      7157.12      0.78365060    0.0037681735
      7164.28      0.78103556    0.0037785818
      7171.44      0.77653278    0.0038252285
      7178.62      0.77356933    0.0038828302
      7185.80      0.77266943    0.0039536255
      7192.98      0.77219943    0.0040417239
      7200.17      0.77415220    0.0041531656
      7207.38      0.77684063    0.0042967295
      7214.58      0.78008527    0.0044867809
      7221.80      0.78485247    0.0047426791
      7229.02      0.78902866    0.0050862012
      7236.25      0.79546114    0.0055390229
      7243.49      0.80408777    0.0061234932
      7250.73      0.81234948    0.0068681220
      7257.98      0.81979622    0.0078185491
      7265.24      0.82567233    0.0090245857
      7272.51      0.83157003     0.010552902
