# starting wavelength =        3412.2900
# ending wavelength =        7256.7400
# O2 telluric scale =        0
# O2 telluric shift =        0
# H2O telluric scale =        0
# H2O telluric shift =        0
      3412.49      0.85315368      0.19178517
      3415.91      0.93998844      0.16169523
      3419.32      0.93618771      0.13773243
      3422.74      0.95764943      0.11520454
      3426.17      0.99154948      0.10111198
      3429.59       1.0236127     0.090074823
      3433.02       1.0392564     0.081495969
      3436.45       1.0582165     0.076107993
      3439.89       1.0922663     0.070640672
      3443.33       1.1155873     0.066391690
      3446.78       1.1228662     0.063077745
      3450.22       1.1696614     0.060471469
      3453.67       1.1550542     0.057904100
      3457.13       1.1791318     0.056268656
      3460.58       1.1984267     0.054916048
      3464.04       1.1863295     0.053782239
      3467.51       1.2005918     0.052572603
      3470.98       1.1832255     0.051695153
      3474.45       1.1801528     0.050934152
      3477.92       1.2020157     0.050750000
      3481.40       1.2046936     0.050249010
      3484.88       1.2021522     0.050315398
      3488.37       1.1958063     0.050387232
      3491.86       1.2072674     0.050213882
      3495.35       1.2399973     0.049954507
      3498.84       1.2283679     0.049780489
      3502.34       1.2382903     0.049849535
      3505.84       1.2118961     0.049928412
      3509.35       1.1981749     0.049419134
      3512.86       1.1686890     0.049495441
      3516.37       1.1663385     0.049576422
      3519.89       1.1511255     0.049395762
      3523.41       1.1513521     0.049148406
      3526.93       1.1670190     0.048966860
      3530.46       1.1285559     0.049051813
      3533.99       1.1206378     0.049131978
      3537.53       1.1156358     0.048623967
      3541.06       1.1245824     0.048705278
      3544.60       1.1315045     0.048793228
      3548.15       1.1201869     0.048624411
      3551.70       1.1018031     0.048365983
      3555.25       1.1066800     0.048455893
      3558.80       1.1067053     0.048276734
      3562.36       1.1153753     0.048032174
      3565.92       1.0944023     0.048121361
      3569.49       1.1026593     0.047951080
      3573.06       1.0862873     0.048038896
      3576.64       1.0910732     0.047796521
      3580.21       1.0719689     0.047615468
      3583.79       1.0741405     0.047718152
      3587.38       1.0790197     0.047467193
      3590.96       1.0941106     0.047296987
      3594.55       1.1175461     0.047391759
      3598.15       1.0968949     0.047152997
      3601.75       1.0988669     0.046971486
      3605.35       1.0951769     0.047079205
      3608.96       1.0608451     0.047180177
      3612.56       1.0237582     0.046943080
      3616.18       1.0104047     0.046761810
      3619.79       1.0035605     0.046878647
      3623.41      0.98553832     0.046628568
      3627.04      0.98448555     0.046459486
      3630.66      0.97016564     0.046564252
      3634.29      0.97223465     0.046327016
      3637.93      0.93973812     0.046441202
      3641.57      0.94441472     0.046275303
      3645.21      0.94618820     0.046023929
      3648.86      0.92654043     0.046144138
      3652.50      0.94331265     0.045967946
      3656.16      0.92287152     0.045728600
      3659.81      0.93564866     0.045854121
      3663.47      0.92886066     0.045978875
      3667.14      0.93835330     0.045440237
      3670.80      0.95471361     0.045561649
      3674.48      0.97503829     0.045700416
      3678.15      0.97471857     0.045454258
      3681.83      0.99718501     0.045593648
      3685.51       1.0052943     0.045413841
      3689.20      0.99454066     0.045176142
      3692.88      0.97915787     0.045316875
      3696.58      0.93519617     0.045458792
      3700.27      0.90376615     0.044905219
      3703.98      0.85546478     0.045042724
      3707.68      0.81402614     0.045202116
      3711.39      0.76524979     0.044955347
      3715.10      0.71713653     0.045110204
      3718.81      0.66190507     0.044544895
      3722.53      0.61277299     0.044692864
      3726.26      0.56863978     0.044858271
      3729.98      0.52482274     0.044614899
      3733.71      0.47661110     0.044781701
      3737.45      0.43362526     0.044602131
      3741.18      0.39856374     0.044364004
      3744.93      0.38001421     0.044537451
      3748.67      0.37849166     0.044294727
      3752.42      0.37682167     0.044472842
      3756.17      0.38225400     0.044653408
      3759.93      0.41555758     0.044056233
      3763.69      0.42436752     0.044242470
      3767.45      0.45305452     0.044417015
      3771.22      0.44099232     0.044183960
      3774.99      0.46830317     0.044380151
      3778.77      0.46834814     0.044140913
      3782.54      0.45965852     0.043973726
      3786.33      0.45780045     0.044156159
      3790.11      0.44851408     0.043920531
      3793.90      0.44841904     0.044134495
      3797.70      0.43811620     0.043892112
      3801.50      0.44041391     0.043734434
      3805.30      0.44507330     0.043483142
      3809.10      0.45070318     0.043243932
      3812.91      0.44595080     0.043083827
      3816.73      0.44203999     0.042838476
      3820.54      0.45817247     0.042606520
      3824.36      0.47343009     0.042446048
      3828.19      0.50469693     0.042203740
      3832.02      0.53266597     0.041606105
      3835.85      0.55741127     0.041813720
      3839.68      0.56413381     0.041577421
      3843.52      0.60301795     0.040989937
      3847.37      0.62803133     0.040773232
      3851.22      0.64781189     0.040958023
      3855.07      0.69737529     0.040377074
      3858.92      0.77519679     0.040163660
      3862.78      0.84924463     0.040349007
      3866.64      0.91481136     0.039775570
      3870.51      0.98135656     0.039561382
      3874.38       1.0603286     0.039744369
      3878.26       1.1214835     0.039177435
      3882.13       1.1964197     0.038966401
      3886.02       1.2642583     0.038763410
      3889.90       1.3146766     0.038591447
      3893.79       1.3633543     0.038378686
      3897.69       1.4208232     0.038174824
      3901.59       1.4628378     0.037639764
      3905.49       1.4921325     0.037801303
      3909.39       1.5042681     0.037597754
      3913.30       1.5241411     0.037076487
      3917.22       1.5469111     0.036866277
      3921.13       1.5370172     0.037024877
      3925.06       1.5487043     0.036520714
      3928.98       1.5960262     0.036312170
      3932.91       1.6081759     0.036108052
      3936.84       1.6227470     0.036263187
      3940.78       1.6218241     0.035763813
      3944.72       1.6220007     0.035559851
      3948.67       1.6200202     0.035363075
      3952.61       1.6200119     0.035577855
      3956.57       1.6351843     0.036691514
      3960.52       1.6489722     0.037899211
      3964.48       1.6771507     0.034806097
      3968.45       1.6973826     0.034860777
      3972.42       1.7339894     0.035274174
      3976.39       1.7378968     0.036084014
      3980.37       1.7564271     0.037038628
      3984.35       1.7717909     0.037449822
      3988.33       1.7797672     0.038606505
      3992.32       1.8007373     0.038982027
      3996.31       1.7942370     0.038296453
      4000.31       1.8004577     0.037586871
      4004.31       1.7933136     0.036555023
      4008.31       1.7741277     0.035695461
      4012.32       1.7454171     0.034465005
      4016.33       1.7074249     0.033177247
      4020.35       1.6622164     0.032296440
      4024.37       1.6209150     0.031909179
      4028.40       1.5676022     0.032845888
      4032.42       1.5416260     0.033406826
      4036.46       1.5098499     0.032063576
      4040.50       1.4869961     0.031044536
      4044.54       1.4628615     0.030872059
      4048.58       1.4284708     0.030448965
      4052.63       1.3939431     0.030276092
      4056.68       1.3742468     0.030393276
      4060.74       1.3698199     0.030223046
      4064.80       1.3587026     0.030054385
      4068.86       1.3402185     0.029645317
      4072.93       1.3364335     0.029475775
      4077.01       1.3216866     0.029309181
      4081.08       1.3146694     0.029144020
      4085.17       1.2944494     0.029257501
      4089.25       1.2630641     0.028865310
      4093.34       1.2269264     0.028697895
      4097.43       1.2002902     0.028534588
      4101.53       1.1836966     0.028372371
      4105.63       1.1633234     0.028211313
      4109.74       1.1629738     0.028051366
      4113.85       1.1372507     0.027944074
      4117.96       1.1218813     0.027783203
      4122.08       1.0960072     0.027623932
      4126.20       1.0934915     0.027465640
      4130.33       1.1116118     0.027308333
      4134.46       1.1169878     0.027153045
      4138.59       1.1239827     0.026783997
      4142.73       1.1503296     0.026634326
      4146.88       1.1617388     0.026485403
      4151.02       1.1907890     0.026337240
      4155.18       1.2029789     0.026437277
      4159.33       1.2201402     0.026286911
      4163.49       1.2212058     0.025928393
      4167.65       1.2244222     0.025781693
      4171.82       1.2351875     0.025635683
      4175.99       1.2494894     0.025490284
      4180.17       1.2540604     0.025348249
      4184.35       1.2627555     0.025207101
      4188.54       1.2617207     0.025066470
      4192.72       1.2632473     0.024926436
      4196.92       1.2647406     0.024591849
      4201.11       1.2579438     0.024452342
      4205.31       1.2651649     0.024314855
      4209.52       1.2600336     0.024177858
      4213.73       1.2531674     0.024041405
      4217.94       1.2477662     0.023905500
      4222.16       1.2497402     0.023771408
      4226.38       1.2349212     0.023858048
      4230.61       1.2323928     0.023725094
      4234.84       1.2303397     0.023592422
      4239.08       1.2290242     0.023286009
      4243.32       1.2177292     0.023154119
      4247.56       1.2149550     0.023024311
      4251.81       1.2016673     0.022894794
      4256.06       1.1907488     0.022765753
      4260.32       1.1784749     0.022637162
      4264.58       1.1788821     0.022509945
      4268.84       1.1716195     0.022385164
      4273.11       1.1799237     0.022260641
      4277.38       1.1604183     0.022136508
      4281.66       1.1646743     0.022012764
      4285.94       1.1770490     0.021889782
      4290.23       1.1739087     0.021769403
      4294.52       1.1800734     0.021649241
      4298.81       1.1770464     0.021529339
      4303.11       1.1870898     0.021409779
      4307.42       1.1763275     0.021126280
      4311.72       1.1838747     0.021010500
      4316.04       1.1957549     0.020894991
      4320.35       1.1983174     0.020779868
      4324.67       1.1852203     0.020665144
      4329.00       1.1798308     0.020551708
      4333.33       1.1736686     0.020258474
      4337.66       1.1604935     0.020148004
      4342.00       1.1385454     0.020038022
      4346.34       1.1141203     0.019928549
      4350.69       1.0896269     0.019820198
      4355.04       1.0722020     0.019713318
      4359.39       1.0442711     0.019606857
      4363.75       1.0248157     0.019500889
      4368.12       1.0066304     0.019395430
      4372.48      0.97169496     0.019291112
      4376.86      0.94196313     0.019188217
      4381.23      0.91499597     0.019085742
      4385.61      0.90213926     0.018983772
      4390.00      0.88174846     0.018882318
      4394.39      0.87014533     0.018782379
      4398.79      0.86487224     0.018683666
      4403.18      0.86077412     0.018414857
      4407.59      0.83932995     0.018316555
      4412.00      0.83581919     0.018218776
      4416.41      0.83857458     0.018122474
      4420.82      0.84190266     0.018027358
      4425.25      0.82928764     0.018068449
      4429.67      0.83007519     0.017973637
      4434.10      0.83876058     0.017879353
      4438.54      0.86359538     0.017787065
      4442.97      0.89200031     0.017695499
      4447.42      0.91204069     0.017449949
      4451.86      0.93806157     0.017358246
      4456.32      0.95119437     0.017267417
      4460.77      0.98734216     0.017178107
      4465.24       1.0456436     0.017089619
      4469.70       1.0964559     0.017001809
      4474.17       1.1406616     0.016914704
      4478.65       1.1736374     0.016828700
      4483.12       1.2251237     0.016600930
      4487.61       1.2662373     0.016518047
      4492.09       1.2843712     0.016556829
      4496.59       1.3106547     0.016472215
      4501.08       1.3368981     0.016388921
      4505.58       1.3548559     0.016306799
      4510.09       1.3790067     0.016087073
      4514.60       1.4122640     0.016007522
      4519.12       1.4350839     0.015928835
      4523.63       1.4656518     0.015851677
      4528.16       1.4908304     0.015775849
      4532.69       1.5029167     0.015700901
      4537.22       1.5313647     0.015600494
      4541.76       1.5609185     0.015524697
      4546.30       1.5912438     0.015450277
      4550.85       1.6234854     0.015377174
      4555.40       1.6445586     0.015305044
      4559.95       1.6548475     0.015101450
      4564.51       1.6711930     0.015029179
      4569.08       1.6876141     0.014958002
      4573.65       1.6944284     0.014998253
      4578.22       1.6966500     0.014929039
      4582.80       1.7004307     0.014734745
      4587.38       1.7124243     0.014665274
      4591.97       1.7245143     0.014597059
      4596.56       1.7336398     0.014530178
      4601.16       1.7424157     0.014571692
      4605.76       1.7488428     0.014384740
      4610.37       1.7602242     0.014318303
      4614.98       1.7557222     0.014253496
      4619.59       1.7506476     0.014189911
      4624.21       1.7460931     0.014011573
      4628.84       1.7429008     0.014051834
      4633.47       1.7318768     0.013988769
      4638.10       1.7303702     0.013927324
      4642.74       1.7171728     0.013753565
      4647.38       1.6971233     0.013695558
      4652.03       1.6780117     0.013735415
      4656.68       1.6523297     0.013675910
      4661.34       1.6309240     0.013506671
      4666.00       1.6177716     0.013450726
      4670.67       1.5917663     0.013396439
      4675.33       1.5708007     0.013325556
      4680.01       1.5564621     0.013270767
      4684.69       1.5368968     0.013217461
      4689.38       1.5280367     0.013165691
      4694.07       1.4998046     0.013004096
      4698.76       1.4793411     0.013045741
      4703.46       1.4506948     0.012995094
      4708.16       1.4251932     0.012839010
      4712.87       1.4115569     0.012788143
      4717.58       1.3951184     0.012831326
      4722.30       1.3669588     0.012783389
      4727.03       1.3389878     0.012630612
      4731.75       1.2999735     0.012582249
      4736.48       1.2630472     0.012627415
      4741.22       1.2106983     0.012479506
      4745.96       1.1673822     0.012432536
      4750.71       1.1140761     0.012387347
      4755.46       1.0637811     0.012334645
      4760.22       1.0040562     0.012288889
      4764.97      0.95879899     0.012244878
      4769.74      0.92406827     0.012107460
      4774.51      0.88752976     0.012475180
      4779.29      0.85517838     0.012813975
      4784.07      0.81989268     0.013357705
      4788.85      0.81171013     0.014132738
      4793.64      0.81538893     0.012533700
      4798.43      0.81013216     0.012528332
      4803.23      0.82010405     0.013058572
      4808.03      0.82377628     0.013489531
      4812.84      0.83734403     0.014167304
      4817.66      0.83775658     0.014847911
      4822.48      0.83067078     0.015382908
      4827.30      0.80523255     0.015727031
      4832.12      0.78166541     0.015253661
      4836.96      0.75168629     0.014898811
      4841.79      0.73293650     0.014164508
      4846.63      0.71394013     0.013272658
      4851.48      0.70581674     0.012781581
      4856.33      0.70851849     0.012113257
      4861.19      0.71737243     0.011781845
      4866.05      0.72138548     0.013805324
      4870.92      0.73765422     0.012814818
      4875.79      0.75478585     0.012122188
      4880.66      0.78860522     0.011607092
      4885.55      0.81667189     0.011275915
      4890.43      0.84828323     0.011076898
      4895.32      0.90761285     0.011043647
      4900.22      0.95994400     0.011015182
      4905.12       1.0126070     0.010985180
      4910.02       1.0477959     0.010956814
      4914.94       1.0840956     0.010849518
      4919.85       1.1289876     0.010900746
      4924.77       1.1766465     0.010794580
      4929.70       1.2116955     0.010771860
      4934.62       1.2504779     0.010822080
      4939.56       1.2690878     0.010719226
      4944.50       1.2884392     0.010771420
      4949.44       1.2983440     0.010669824
      4954.39       1.3041587     0.010650169
      4959.35       1.2976870     0.010622271
      4964.31       1.2827599     0.010603041
      4969.27       1.2629283     0.010577684
      4974.24       1.2393240     0.010558999
      4979.22       1.1966826     0.010535055
      4984.20       1.1632087     0.010516781
      4989.18       1.1290446     0.010420559
      4994.17       1.0799810     0.010477502
      4999.16       1.0402734     0.010382674
      5004.16       1.0002105     0.010439697
      5009.17      0.96152004     0.010346575
      5014.18      0.94082379     0.010404586
      5019.19      0.91950063     0.010312992
      5024.21      0.90680580     0.010371212
      5029.23      0.89713001     0.010281070
      5034.26      0.89389303     0.010266245
      5039.30      0.89557522     0.010251534
      5044.34      0.90905719     0.010237132
      5049.39      0.92379775     0.010223498
      5054.43      0.93379023     0.010138636
      5059.49      0.95867498     0.010197967
      5064.55      0.98465099     0.010113893
      5069.61       1.0064160     0.010173524
      5074.68       1.0284231     0.010091134
      5079.76       1.0508237     0.010151641
      5084.84       1.0619885     0.010070365
      5089.92       1.0719322     0.010131074
      5095.01       1.0836434     0.010051476
      5100.11       1.0928378     0.010042465
      5105.21       1.0940471     0.010034884
      5110.31       1.1041777     0.010025876
      5115.42       1.1027301     0.010019655
      5120.54       1.0981726     0.010011923
      5125.66       1.0955283    0.0099357333
      5130.79       1.0885578    0.0099992770
      5135.92       1.0809019    0.0099232861
      5141.05       1.0767019    0.0099889198
      5146.20       1.0724692    0.0099134839
      5151.34       1.0752958    0.0099109255
      5156.49       1.0867077    0.0099048198
      5161.65       1.0939721    0.0099030408
      5166.81       1.1020604    0.0099697941
      5171.98       1.1136898    0.0098967970
      5177.15       1.1215140    0.0098969456
      5182.33       1.1309192    0.0098925326
      5187.51       1.1510739    0.0098931493
      5192.70       1.1677313    0.0098241733
      5197.89       1.1989743    0.0098905238
      5203.09       1.2229215    0.0098932791
      5208.29       1.2480816    0.0098906420
      5213.50       1.2625431    0.0098930594
      5218.72       1.2806678    0.0098262461
      5223.93       1.3112442    0.0098946387
      5229.16       1.3276090    0.0098306671
      5234.39       1.3488846    0.0098329489
      5239.62       1.3648429    0.0099024608
      5244.86       1.3876492    0.0098388327
      5250.11       1.4087121    0.0098429970
      5255.36       1.4201641    0.0097794485
      5260.61       1.4291186    0.0098508988
      5265.87       1.4348697    0.0098562410
      5271.14       1.4466274    0.0097940232
      5276.41       1.4539193    0.0098667199
      5281.69       1.4592607    0.0098730660
      5286.97       1.4669736    0.0098115858
      5292.26       1.4731610    0.0098856247
      5297.55       1.4865252    0.0098933548
      5302.85       1.4853478    0.0098323404
      5308.15       1.4912337    0.0098426431
      5313.46       1.4922559    0.0098462616
      5318.77       1.4933486    0.0098561099
      5324.09       1.5026401    0.0098673580
      5329.42       1.4966072    0.0098719798
      5334.75       1.4939440    0.0098830084
      5340.08       1.4901165    0.0098950073
      5345.42       1.4820617    0.0098380278
      5350.77       1.4765213    0.0099123281
      5356.12       1.4563644    0.0099251613
      5361.48       1.4468755    0.0098700588
      5366.83       1.4336809    0.0098818223
      5372.20       1.4281026    0.0098946290
      5377.58       1.4090508    0.0099721957
      5382.95       1.3923847    0.0099173182
      5388.34       1.3815364    0.0099305537
      5393.72       1.3630483    0.0099449641
      5399.12       1.3535702    0.0099558007
      5404.52       1.3539630    0.0099696438
      5409.92       1.3497507    0.0099841330
      5415.33       1.3576745    0.0099995699
      5420.75       1.3593962    0.0099463243
      5426.17       1.3689617     0.010026324
      5431.60       1.3734430     0.010041792
      5437.03       1.3810920    0.0099880803
      5442.47       1.3814581     0.010005361
      5447.91       1.3762166     0.010023163
      5453.36       1.3788764     0.010103742
      5458.81       1.3682891     0.010050276
      5464.27       1.3720719     0.010068307
      5469.73       1.3676419     0.010086815
      5475.20       1.3582235     0.010105707
      5480.68       1.3492422     0.010054591
      5486.16       1.3415415     0.010135030
      5491.65       1.3292196     0.010153995
      5497.14       1.3095696     0.010173251
      5502.64       1.3084090     0.010193337
      5508.14       1.2987220     0.010143289
      5513.65       1.2748915     0.010162487
      5519.16       1.2692684     0.010181956
      5524.68       1.2546478     0.010202261
      5530.20       1.2425669     0.010285811
      5535.73       1.2292946     0.010237094
      5541.27       1.2151259     0.010256816
      5546.81       1.1976935     0.010277309
      5552.36       1.1655354     0.010298192
      5557.91       1.1481069     0.010319238
      5563.47       1.1345121     0.010269755
      5569.04       1.1242333     0.010291460
      5574.60       1.1115595     0.010313520
      5580.18       1.0968922     0.010398699
      5585.76       1.0861525     0.010420028
      5591.35       1.0688467     0.010442000
      5596.94       1.0409063     0.010392374
      5602.53       1.0097880     0.010414446
      5608.14      0.98769415     0.010436738
      5613.75      0.95554944     0.010459472
      5619.36      0.91300896     0.010482356
      5624.98      0.88405195     0.010505239
      5630.60      0.84996787     0.010528353
      5636.23      0.82524763     0.010480252
      5641.87      0.79177554     0.010502854
      5647.51      0.75923510     0.010525460
      5653.16      0.72660405     0.010548339
      5658.82      0.69655841     0.010571521
      5664.47      0.69085004     0.010594652
      5670.14      0.68905631     0.010617934
      5675.81      0.68758132     0.010641246
      5681.48      0.68207456     0.010664781
      5687.17      0.67677120     0.010616617
      5692.85      0.68045292     0.010640309
      5698.55      0.67914032     0.010664382
      5704.25      0.68617655     0.010689312
      5709.95      0.69539577     0.010714124
      5715.66      0.72135702     0.010738562
      5721.38      0.74233923     0.010763375
      5727.10      0.75693510     0.010789555
      5732.83      0.79062012     0.010818580
      5738.56      0.81759973     0.010850759
      5744.30      0.85030740     0.010884157
      5750.04      0.86819853     0.010917688
      5755.79      0.89385744     0.010952516
      5761.55      0.91918902     0.010988346
      5767.31      0.95274039     0.011022041
      5773.08      0.98492382     0.011051656
      5778.85       1.0111007     0.011078979
      5784.63       1.0274521     0.011104749
      5790.41       1.0406673     0.011128713
      5796.21       1.0583472     0.011078507
      5802.00       1.0783646     0.011099626
      5807.81       1.1005411     0.011120817
      5813.61       1.1227877     0.011142860
      5819.43       1.1435806     0.011164711
      5825.25       1.1593145     0.011185152
      5831.07       1.1844635     0.011136013
      5836.90       1.1964300     0.011152978
      5842.74       1.2156137     0.011242540
      5848.58       1.2172812     0.011259385
      5854.43       1.2168778     0.011274736
      5860.29       1.2105503     0.011288868
      5866.15       1.2141126     0.011305082
      5872.01       1.2093033     0.011323240
      5877.89       1.2090932     0.011340924
      5883.76       1.2089449     0.011357295
      5889.65       1.2064045     0.011308829
      5895.54       1.1989668     0.011327089
      5901.43       1.1976065     0.011346391
      5907.34       1.1927451     0.011366103
      5913.24       1.1855742     0.011385922
      5919.16       1.1778089     0.011406580
      5925.08       1.1759002     0.011427308
      5931.00       1.1622265     0.011383128
      5936.93       1.1562299     0.011403558
      5942.87       1.1449526     0.011424280
      5948.81       1.1289596     0.011445214
      5954.76       1.1081073     0.011537372
      5960.72       1.0914701     0.011557147
      5966.68       1.0722909     0.011511044
      5972.64       1.0591956     0.011530866
      5978.62       1.0457690     0.011550322
      5984.60       1.0340561     0.011570048
      5990.58       1.0318520     0.011589805
      5996.57       1.0326216     0.011541175
      6002.57       1.0285619     0.011559176
      6008.57       1.0263632     0.011651050
      6014.58       1.0159999     0.011669563
      6020.60      0.99819613     0.011687884
      6026.62       1.0031203     0.011638256
      6032.65       1.0124468     0.011655200
      6038.68       1.0240561     0.011672062
      6044.72       1.0295015     0.011688796
      6050.76       1.0333775     0.011713425
      6056.81       1.0315989     0.011728886
      6062.87       1.0275227     0.011744246
      6068.93       1.0253982     0.011759722
      6075.00       1.0209773     0.011710388
      6081.08       1.0182451     0.011729591
      6087.16       1.0208827     0.011821887
      6093.25       1.0241970     0.011838269
      6099.34       1.0263741     0.011785537
      6105.44       1.0222687     0.011804391
      6111.54       1.0128230     0.011829493
      6117.66       1.0033420     0.011868546
      6123.78      0.99711807     0.011904688
      6129.90      0.97783863     0.011944099
      6136.03      0.97111534     0.011984760
      6142.17      0.97867504     0.011956168
      6148.31      0.97303103     0.012064100
      6154.46      0.95281946     0.012089413
      6160.61      0.93369589     0.012035154
      6166.77      0.91683868     0.012040701
      6172.94      0.89579255     0.012111599
      6179.11      0.87322671     0.012029392
      6185.29      0.85122594     0.012015624
      6191.48      0.83298020     0.012003130
      6197.67      0.82248300     0.011998440
      6203.87      0.81370775     0.011997192
      6210.07      0.80441121     0.011993633
      6216.28      0.79262801     0.011919808
      6222.50      0.78641681     0.011986579
      6228.72      0.79090691     0.011917742
      6234.95      0.79633191     0.011917229
      6241.19      0.80024577     0.011986236
      6247.42      0.80052380     0.011918710
      6253.67      0.80565273     0.011919752
      6259.93      0.81040656     0.011922046
      6266.19      0.81211097     0.011924308
      6272.46      0.81926127     0.011927480
      6278.73      0.83565575     0.011862514
      6285.01      0.85127715     0.011934343
      6291.29      0.85790712     0.011937727
      6297.58      0.86548151     0.011873027
      6303.88      0.87319475     0.011947755
      6310.19      0.87886594     0.011889815
      6316.50      0.88487472     0.011899388
      6322.81      0.90011060     0.011913912
      6329.14      0.90949928     0.011918322
      6335.47      0.91494128     0.011923496
      6341.80      0.93396245     0.011931059
      6348.14      0.94115925     0.011931765
      6354.49      0.94537487     0.011865021
      6360.85      0.94881835     0.011927076
      6367.21      0.94754201     0.011852664
      6373.57      0.94572680     0.011909870
      6379.95      0.94537180     0.011832950
      6386.33      0.94807534     0.011824235
      6392.72      0.95403323     0.011813996
      6399.11      0.95279704     0.011806401
      6405.51      0.93148050     0.011795855
      6411.92      0.91028389     0.011783880
      6418.32      0.88887712     0.011703634
      6424.74      0.87077449     0.011754041
      6431.17      0.84583952     0.011672374
      6437.60      0.82785120     0.011723499
      6444.04      0.81001617     0.011641324
      6450.48      0.79135258     0.011686963
      6456.94      0.77518187     0.011603003
      6463.39      0.77490584     0.011586085
      6469.85      0.76101493     0.011569324
      6476.33      0.76453740     0.011552557
      6482.80      0.76487496     0.011535459
      6489.28      0.76656463     0.011518367
      6495.77      0.77688231     0.011499899
      6502.27      0.78994275     0.011481366
      6508.77      0.80923243     0.011461210
      6515.28      0.82057522     0.011377335
      6521.80      0.83769612     0.011419286
      6528.32      0.85006155     0.011334917
      6534.85      0.86765901     0.011375124
      6541.38      0.88423731     0.011289141
      6547.92      0.90152997     0.011263450
      6554.47      0.91056072     0.011240667
      6561.03      0.92345787     0.011212415
      6567.59      0.93481499     0.011188637
      6574.16      0.94728574     0.011158499
      6580.73      0.95645674     0.011069408
      6587.31      0.96912535     0.011100862
      6593.90      0.96730872     0.011010208
      6600.50      0.97599780     0.011040314
      6607.10      0.97783535     0.010947452
      6613.70      0.97722306     0.010913214
      6620.32      0.97634561     0.010881758
      6626.94      0.97254347     0.010844713
      6633.57      0.96835409     0.010751397
      6640.20      0.96493311     0.010773151
      6646.84      0.96160352     0.010735165
      6653.49      0.95064689     0.010657516
      6660.14      0.94061297     0.010711538
      6666.80      0.93336715     0.010646030
      6673.47      0.92201380     0.010584133
      6680.14      0.91287062     0.010555869
      6686.82      0.90628828     0.010567380
      6693.51      0.90490720     0.010621770
      6700.20      0.89951637     0.010692043
      6706.90      0.89163523     0.010805388
      6713.61      0.88585973     0.010932837
      6720.32      0.87864292     0.010983083
      6727.05      0.87436236     0.011122813
      6733.77      0.86320414     0.011097188
      6740.51      0.85019084     0.011077476
      6747.25      0.84426623     0.011070426
      6754.00      0.83345857     0.010875234
      6760.75      0.82090416     0.010694733
      6767.51      0.81264658     0.010495063
      6774.28      0.80675012     0.010334567
      6781.05      0.79736496     0.010163904
      6787.84      0.78824408     0.010035816
      6794.62      0.77570743    0.0098634689
      6801.42      0.76308783    0.0097822646
      6808.22      0.76085282    0.0096600209
      6815.03      0.75787289    0.0095141329
      6821.85      0.75306892    0.0094119519
      6828.67      0.74918024    0.0093154553
      6835.50      0.74299031    0.0092425265
      6842.33      0.74258276    0.0091568689
      6849.17      0.74346371    0.0090754449
      6856.02      0.73751292    0.0089556043
      6862.88      0.72990692    0.0088753170
      6869.74      0.72711205    0.0088455471
      6876.61      0.73074757    0.0086643118
      6883.49      0.73153816    0.0085361586
      6890.37      0.73629090    0.0083559662
      6897.27      0.74172223    0.0081796693
      6904.16      0.74492731    0.0080564973
      6911.07      0.74862538    0.0078575223
      6917.98      0.75297233    0.0076933630
      6924.89      0.75735505    0.0075323394
      6931.82      0.75873300    0.0074183357
      6938.75      0.76166199    0.0072703771
      6945.69      0.76939734    0.0071291366
      6952.64      0.77283097    0.0069877103
      6959.59      0.77676357    0.0068810114
      6966.55      0.77991883    0.0067397504
      6973.52      0.79003531    0.0066043448
      6980.49      0.79407726    0.0064633033
      6987.47      0.79762130    0.0063647778
      6994.46      0.79804346    0.0063059981
      7001.46      0.79455457    0.0062127320
      7008.46      0.79806941    0.0061085885
      7015.46      0.79728019    0.0059970193
      7022.48      0.79483008    0.0058816630
      7029.51      0.79610362    0.0057913081
      7036.53      0.79120436    0.0056632251
      7043.57      0.78734701    0.0055314830
      7050.62      0.78421047    0.0053952248
      7057.66      0.78060602    0.0052592763
      7064.72      0.77608558    0.0051125946
      7071.79      0.77506382    0.0049744299
      7078.86      0.77489263    0.0048359985
      7085.94      0.77251261    0.0047266337
      7093.03      0.77039731    0.0045905039
      7100.12      0.77413894    0.0044574562
      7107.22      0.77083787    0.0043283606
      7114.33      0.77267653    0.0042052377
      7121.44      0.77367205    0.0040901629
      7128.56      0.77491276    0.0039835538
      7135.69      0.77728912    0.0038855582
      7142.83      0.77995028    0.0038857647
      7149.97      0.78087565    0.0039151968
      7157.12      0.78223587    0.0039569205
      7164.28      0.78567236    0.0040133781
      7171.44      0.78916434    0.0040889786
      7178.62      0.79444526    0.0041901601
      7185.80      0.79790617    0.0043264232
      7192.98      0.79865180    0.0045128816
      7200.17      0.80098801    0.0047693691
      7207.38      0.80385756    0.0051801920
      7214.58      0.80642992    0.0056582527
      7221.80      0.80867724    0.0062722668
      7229.02      0.81246637    0.0070498039
      7236.25      0.81386485    0.0080331543
      7243.49      0.81278695    0.0092708008
      7250.73      0.81512822     0.010818722
