# starting wavelength =        3423.0000
# ending wavelength =        7279.5200
# O2 telluric scale =        0
# O2 telluric shift =        0
# H2O telluric scale =        0
# H2O telluric shift =        0
      3426.17       1.0426649     0.087901593
      3429.59       1.0789203     0.074820344
      3433.02       1.1110244     0.064438376
      3436.45       1.1459215     0.054773838
      3439.89       1.1857384     0.048704872
      3443.33       1.2253861     0.043986824
      3446.78       1.2725705     0.040320290
      3450.22       1.2966108     0.037490775
      3453.67       1.3193686     0.035657785
      3457.13       1.3528027     0.033830267
      3460.58       1.3789360     0.032390775
      3464.04       1.3996509     0.031245497
      3467.51       1.4167232     0.030086072
      3470.98       1.4338048     0.029346584
      3474.45       1.4365964     0.028728033
      3477.92       1.4368918     0.028203352
      3481.40       1.4218950     0.027604836
      3484.88       1.4307510     0.027191776
      3488.37       1.4222313     0.027097252
      3491.86       1.4228024     0.027005930
      3495.35       1.4243769     0.027054739
      3498.84       1.3926226     0.026790071
      3502.34       1.3863173     0.026836879
      3505.84       1.3813604     0.026884100
      3509.35       1.3650240     0.026793898
      3512.86       1.3512260     0.026669273
      3516.37       1.3304336     0.026578351
      3519.89       1.3015368     0.026628989
      3523.41       1.2786953     0.026677254
      3526.93       1.2571947     0.026413311
      3530.46       1.2517095     0.026462261
      3533.99       1.2430872     0.026373186
      3537.53       1.2303156     0.026248786
      3541.06       1.2246307     0.026299280
      3544.60       1.2331661     0.026213456
      3548.15       1.2226461     0.026262266
      3551.70       1.2358986     0.026140328
      3555.25       1.2500770     0.026048700
      3558.80       1.2749716     0.026104604
      3562.36       1.2821010     0.026158779
      3565.92       1.2892313     0.025891348
      3569.49       1.2925330     0.025945522
      3573.06       1.3006795     0.026003481
      3576.64       1.2960835     0.025733805
      3580.21       1.3029243     0.025790464
      3583.79       1.3075727     0.025849300
      3587.38       1.3206607     0.025759601
      3590.96       1.3163050     0.025637011
      3594.55       1.3188805     0.025696563
      3598.15       1.3221482     0.025612405
      3601.75       1.3340722     0.025485011
      3605.35       1.3183795     0.025547433
      3608.96       1.3180297     0.025457276
      3612.56       1.3320102     0.025336392
      3616.18       1.3371240     0.025398599
      3619.79       1.3383711     0.025314797
      3623.41       1.3291946     0.025374657
      3627.04       1.3219735     0.025253289
      3630.66       1.3095484     0.025319856
      3634.29       1.2917292     0.025236424
      3637.93       1.2782217     0.025109091
      3641.57       1.2755535     0.025177689
      3645.21       1.2644505     0.025088783
      3648.86       1.2632540     0.024967291
      3652.50       1.2596428     0.025038628
      3656.16       1.2435806     0.025110208
      3659.81       1.2256917     0.024829392
      3663.47       1.2143507     0.024899597
      3667.14       1.1964213     0.024977053
      3670.80       1.1806834     0.024853165
      3674.48       1.1671606     0.024767945
      3678.15       1.1544700     0.024840163
      3681.83       1.1646507     0.024721623
      3685.51       1.1823824     0.024799228
      3689.20       1.2037165     0.024717035
      3692.88       1.2299511     0.024590121
      3696.58       1.2534868     0.024669966
      3700.27       1.2795205     0.024756022
      3703.98       1.3012861     0.024460071
      3707.68       1.3473887     0.024547504
      3711.39       1.3914305     0.024628643
      3715.10       1.4018665     0.024510162
      3718.81       1.4130948     0.024598191
      3722.53       1.4279211     0.024517805
      3726.26       1.4287830     0.024389444
      3729.98       1.4180653     0.024477348
      3733.71       1.4013818     0.024360637
      3737.45       1.3847963     0.024451396
      3741.18       1.3593540     0.024369830
      3744.93       1.3227281     0.024242903
      3748.67       1.2613811     0.024337204
      3752.42       1.1962775     0.024441627
      3756.17       1.1384758     0.024317247
      3759.93       1.0712571     0.024421335
      3763.69       1.0150019     0.024108576
      3767.45      0.96546993     0.024208129
      3771.22      0.92169564     0.024319285
      3774.99      0.87000968     0.024194585
      3778.77      0.81760653     0.024303846
      3782.54      0.77484104     0.024419666
      3786.33      0.73186137     0.024090884
      3790.11      0.69688159     0.024211225
      3793.90      0.66673731     0.024085175
      3797.70      0.63464214     0.024199382
      3801.50      0.62913342     0.024325156
      3805.30      0.60824240     0.024199993
      3809.10      0.59381481     0.024325199
      3812.91      0.59328180     0.023990448
      3816.73      0.59789162     0.023868300
      3820.54      0.59576514     0.023785548
      3824.36      0.60550158     0.023659374
      3828.19      0.61452262     0.023539688
      3832.02      0.62095550     0.023456261
      3835.85      0.64414201     0.023332421
      3839.68      0.67043974     0.023010090
      3843.52      0.68341548     0.023131327
      3847.37      0.70033747     0.023009825
      3851.22      0.74313877     0.022691684
      3855.07      0.78996781     0.022810974
      3858.92      0.84711119     0.022690253
      3862.78      0.90170587     0.022376399
      3866.64      0.96095784     0.022266754
      3870.51       1.0236634     0.022374983
      3874.38       1.0692581     0.022064368
      3878.26       1.1130067     0.021955352
      3882.13       1.1647429     0.022063192
      3886.02       1.2085441     0.021756125
      3889.90       1.2505199     0.021647594
      3893.79       1.3228438     0.021543197
      3897.69       1.3738918     0.021451238
      3901.59       1.4021487     0.021343028
      3905.49       1.4362769     0.021238691
      3909.39       1.4676699     0.021150650
      3913.30       1.4829261     0.021042223
      3917.22       1.4830739     0.020937486
      3921.13       1.5150053     0.020652001
      3925.06       1.5532348     0.020745425
      3928.98       1.5703503     0.020640376
      3932.91       1.5894496     0.020362666
      3936.84       1.6030160     0.020254696
      3940.78       1.6172022     0.020347276
      3944.72       1.6346431     0.020244601
      3948.67       1.6423320     0.019969391
      3952.61       1.6644547     0.019863856
      3956.57       1.6689587     0.019955233
      3960.52       1.6886829     0.019689385
      3964.48       1.7066517     0.019583335
      3968.45       1.7318083     0.019480033
      3972.42       1.7404581     0.019379424
      3976.39       1.7517862     0.019308084
      3980.37       1.7670171     0.019204041
      3984.35       1.7634908     0.019102608
      3988.33       1.7564415     0.018843296
      3992.32       1.7499090     0.018933800
      3996.31       1.7596224     0.018831548
      4000.31       1.7605828     0.018731613
      4004.31       1.7467746     0.018476245
      4008.31       1.7345706     0.018381317
      4012.32       1.7186355     0.018465981
      4016.33       1.7072743     0.018366769
      4020.35       1.6892318     0.018115982
      4024.37       1.6799795     0.018021440
      4028.40       1.6614644     0.017928877
      4032.42       1.6299562     0.017838222
      4036.46       1.6038245     0.017761902
      4040.50       1.5670375     0.017668182
      4044.54       1.5479154     0.017576128
      4048.58       1.5242532     0.017485656
      4052.63       1.5002141     0.017396495
      4056.68       1.4723196     0.017322079
      4060.74       1.4378330     0.017230065
      4064.80       1.4200924     0.017139955
      4068.86       1.4018807     0.017051125
      4072.93       1.3838341     0.016823691
      4077.01       1.3639977     0.016733346
      4081.08       1.3479558     0.016644041
      4085.17       1.3378388     0.016713060
      4089.25       1.3271152     0.016625635
      4093.34       1.3145049     0.016406918
      4097.43       1.3104033     0.016317566
      4101.53       1.3177989     0.016229770
      4105.63       1.3119212     0.016143049
      4109.74       1.3079826     0.016057303
      4113.85       1.3009304     0.016000986
      4117.96       1.2902148     0.015913158
      4122.08       1.2968964     0.015826702
      4126.20       1.2776546     0.015741184
      4130.33       1.2762613     0.015656587
      4134.46       1.2573224     0.015572636
      4138.59       1.2482880     0.015364740
      4142.73       1.2470298     0.015283223
      4146.88       1.2363339     0.015202791
      4151.02       1.2324732     0.015267333
      4155.18       1.2439675     0.015184534
      4159.33       1.2523815     0.015102863
      4163.49       1.2538421     0.015021835
      4167.65       1.2618614     0.014820557
      4171.82       1.2733465     0.014741546
      4175.99       1.2894195     0.014663248
      4180.17       1.3032378     0.014585577
      4184.35       1.3152624     0.014508421
      4188.54       1.3154424     0.014432163
      4192.72       1.3166800     0.014356319
      4196.92       1.3204240     0.014165258
      4201.11       1.3156887     0.014088854
      4205.31       1.3025050     0.014142481
      4209.52       1.3006070     0.014066839
      4213.73       1.2845963     0.013991835
      4217.94       1.2761861     0.013917175
      4222.16       1.2741285     0.013843310
      4226.38       1.2712431     0.013769861
      4230.61       1.2746407     0.013696815
      4234.84       1.2736513     0.013519536
      4239.08       1.2707858     0.013446371
      4243.32       1.2714245     0.013373933
      4247.56       1.2780634     0.013302024
      4251.81       1.2748760     0.013230619
      4256.06       1.2773908     0.013159647
      4260.32       1.2789013     0.013089061
      4264.58       1.2795183     0.013018890
      4268.84       1.2727437     0.012949274
      4273.11       1.2682102     0.012880103
      4277.38       1.2615247     0.012811367
      4281.66       1.2506317     0.012743242
      4285.94       1.2509552     0.012576785
      4290.23       1.2537337     0.012509721
      4294.52       1.2464912     0.012443130
      4298.81       1.2451411     0.012377059
      4303.11       1.2429062     0.012311092
      4307.42       1.2370422     0.012245665
      4311.72       1.2396326     0.012180622
      4316.04       1.2331226     0.012115897
      4320.35       1.2277977     0.012051464
      4324.67       1.2252623     0.011987401
      4329.00       1.2231953     0.011923714
      4333.33       1.2100317     0.011860410
      4337.66       1.1981610     0.011797600
      4342.00       1.1814434     0.011735178
      4346.34       1.1617691     0.011672879
      4350.69       1.1373891     0.011610990
      4355.04       1.1094460     0.011549677
      4359.39       1.0815283     0.011488446
      4363.75       1.0595013     0.011427751
      4368.12       1.0331902     0.011367485
      4372.48       1.0120531     0.011307564
      4376.86      0.98711002     0.011247747
      4381.23      0.97282909     0.011089543
      4385.61      0.95086188     0.011031227
      4390.00      0.93860997     0.010973308
      4394.39      0.93891741     0.010915702
      4398.79      0.93154994     0.010858481
      4403.18      0.93640467     0.010801633
      4407.59      0.93991576     0.010745244
      4412.00      0.94316025     0.010689381
      4416.41      0.94784808     0.010633719
      4420.82      0.95539058     0.010578410
      4425.25      0.96724425     0.010523775
      4429.67      0.97512340     0.010469550
      4434.10      0.97674032     0.010415549
      4438.54      0.97473888     0.010268460
      4442.97      0.98067365     0.010214952
      4447.42      0.98437212     0.010161857
      4451.86      0.99081664     0.010109171
      4456.32      0.99891217     0.010056836
      4460.77       1.0075653     0.010004982
      4465.24       1.0140278    0.0099536062
      4469.70       1.0231841    0.0099026277
      4474.17       1.0329688    0.0098418490
      4478.65       1.0466525    0.0097905676
      4483.12       1.0577705    0.0097397742
      4487.61       1.0770795    0.0096894051
      4492.09       1.0906181    0.0096395044
      4496.59       1.1171208    0.0095900742
      4501.08       1.1417969    0.0095413146
      4505.58       1.1688381    0.0094930458
      4510.09       1.1962446    0.0093642885
      4514.60       1.2154514    0.0093173236
      4519.12       1.2382160    0.0092710647
      4523.63       1.2587064    0.0092253318
      4528.16       1.2812208    0.0092448610
      4532.69       1.2983027    0.0091980278
      4537.22       1.3188911    0.0090737727
      4541.76       1.3304550    0.0090287006
      4546.30       1.3468891    0.0089841986
      4550.85       1.3628599    0.0089400852
      4555.40       1.3750552    0.0088967488
      4559.95       1.3832868    0.0087757759
      4564.51       1.3863818    0.0087322329
      4569.08       1.3937302    0.0087530355
      4573.65       1.4013765    0.0087104052
      4578.22       1.4048546    0.0086683079
      4582.80       1.4162068    0.0085529194
      4587.38       1.4162963    0.0085105483
      4591.97       1.4162109    0.0084689533
      4596.56       1.4238672    0.0084281471
      4601.16       1.4233913    0.0084496110
      4605.76       1.4273568    0.0083385118
      4610.37       1.4281145    0.0082976326
      4614.98       1.4293033    0.0082575652
      4619.59       1.4282079    0.0082180605
      4624.21       1.4317091    0.0081792862
      4628.84       1.4373475    0.0081322127
      4633.47       1.4463889    0.0080928696
      4638.10       1.4563795    0.0080543072
      4642.74       1.4598354    0.0080165059
      4647.38       1.4597101    0.0079135706
      4652.03       1.4599194    0.0078776410
      4656.68       1.4601104    0.0078964637
      4661.34       1.4550690    0.0078596800
      4666.00       1.4498893    0.0077591698
      4670.67       1.4482177    0.0077242982
      4675.33       1.4371697    0.0076901848
      4680.01       1.4275157    0.0076445902
      4684.69       1.4224704    0.0076099623
      4689.38       1.4103302    0.0075762987
      4694.07       1.4038329    0.0075433744
      4698.76       1.3934178    0.0074995894
      4703.46       1.3822045    0.0074661808
      4708.16       1.3690345    0.0074336971
      4712.87       1.3630484    0.0074021612
      4717.58       1.3547205    0.0073074594
      4722.30       1.3428374    0.0073279162
      4727.03       1.3346939    0.0072967363
      4731.75       1.3163196    0.0072051875
      4736.48       1.2921432    0.0071738441
      4741.22       1.2718428    0.0071948585
      4745.96       1.2465345    0.0071060817
      4750.71       1.2194861    0.0070751783
      4755.46       1.1914527    0.0070452465
      4760.22       1.1661866    0.0070097616
      4764.97       1.1410321    0.0069794320
      4769.74       1.1093116    0.0069501476
      4774.51       1.0793337    0.0068669423
      4779.29       1.0454472    0.0068866934
      4784.07       1.0155896    0.0068580724
      4788.85      0.99055721    0.0067764101
      4793.64      0.96419600    0.0067968938
      4798.43      0.93804983    0.0067689967
      4803.23      0.91780394    0.0066887654
      4808.03      0.90483616    0.0066633402
      4812.84      0.89456094    0.0066825960
      4817.66      0.89177353    0.0066041077
      4822.48      0.88530286    0.0065793822
      4827.30      0.88343395    0.0065469574
      4832.12      0.88917374    0.0065219729
      4836.96      0.89409113    0.0064981533
      4841.79      0.89770681    0.0064666816
      4846.63      0.89909830    0.0064428015
      4851.48      0.90311054    0.0064200441
      4856.33      0.90653631    0.0063892695
      4861.19      0.89913832    0.0063663478
      4866.05      0.89364065    0.0062931676
      4870.92      0.88197433    0.0063145866
      4875.79      0.87588089    0.0062927690
      4880.66      0.87088243    0.0062205347
      4885.55      0.85560480    0.0062426289
      4890.43      0.84719838    0.0061724406
      4895.32      0.84327186    0.0061505288
      4900.22      0.84548504    0.0061258851
      4905.12      0.84931447    0.0061038687
      4910.02      0.85596970    0.0060831994
      4914.94      0.86584397    0.0060587709
      4919.85      0.88888785    0.0060381083
      4924.77      0.91667689    0.0060152352
      4929.70      0.94880886    0.0059944683
      4934.62      0.98771682    0.0059299142
      4939.56       1.0255943    0.0059522163
      4944.50       1.0634947    0.0058881272
      4949.44       1.0956367    0.0058705196
      4954.39       1.1278455    0.0058920906
      4959.35       1.1611256    0.0058300187
      4964.31       1.1860453    0.0058524783
      4969.27       1.2042193    0.0057909318
      4974.24       1.2239069    0.0057749922
      4979.22       1.2319402    0.0057531028
      4984.20       1.2365618    0.0057373625
      4989.18       1.2345786    0.0057165081
      4994.17       1.2271708    0.0057009837
      4999.16       1.2061532    0.0056811136
      5004.16       1.1785257    0.0056657835
      5009.17       1.1493571    0.0056075986
      5014.18       1.1251291    0.0056318268
      5019.19       1.0904904    0.0055745813
      5024.21       1.0618108    0.0055989492
      5029.23       1.0272323    0.0055426464
      5034.26      0.99283393    0.0055671318
      5039.30      0.95743546    0.0055117245
      5044.34      0.93066152    0.0054978126
      5049.39      0.90851973    0.0054818372
      5054.43      0.89289708    0.0054683480
      5059.49      0.88045738    0.0054529824
      5064.55      0.87732480    0.0054006766
      5069.61      0.88274809    0.0054252074
      5074.68      0.89443385    0.0053736092
      5079.76      0.91095203    0.0053983078
      5084.84      0.92551671    0.0053475806
      5089.92      0.94519879    0.0053724595
      5095.01      0.96442944    0.0053225172
      5100.11      0.98437084    0.0053476676
      5105.21       1.0034745    0.0052984947
      5110.31       1.0247622    0.0052855917
      5115.42       1.0384869    0.0052755019
      5120.54       1.0527248    0.0052629504
      5125.66       1.0622530    0.0052535469
      5130.79       1.0704718    0.0052413156
      5135.92       1.0760140    0.0052325979
      5141.05       1.0820762    0.0052207088
      5146.20       1.0827226    0.0051741567
      5151.34       1.0812876    0.0052010518
      5156.49       1.0746883    0.0051548172
      5161.65       1.0681855    0.0051824560
      5166.81       1.0655786    0.0051365126
      5171.98       1.0604342    0.0051276258
      5177.15       1.0568331    0.0051549094
      5182.33       1.0458024    0.0051104246
      5187.51       1.0438745    0.0051028850
      5192.70       1.0423578    0.0050942740
      5197.89       1.0417847    0.0050867974
      5203.09       1.0410339    0.0050791455
      5208.29       1.0453408    0.0050716896
      5213.50       1.0505006    0.0050303162
      5218.72       1.0629830    0.0050577110
      5223.93       1.0713673    0.0050513303
      5229.16       1.0807026    0.0050102581
      5234.39       1.0914827    0.0050384562
      5239.62       1.1042540    0.0049985765
      5244.86       1.1107933    0.0049922718
      5250.11       1.1236444    0.0050211818
      5255.36       1.1334672    0.0049818076
      5260.61       1.1508420    0.0049763181
      5265.87       1.1675731    0.0049724062
      5271.14       1.1782651    0.0049669810
      5276.41       1.1979742    0.0049623005
      5281.69       1.2009337    0.0049587639
      5286.97       1.2097472    0.0049540367
      5292.26       1.2152360    0.0049162248
      5297.55       1.2175686    0.0049470569
      5302.85       1.2138969    0.0049430271
      5308.15       1.2138809    0.0049058277
      5313.46       1.2157056    0.0049033335
      5318.77       1.2152879    0.0049338640
      5324.09       1.2053001    0.0048972667
      5329.42       1.1987493    0.0048952949
      5334.75       1.1946789    0.0048940087
      5340.08       1.1895483    0.0048903532
      5345.42       1.1795652    0.0048888268
      5350.77       1.1735734    0.0048879927
      5356.12       1.1686405    0.0048851306
      5361.48       1.1666158    0.0048840741
      5366.83       1.1630314    0.0048836102
      5372.20       1.1567104    0.0048497233
      5377.58       1.1520086    0.0048809365
      5382.95       1.1388066    0.0048808126
      5388.34       1.1307212    0.0048480703
      5393.72       1.1212521    0.0048477576
      5399.12       1.1062527    0.0048479833
      5404.52       1.0963882    0.0048481343
      5409.92       1.0860597    0.0048481163
      5415.33       1.0818798    0.0048486158
      5420.75       1.0685878    0.0048495466
      5426.17       1.0551106    0.0048502426
      5431.60       1.0579600    0.0048509736
      5437.03       1.0647102    0.0048521727
      5442.47       1.0715912    0.0048207434
      5447.91       1.0746835    0.0048227661
      5453.36       1.0839587    0.0048565440
      5458.81       1.0985535    0.0048582945
      5464.27       1.1056397    0.0048273873
      5469.73       1.1142797    0.0048298948
      5475.20       1.1194217    0.0048327902
      5480.68       1.1240170    0.0048360664
      5486.16       1.1290465    0.0048364427
      5491.65       1.1312684    0.0048394185
      5497.14       1.1300007    0.0048427540
      5502.64       1.1232753    0.0048464301
      5508.14       1.1166557    0.0048504339
      5513.65       1.1060529    0.0048210493
      5519.16       1.0959516    0.0048247869
      5524.68       1.0799063    0.0048591228
      5530.20       1.0695627    0.0048633843
      5535.73       1.0671381    0.0048354746
      5541.27       1.0648504    0.0048395481
      5546.81       1.0605991    0.0048438493
      5552.36       1.0497033    0.0048483529
      5557.91       1.0464329    0.0048531791
      5563.47       1.0390496    0.0048255703
      5569.04       1.0305972    0.0048614119
      5574.60       1.0246264    0.0048662380
      5580.18       1.0172414    0.0048712446
      5585.76       1.0123557    0.0048764889
      5591.35       1.0056599    0.0048818887
      5596.94       1.0017200    0.0048546295
      5602.53      0.99964729    0.0048603965
      5608.14      0.99124403    0.0048663337
      5613.75      0.98431486    0.0048724080
      5619.36      0.98645687    0.0048787278
      5624.98      0.99033235    0.0048850865
      5630.60      0.99137633    0.0048878512
      5636.23      0.99312731    0.0048940845
      5641.87      0.99232711    0.0049004789
      5647.51      0.99261280    0.0049069346
      5653.16      0.98309440    0.0049136337
      5658.82      0.97059686    0.0049203729
      5664.47      0.95491420    0.0049272519
      5670.14      0.93597713    0.0049342201
      5675.81      0.91105974    0.0049089701
      5681.48      0.87585023    0.0049158048
      5687.17      0.83748231    0.0049227746
      5692.85      0.79927699    0.0049298914
      5698.55      0.75718772    0.0049371206
      5704.25      0.71867807    0.0049444200
      5709.95      0.68059442    0.0049518633
      5715.66      0.64083375    0.0049596011
      5721.38      0.61454788    0.0049677255
      5727.10      0.59988432    0.0049760203
      5732.83      0.59071799    0.0049841182
      5738.56      0.59234499    0.0049591129
      5744.30      0.60129846    0.0049677305
      5750.04      0.61874205    0.0049776649
      5755.79      0.64645566    0.0049891638
      5761.55      0.67759820    0.0050014984
      5767.31      0.71759537    0.0050140247
      5773.08      0.76182874    0.0050270516
      5778.85      0.80724232    0.0050408128
      5784.63      0.85171484    0.0050539178
      5790.41      0.89777607    0.0050653157
      5796.21      0.94647846    0.0050754307
      5802.00      0.99833051    0.0050848816
      5807.81       1.0454393    0.0050935738
      5813.61       1.0863407    0.0051014286
      5819.43       1.1287499    0.0050788196
      5825.25       1.1573199    0.0050861956
      5831.07       1.1858892    0.0050939766
      5836.90       1.2063249    0.0051016812
      5842.74       1.2234938    0.0051088570
      5848.58       1.2370421    0.0051153302
      5854.43       1.2436150    0.0051213490
      5860.29       1.2447244    0.0051271557
      5866.15       1.2420046    0.0051331875
      5872.01       1.2341046    0.0051386802
      5877.89       1.2249015    0.0051434821
      5883.76       1.2114416    0.0051180998
      5889.65       1.1982414    0.0051245168
      5895.54       1.1872751    0.0051309899
      5901.43       1.1722978    0.0051368201
      5907.34       1.1611569    0.0051429593
      5913.24       1.1524045    0.0051500086
      5919.16       1.1405873    0.0051575562
      5925.08       1.1309833    0.0051653380
      5931.00       1.1240959    0.0051438433
      5936.93       1.1108628    0.0051852686
      5942.87       1.1039369    0.0051933373
      5948.81       1.0926299    0.0052013692
      5954.76       1.0785122    0.0052095348
      5960.72       1.0661868    0.0052177608
      5966.68       1.0527644    0.0051962974
      5972.64       1.0372524    0.0052047368
      5978.62       1.0219233    0.0052131492
      5984.60       1.0080736    0.0052216891
      5990.58      0.99383748    0.0052302444
      5996.57      0.97986233    0.0052387998
      6002.57      0.96981567    0.0052491809
      6008.57      0.95591795    0.0052572994
      6014.58      0.94036921    0.0052654328
      6020.60      0.92812073    0.0052737068
      6026.62      0.91782760    0.0052819776
      6032.65      0.91062610    0.0052593997
      6038.68      0.90322942    0.0052671522
      6044.72      0.90012438    0.0052749555
      6050.76      0.89590376    0.0053163797
      6056.81      0.89180915    0.0052941857
      6062.87      0.88706619    0.0053014777
      6068.93      0.88446128    0.0053088587
      6075.00      0.88054319    0.0053163434
      6081.08      0.87877211    0.0052941615
      6087.16      0.87523602    0.0053348505
      6093.25      0.87536624    0.0053419979
      6099.34      0.87635210    0.0053500421
      6105.44      0.87681315    0.0053308698
      6111.54      0.87593274    0.0053392195
      6117.66      0.87527347    0.0053459347
      6123.78      0.87339485    0.0053866940
      6129.90      0.86745634    0.0053688343
      6136.03      0.86566072    0.0053832620
      6142.17      0.86540450    0.0054003346
      6148.31      0.86496414    0.0053898126
      6154.46      0.86367631    0.0054428043
      6160.61      0.86591825    0.0054611164
      6166.77      0.86187403    0.0054473739
      6172.94      0.85831525    0.0054595890
      6179.11      0.85755609    0.0055027592
      6185.29      0.85220801    0.0055074764
      6191.48      0.84570384    0.0054752789
      6197.67      0.83753330    0.0054723806
      6203.87      0.82826047    0.0055007795
      6210.07      0.81692501    0.0054640114
      6216.28      0.80373358    0.0054618155
      6222.50      0.78859129    0.0054321381
      6228.72      0.77054267    0.0054649870
      6234.95      0.75518776    0.0054632426
      6241.19      0.74021242    0.0054330164
      6247.42      0.72427148    0.0054346533
      6253.67      0.71489609    0.0054677497
      6259.93      0.70483410    0.0054388240
      6266.19      0.69898168    0.0054411635
      6272.46      0.69386975    0.0054752281
      6278.73      0.69411081    0.0054472151
      6285.01      0.69786070    0.0054504856
      6291.29      0.70057535    0.0054230114
      6297.58      0.71008413    0.0054586794
      6303.88      0.71787301    0.0054625589
      6310.19      0.72647822    0.0054349179
      6316.50      0.73513480    0.0054712858
      6322.81      0.74553359    0.0054458027
      6329.14      0.75724798    0.0054514483
      6335.47      0.76885773    0.0054621148
      6341.80      0.78025818    0.0054684159
      6348.14      0.79083847    0.0054741537
      6354.49      0.80101641    0.0054819656
      6360.85      0.80630329    0.0054864031
      6367.21      0.81491459    0.0054930314
      6373.57      0.81777966    0.0054949182
      6379.95      0.82004303    0.0054657482
      6386.33      0.81868387    0.0054968830
      6392.72      0.81680516    0.0054653003
      6399.11      0.81491162    0.0054644177
      6405.51      0.81278184    0.0054636077
      6411.92      0.80807350    0.0054631427
      6418.32      0.80717797    0.0054940439
      6424.74      0.80149779    0.0054628476
      6431.17      0.79821712    0.0054620134
      6437.60      0.79651347    0.0054591421
      6444.04      0.79221326    0.0054567156
      6450.48      0.78716280    0.0054533652
      6456.94      0.77619626    0.0054206080
      6463.39      0.76581198    0.0054171939
      6469.85      0.75227130    0.0054133844
      6476.33      0.73747402    0.0054087528
      6482.80      0.71565586    0.0054059630
      6489.28      0.69832196    0.0054023828
      6495.77      0.67347768    0.0054002282
      6502.27      0.65218162    0.0053966582
      6508.77      0.62801390    0.0053943732
      6515.28      0.61385822    0.0053905515
      6521.80      0.59784662    0.0053877037
      6528.32      0.59036529    0.0053833949
      6534.85      0.58547844    0.0053503319
      6541.38      0.58745123    0.0053457021
      6547.92      0.59434557    0.0053419296
      6554.47      0.61021076    0.0053366326
      6561.03      0.62761319    0.0053324615
      6567.59      0.65029653    0.0053263914
      6574.16      0.67531236    0.0053218432
      6580.73      0.70482753    0.0053149886
      6587.31      0.73692849    0.0052795224
      6593.90      0.76423304    0.0053025028
      6600.50      0.79349584    0.0052951099
      6607.10      0.81857972    0.0052591934
      6613.70      0.84579973    0.0052805092
      6620.32      0.86643754    0.0052438693
      6626.94      0.88581935    0.0052647313
      6633.57      0.89954365    0.0052272764
      6640.20      0.91178194    0.0052184732
      6646.84      0.91768847    0.0052095394
      6653.49      0.91907056    0.0051997468
      6660.14      0.91488180    0.0051621187
      6666.80      0.91178231    0.0051802330
      6673.47      0.90099581    0.0051753896
      6680.14      0.89056320    0.0051575190
      6686.82      0.87966072    0.0051853729
      6693.51      0.87121165    0.0051424836
      6700.20      0.86063829    0.0051320205
      6706.90      0.84818868    0.0051424197
      6713.61      0.83806860    0.0051737453
      6720.32      0.82735027    0.0052243582
      6727.05      0.82289193    0.0052760340
      6733.77      0.81493254    0.0053480540
      6740.51      0.81068357    0.0054194715
      6747.25      0.80581833    0.0054428972
      6754.00      0.80049623    0.0055075126
      6760.75      0.79504822    0.0054826275
      6767.51      0.79374338    0.0054601726
      6774.28      0.79088559    0.0054462884
      6781.05      0.78364005    0.0053450768
      6787.84      0.77873654    0.0052588385
      6794.62      0.77250665    0.0051725415
      6801.42      0.76467881    0.0051112068
      6808.22      0.75859394    0.0050566616
      6815.03      0.75338058    0.0050060521
      6821.85      0.74714719    0.0049247937
      6828.67      0.74029553    0.0048733997
      6835.50      0.73115298    0.0048629675
      6842.33      0.72450735    0.0048024580
      6849.17      0.71758094    0.0047659864
      6856.02      0.70416583    0.0047332383
      6862.88      0.69241200    0.0047096369
      6869.74      0.67853930    0.0046819945
      6876.61      0.66456897    0.0046558414
      6883.49      0.64884914    0.0046296614
      6890.37      0.63808719    0.0045800322
      6897.27      0.62743026    0.0045504600
      6904.16      0.61843945    0.0044520130
      6911.07      0.61448401    0.0043996216
      6917.98      0.61433606    0.0043234584
      6924.89      0.61939704    0.0042498696
      6931.82      0.62771503    0.0042016152
      6938.75      0.64282662    0.0041309186
      6945.69      0.66019290    0.0040617018
      6952.64      0.67771647    0.0039947917
      6959.59      0.69398402    0.0039523028
      6966.55      0.71305959    0.0038796117
      6973.52      0.73217799    0.0038213542
      6980.49      0.75205128    0.0037624213
      6987.47      0.76879696    0.0037216820
      6994.46      0.78664019    0.0036661487
      7001.46      0.79850140    0.0036178003
      7008.46      0.80848424    0.0035812335
      7015.46      0.81487794    0.0035521168
      7022.48      0.82104870    0.0035344857
      7029.51      0.82021989    0.0034994086
      7036.53      0.82012275    0.0034486479
      7043.57      0.81519358    0.0034082919
      7050.62      0.80449548    0.0033657774
      7057.66      0.79540035    0.0033339854
      7064.72      0.78927504    0.0032852788
      7071.79      0.77861551    0.0032339899
      7078.86      0.76734189    0.0031800162
      7085.94      0.75557313    0.0031226379
      7093.03      0.74322117    0.0030630205
      7100.12      0.73215238    0.0030027529
      7107.22      0.72558361    0.0029419254
      7114.33      0.72082161    0.0028803928
      7121.44      0.71352277    0.0028326549
      7128.56      0.70530793    0.0027717599
      7135.69      0.70015059    0.0027065983
      7142.83      0.69650511    0.0026461634
      7149.97      0.69417055    0.0025863220
      7157.12      0.69093230    0.0025273763
      7164.28      0.68886650    0.0025195747
      7171.44      0.68639224    0.0025416155
      7178.62      0.68487526    0.0025703495
      7185.80      0.68423078    0.0026073462
      7192.98      0.68400260    0.0026553094
      7200.17      0.68487432    0.0027181313
      7207.38      0.68615785    0.0028015601
      7214.58      0.68678308    0.0029148854
      7221.80      0.68870373    0.0030708119
      7229.02      0.69152160    0.0032837807
      7236.25      0.69297771    0.0035677764
      7243.49      0.69530231    0.0039367900
      7250.73      0.69746589    0.0044082958
      7257.98      0.69856006    0.0050103665
      7265.24      0.69963924    0.0057720297
      7272.51      0.70098352    0.0067299885
