# starting wavelength =        3119.7000
# ending wavelength =        8272.5300
# O2 telluric scale =        0
# O2 telluric shift =        0
# H2O telluric scale =        0
# H2O telluric shift =        0
      3122.03    -0.088814951     0.019295962
      3125.15    -0.039568251     0.016368517
      3128.28    0.0014997926     0.013541582
      3131.41     0.040028180     0.011872266
      3134.54     0.073432298     0.010953097
      3137.67      0.10145129    0.0098732587
      3140.81      0.12913299    0.0087734992
      3143.95      0.15192421    0.0081762749
      3147.10      0.17863768    0.0077076582
      3150.24      0.20152594    0.0074440115
      3153.39      0.21698170    0.0071233310
      3156.55      0.23155480    0.0068214140
      3159.70      0.24965337    0.0066219557
      3162.86      0.26572451    0.0065113764
      3166.03      0.27424114    0.0063582943
      3169.19      0.28550510    0.0062240097
      3172.36      0.29715838    0.0061346050
      3175.54      0.30877020    0.0060324362
      3178.71      0.32010684    0.0059820865
      3181.89      0.33310092    0.0059985152
      3185.07      0.33382594    0.0059614670
      3188.26      0.32684189    0.0060196220
      3191.45      0.33281753    0.0060361387
      3194.64      0.34138083    0.0060964102
      3197.83      0.34659075    0.0060571022
      3201.03      0.34828003    0.0061193765
      3204.23      0.35181576    0.0061339817
      3207.44      0.35838512    0.0061495546
      3210.64      0.36193057    0.0061568816
      3213.85      0.36057943    0.0061714846
      3217.07      0.36047668    0.0062330508
      3220.28      0.36618290    0.0062497437
      3223.51      0.37008837    0.0062089801
      3226.73      0.37247163    0.0062706576
      3229.96      0.37988003    0.0062872365
      3233.19      0.38198111    0.0063514491
      3236.42      0.37998142    0.0063081684
      3239.66      0.37810701    0.0063245538
      3242.90      0.37547895    0.0063894623
      3246.14      0.37103897    0.0064047875
      3249.39      0.36472787    0.0064130612
      3252.64      0.35942943    0.0064272363
      3255.89      0.35699567    0.0064423591
      3259.14      0.35384166    0.0065083280
      3262.40      0.34843408    0.0064650646
      3265.67      0.33852418    0.0064800462
      3268.93      0.32709738    0.0065459278
      3272.20      0.32142662    0.0065627878
      3275.47      0.31066203    0.0066311959
      3278.75      0.29997626    0.0065834945
      3282.03      0.29521078    0.0065998570
      3285.31      0.28855086    0.0066694266
      3288.60      0.28136286    0.0066847177
      3291.88      0.27182356    0.0067008249
      3295.18      0.26271263    0.0067077081
      3298.47      0.25496546    0.0067225638
      3301.77      0.25510681    0.0067922162
      3305.07      0.24783648    0.0068090267
      3308.38      0.24768011    0.0068266536
      3311.69      0.24792468    0.0068300247
      3315.00      0.25196968    0.0068461975
      3318.31      0.25227670    0.0068633930
      3321.63      0.24974552    0.0069363266
      3324.95      0.25241663    0.0069521373
      3328.28      0.25805730    0.0069000616
      3331.61      0.25883455    0.0069750106
      3334.94      0.25957666    0.0069900805
      3338.27      0.25932771    0.0070060495
      3341.61      0.26345722    0.0070814542
      3344.95      0.26462643    0.0070284077
      3348.30      0.26565105    0.0070436688
      3351.65      0.26585405    0.0071185848
      3355.00      0.26460975    0.0071356956
      3358.35      0.26464890    0.0072144536
      3361.71      0.26180100    0.0072298664
      3365.07      0.25792363    0.0071723633
      3368.44      0.25630172    0.0072538822
      3371.81      0.25177152    0.0072685631
      3375.18      0.24459450    0.0072839646
      3378.56      0.24296434    0.0073637019
      3381.94      0.24175264    0.0073809671
      3385.32      0.24199502    0.0073992665
      3388.70      0.24266136    0.0074015930
      3392.09      0.24269430    0.0074178725
      3395.48      0.24619603    0.0074349526
      3398.88      0.24961398    0.0075200591
      3402.28      0.25265209    0.0075355185
      3405.68      0.25742662    0.0075516481
      3409.09      0.26353840    0.0075684393
      3412.49      0.26796063    0.0075749620
      3415.91      0.27636780    0.0075899750
      3419.32      0.27911264    0.0076056101
      3422.74      0.28745387    0.0076911751
      3426.17      0.29882955    0.0077086724
      3429.59      0.30430469    0.0077270025
      3433.02      0.31350717    0.0078148371
      3436.45      0.32445820    0.0077452072
      3439.89      0.33762516    0.0077620923
      3443.33      0.34913518    0.0078550568
      3446.78      0.36009017    0.0078700995
      3450.22      0.37205872    0.0078857888
      3453.67      0.38087542    0.0079770051
      3457.13      0.39178359    0.0079941721
      3460.58      0.40799141    0.0080125128
      3464.04      0.41929459    0.0080312434
      3467.51      0.43100688    0.0081243453
      3470.98      0.44203434    0.0080481986
      3474.45      0.45610431    0.0080655273
      3477.92      0.46856230    0.0081651188
      3481.40      0.47464182    0.0081802082
      3484.88      0.47872470    0.0081958174
      3488.37      0.47794377    0.0082123771
      3491.86      0.47809597    0.0083108096
      3495.35      0.47193655    0.0083289446
      3498.84      0.46278395    0.0083478116
      3502.34      0.45284711    0.0084492221
      3505.84      0.43827654    0.0084656557
      3509.35      0.42248922    0.0083818551
      3512.86      0.40842628    0.0083993914
      3516.37      0.39198102    0.0085067154
      3519.89      0.37587846    0.0085219583
      3523.41      0.36320926    0.0085378265
      3526.93      0.35093285    0.0086426654
      3530.46      0.33896858    0.0086601128
      3533.99      0.33155223    0.0086780072
      3537.53      0.32624751    0.0086965742
      3541.06      0.32130480    0.0088086730
      3544.60      0.31848105    0.0088246512
      3548.15      0.31833140    0.0088412722
      3551.70      0.32724113    0.0088584947
      3555.25      0.33419228    0.0089725981
      3558.80      0.34795845    0.0089911897
      3562.36      0.35760982    0.0090105254
      3565.92      0.36757139    0.0090305101
      3569.49      0.38284881    0.0091459475
      3573.06      0.40174501    0.0090438334
      3576.64      0.41955618    0.0090614625
      3580.21      0.44083139    0.0090793126
      3583.79      0.45747717    0.0092062614
      3587.38      0.47670782    0.0092213802
      3590.96      0.49815674    0.0092371090
      3594.55      0.51547237    0.0092533521
      3598.15      0.53250884    0.0093756738
      3601.75      0.54517313    0.0093929689
      3605.35      0.54897586    0.0094111723
      3608.96      0.55497503    0.0094295034
      3612.56      0.55831646    0.0095659271
      3616.18      0.55535577    0.0095814935
      3619.79      0.54726083    0.0095975948
      3623.41      0.54212065    0.0096141928
      3627.04      0.53801047    0.0096312317
      3630.66      0.53473806    0.0097643192
      3634.29      0.52824331    0.0097825097
      3637.93      0.52635769    0.0098010040
      3641.57      0.52576250    0.0098198948
      3645.21      0.52828899    0.0098389311
      3648.86      0.52921639    0.0098586429
      3652.50      0.53595767    0.0098785047
      3656.16      0.53662219    0.0097555212
      3659.81      0.54105865    0.0098892966
      3663.47      0.54246549    0.0099065503
      3667.14      0.54212927    0.0099238116
      3670.80      0.53861407    0.0099417632
      3674.48      0.52964265    0.0099597049
      3678.15      0.52103631    0.0099782235
      3681.83      0.51363049    0.0099968415
      3685.51      0.50177350     0.010015705
      3689.20      0.48628834     0.010034475
      3692.88      0.47295282    0.0099119728
      3696.58      0.45853169    0.0099281372
      3700.27      0.44657044    0.0099444070
      3703.98      0.43430026    0.0099609573
      3707.68      0.42419046    0.0099776112
      3711.39      0.41165878    0.0099945382
      3715.10      0.40060737     0.010131646
      3718.81      0.38698872     0.010148772
      3722.53      0.37302642     0.010166364
      3726.26      0.35338895     0.010183806
      3729.98      0.33469231     0.010201709
      3733.71      0.31524686     0.010084337
      3737.45      0.29534846     0.010099707
      3741.18      0.27249878     0.010115270
      3744.93      0.24676860     0.010130954
      3748.67      0.22673774     0.010146776
      3752.42      0.20549177     0.010162720
      3756.17      0.18334954     0.010178502
      3759.93      0.16419038     0.010194484
      3763.69      0.14615288     0.010210427
      3767.45      0.13436623     0.010226537
      3771.22      0.12372591     0.010242583
      3774.99      0.11966089     0.010258742
      3778.77      0.11493222     0.010274864
      3782.54      0.11301172     0.010291118
      3786.33      0.11252372     0.010307179
      3790.11      0.11156660     0.010182807
      3793.90      0.11198247     0.010198473
      3797.70      0.11182247     0.010214564
      3801.50      0.11391423     0.010230254
      3805.30      0.11720717     0.010246148
      3809.10      0.11946789     0.010262080
      3812.91      0.12110212     0.010277658
      3816.73      0.12318384     0.010293587
      3820.54      0.12658351     0.010309093
      3824.36      0.12707214     0.010325067
      3828.19      0.13037662     0.010340578
      3832.02      0.13244211     0.010356141
      3835.85      0.13503345     0.010371323
      3839.68      0.14192195     0.010386856
      3843.52      0.14812021     0.010401968
      3847.37      0.15416849     0.010417446
      3851.22      0.16171375     0.010432514
      3855.07      0.17080887     0.010447734
      3858.92      0.18052671     0.010462987
      3862.78      0.19299510     0.010477843
      3866.64      0.20629687     0.010493068
      3870.51      0.22180596     0.010507837
      3874.38      0.24170937     0.010523051
      3878.26      0.26230729     0.010537651
      3882.13      0.28355464     0.010552621
      3886.02      0.31147715     0.010567142
      3889.90      0.34423393     0.010582042
      3893.79      0.37990814     0.010596486
      3897.69      0.42375362     0.010611351
      3901.59      0.47196067     0.010625764
      3905.49      0.53115293     0.010519574
      3909.39      0.59024402     0.010534288
      3913.30      0.65043754     0.010548354
      3917.22      0.70532212     0.010563053
      3921.13      0.75266159     0.010577179
      3925.06      0.79210747     0.010591711
      3928.98      0.82149729     0.010606138
      3932.91      0.84053406     0.010620616
      3936.84      0.85118329     0.010635167
      3940.78      0.85233199     0.010649798
      3944.72      0.84524619     0.010664512
      3948.67      0.83587834     0.010679361
      3952.61      0.82115554     0.010694330
      3956.57      0.80875834     0.010708811
      3960.52      0.79878192     0.010724054
      3964.48      0.79321578     0.010738775
      3968.45      0.79900667     0.010624675
      3972.42      0.81330880     0.010637615
      3976.39      0.83082904     0.010650821
      3980.37      0.85842004     0.010664133
      3984.35      0.88980857     0.010677419
      3988.33      0.92509897     0.010830746
      3992.32      0.95342423     0.010844251
      3996.31      0.97836526     0.010858595
      4000.31      0.99693008     0.010872520
      4004.31       1.0107616     0.010886703
      4008.31       1.0128425     0.010778677
      4012.32       1.0196835     0.010790239
      4016.33       1.0246109     0.010802251
      4020.35       1.0305135     0.010814200
      4024.37       1.0336137     0.010826407
      4028.40       1.0378626     0.010839020
      4032.42       1.0409802     0.010851950
      4036.46       1.0443763     0.010864791
      4040.50       1.0495912     0.010878334
      4044.54       1.0563434     0.010773537
      4048.58       1.0592025     0.010925706
      4052.63       1.0565907     0.010936563
      4056.68       1.0512848     0.010947441
      4060.74       1.0405218     0.010958979
      4064.80       1.0255889     0.010970508
      4068.86       1.0161568     0.010982766
      4072.93       1.0076619     0.010995059
      4077.01      0.99773899     0.010888507
      4081.08      0.98828102     0.010901642
      4085.17      0.97797271     0.010915302
      4089.25      0.97404215     0.010929388
      4093.34      0.96976026     0.011074678
      4097.43      0.96257664     0.011085738
      4101.53      0.95186590     0.011097413
      4105.63      0.94269486     0.010988732
      4109.74      0.93585313     0.011001305
      4113.85      0.93315308     0.011014523
      4117.96      0.93085409     0.011028282
      4122.08      0.93290240     0.011042758
      4126.20      0.93419577     0.011186476
      4130.33      0.94341246     0.011075583
      4134.46      0.94823063     0.011087258
      4138.59      0.95268789     0.011099506
      4142.73      0.95967483     0.011112573
      4146.88      0.96899855     0.011126155
      4151.02      0.97836895     0.011140927
      4155.18      0.98064015     0.011024358
      4159.33      0.98283882     0.011171997
      4163.49      0.97430337     0.011183887
      4167.65      0.96157285     0.011196535
      4171.82      0.94562441     0.011210175
      4175.99      0.92320733     0.011097113
      4180.17      0.90243848     0.011106648
      4184.35      0.88705433     0.011117403
      4188.54      0.87248999     0.011266724
      4192.72      0.86779479     0.011279416
      4196.92      0.87413269     0.011168371
      4201.11      0.88232726     0.011177256
      4205.31      0.89308175     0.011187278
      4209.52      0.89875279     0.011197911
      4213.73      0.90603002     0.011348762
      4217.94      0.90568351     0.011238473
      4222.16      0.90039260     0.011246638
      4226.38      0.89291091     0.011256041
      4230.61      0.88279172     0.011266198
      4234.84      0.86184036     0.011160591
      4239.08      0.83785150     0.011306477
      4243.32      0.81326858     0.011314010
      4247.56      0.79384488     0.011322922
      4251.81      0.77734779     0.011333197
      4256.06      0.76172392     0.011226837
      4260.32      0.74400702     0.011372153
      4264.58      0.74033402     0.011379655
      4268.84      0.74148950     0.011388712
      4273.11      0.74747622     0.011280467
      4277.38      0.75807643     0.011292671
      4281.66      0.77003293     0.011436125
      4285.94      0.77769398     0.011444058
      4290.23      0.78319831     0.011334318
      4294.52      0.78784521     0.011345469
      4298.81      0.79038129     0.011358530
      4303.11      0.78936472     0.011498780
      4307.42      0.78342321     0.011387616
      4311.72      0.77479839     0.011398192
      4316.04      0.76257670     0.011410329
      4320.35      0.74994257     0.011424581
      4324.67      0.73533013     0.011439986
      4329.00      0.72483551     0.011450277
      4333.33      0.71194861     0.011462432
      4337.66      0.69773062     0.011349160
      4342.00      0.68293871     0.011491679
      4346.34      0.67409565     0.011501930
      4350.69      0.66326968     0.011514219
      4355.04      0.65210873     0.011399716
      4359.39      0.64025041     0.011542627
      4363.75      0.62266103     0.011553260
      4368.12      0.60115847     0.011442428
      4372.48      0.58129436     0.011448976
      4376.86      0.55708714     0.011593143
      4381.23      0.53773871     0.011603938
      4385.61      0.51847360     0.011490238
      4390.00      0.50717101     0.011497536
      4394.39      0.50128416     0.011642774
      4398.79      0.50810388     0.011531923
      4403.18      0.52100476     0.011537687
      4407.59      0.54147451     0.011545912
      4412.00      0.57102559     0.011573105
      4416.41      0.59953839     0.011577794
      4420.82      0.62947681     0.011584963
      4425.25      0.66753636     0.011614345
      4429.67      0.69883161     0.011617488
      4434.10      0.72710313     0.011623298
      4438.54      0.75273669     0.011515566
      4442.97      0.77281275     0.011656699
      4447.42      0.78757436     0.011661802
      4451.86      0.79528071     0.011552697
      4456.32      0.79919929     0.011695427
      4460.77      0.79922993     0.011699570
      4465.24      0.80020143     0.011589492
      4469.70      0.79757363     0.011599634
      4474.17      0.79704482     0.011736827
      4478.65      0.79717521     0.011625987
      4483.12      0.79892896     0.011635693
      4487.61      0.80145582     0.011773605
      4492.09      0.80275253     0.011662081
      4496.59      0.80617891     0.011671878
      4501.08      0.81206846     0.011809672
      4505.58      0.81645330     0.011697483
      4510.09      0.82991867     0.011707524
      4514.60      0.84633175     0.011845153
      4519.12      0.87476585     0.011732919
      4523.63      0.90764444     0.011743173
      4528.16      0.94827561     0.011629615
      4532.69      0.98917027     0.011767594
      4537.22       1.0331876     0.011778434
      4541.76       1.0781645     0.011663023
      4546.30       1.1187035     0.011802385
      4550.85       1.1578762     0.011691662
      4555.40       1.1951665     0.011827931
      4559.95       1.2310072     0.011836754
      4564.51       1.2639910     0.011723609
      4569.08       1.2949119     0.011861573
      4573.65       1.3224285     0.011871500
      4578.22       1.3428898     0.011755572
      4582.80       1.3553128     0.011894972
      4587.38       1.3575993     0.011783264
      4591.97       1.3548388     0.011787683
      4596.56       1.3497021     0.011811458
      4601.16       1.3437938     0.011813689
      4605.76       1.3368468     0.011819594
      4610.37       1.3200419     0.011840462
      4614.98       1.3033332     0.011844294
      4619.59       1.2770491     0.011868394
      4624.21       1.2638706     0.011869716
      4628.84       1.2488489     0.011875521
      4633.47       1.2339226     0.011895712
      4638.10       1.2309069     0.011899718
      4642.74       1.2354159     0.011792979
      4647.38       1.2432636     0.011924091
      4652.03       1.2607565     0.011815223
      4656.68       1.2810233     0.011949104
      4661.34       1.3076909     0.011837985
      4666.00       1.3331429     0.011847385
      4670.67       1.3623260     0.011976996
      4675.33       1.3869883     0.011868605
      4680.01       1.4133830     0.012001114
      4684.69       1.4320854     0.011890712
      4689.38       1.4437770     0.012025090
      4694.07       1.4456874     0.011912887
      4698.76       1.4418927     0.011922027
      4703.46       1.4327622     0.011935120
      4708.16       1.4216261     0.011943221
      4712.87       1.4106505     0.011957834
      4717.58       1.3933717     0.011964422
      4722.30       1.3714269     0.011852566
      4727.03       1.3479528     0.011985397
      4731.75       1.3226522     0.011874649
      4736.48       1.2962981     0.012006742
      4741.22       1.2738550     0.011896660
      4745.96       1.2488523     0.012027933
      4750.71       1.2340292     0.012036959
      4755.46       1.2253467     0.012048865
      4760.22       1.2147344     0.012057255
      4764.97       1.1999785     0.011941705
      4769.74       1.1862030     0.012077434
      4774.51       1.1680101     0.011962161
      4779.29       1.1478608     0.011982006
      4784.07       1.1258473     0.011982564
      4788.85       1.1009669     0.012002736
      4793.64       1.0725345     0.012002626
      4798.43       1.0415837     0.012022871
      4803.23       1.0078997     0.012022583
      4808.03      0.96774540     0.012042713
      4812.84      0.92490352     0.012042269
      4817.66      0.87860019     0.012062134
      4822.48      0.83682798     0.012061435
      4827.30      0.79281520     0.012081140
      4832.12      0.75208741     0.012080603
      4836.96      0.71432054     0.011974145
      4841.79      0.67840451     0.012099453
      4846.63      0.64401019     0.011993179
      4851.48      0.61238847     0.012117828
      4856.33      0.57833383     0.012011969
      4861.19      0.54584102     0.012023282
      4866.05      0.52160116     0.012030655
      4870.92      0.50091756     0.012041070
      4875.79      0.48555423     0.012049583
      4880.66      0.47577731     0.012059088
      4885.55      0.46932503     0.012187780
      4890.43      0.47071475     0.012077097
      4895.32      0.47443254     0.012204808
      4900.22      0.48765690     0.012094927
      4905.12      0.50284760     0.012107809
      4910.02      0.52853920     0.012113169
      4914.94      0.56150617     0.012124218
      4919.85      0.59680064     0.012131050
      4924.77      0.64014940     0.012140997
      4929.70      0.68884098     0.012031688
      4934.62      0.74041721     0.012158015
      4939.56      0.79742611     0.012047221
      4944.50      0.86020635     0.012174872
      4949.44      0.92807939     0.012062371
      4954.39       1.0003845     0.012192537
      4959.35       1.0835325     0.012202451
      4964.31       1.1734304     0.012092034
      4969.27       1.2641743     0.012218567
      4974.24       1.3568873     0.012106447
      4979.22       1.4518971     0.012122819
      4984.20       1.5329997     0.012121130
      4989.18       1.6129160     0.012135607
      4994.17       1.6748186     0.012136301
      4999.16       1.7261273     0.012148724
      5004.16       1.7634592     0.012164949
      5009.17       1.7788676     0.012162666
      5014.18       1.7746993     0.012176553
      5019.19       1.7578385     0.012067817
      5024.21       1.7260716     0.012189103
      5029.23       1.6770844     0.012083233
      5034.26       1.6171169     0.012202555
      5039.30       1.5424360     0.012215663
      5044.34       1.4690262     0.012106962
      5049.39       1.3926759     0.012227581
      5054.43       1.3167088     0.012122646
      5059.49       1.2392167     0.012130852
      5064.55       1.1674799     0.012252367
      5069.61       1.1022102     0.012145402
      5074.68       1.0460774     0.012154293
      5079.76       1.0028833     0.012276899
      5084.84      0.97521440     0.012168015
      5089.92      0.95980217     0.012177477
      5095.01      0.95584115     0.012183636
      5100.11      0.96873435     0.012190599
      5105.21      0.98801983     0.012200113
      5110.31       1.0148329     0.012205628
      5115.42       1.0575552     0.012212546
      5120.54       1.1036211     0.012222240
      5125.66       1.1419606     0.012227389
      5130.79       1.1858765     0.012234386
      5135.92       1.2186999     0.012124152
      5141.05       1.2491009     0.012135848
      5146.20       1.2699338     0.012255329
      5151.34       1.2740747     0.012144688
      5156.49       1.2714033     0.012155940
      5161.65       1.2650539     0.012275957
      5166.81       1.2581704     0.012164698
      5171.98       1.2478531     0.012175323
      5177.15       1.2360541     0.012188110
      5182.33       1.2252192     0.012184125
      5187.51       1.2126846     0.012194153
      5192.70       1.2068592     0.012206045
      5197.89       1.2023149     0.012203182
      5203.09       1.2004315     0.012212300
      5208.29       1.2070656     0.012223271
      5213.50       1.2097259     0.012115754
      5218.72       1.2151652     0.012230058
      5223.93       1.2193947     0.012239737
      5229.16       1.2154919     0.012134230
      5234.39       1.2136125     0.012140990
      5239.62       1.2113493     0.012256108
      5244.86       1.2068688     0.012266376
      5250.11       1.2067913     0.012158516
      5255.36       1.2088855     0.012165555
      5260.61       1.2148700     0.012281161
      5265.87       1.2260993     0.012176200
      5271.14       1.2368422     0.012182067
      5276.41       1.2472361     0.012189188
      5281.69       1.2628100     0.012194539
      5286.97       1.2858742     0.012199069
      5292.26       1.3139121     0.012204879
      5297.55       1.3424768     0.012211805
      5302.85       1.3696276     0.012105181
      5308.15       1.3956216     0.012221327
      5313.46       1.4179364     0.012226744
      5318.77       1.4377862     0.012233219
      5324.09       1.4526260     0.012125996
      5329.42       1.4595507     0.012242920
      5334.75       1.4685724     0.012247708
      5340.08       1.4731200     0.012253447
      5345.42       1.4724878     0.012145415
      5350.77       1.4718958     0.012153200
      5356.12       1.4745254     0.012161894
      5361.48       1.4809424     0.012272943
      5366.83       1.4942687     0.012163958
      5372.20       1.5052848     0.012170741
      5377.58       1.5152212     0.012178389
      5382.95       1.5266708     0.012186586
      5388.34       1.5382497     0.012181979
      5393.72       1.5518731     0.012187691
      5399.12       1.5628888     0.012194168
      5404.52       1.5748859     0.012201070
      5409.92       1.5792712     0.012208791
      5415.33       1.5820649     0.012101485
      5420.75       1.5751939     0.012209596
      5426.17       1.5558354     0.012215272
      5431.60       1.5218117     0.012221480
      5437.03       1.4860789     0.012118466
      5442.47       1.4520583     0.012122034
      5447.91       1.4159903     0.012126346
      5453.36       1.3850070     0.012131170
      5458.81       1.3707291     0.012239911
      5464.27       1.3719991     0.012138988
      5469.73       1.3870449     0.012141998
      5475.20       1.4136291     0.012145468
      5480.68       1.4561635     0.012149296
      5486.16       1.5113768     0.012153470
      5491.65       1.5816013     0.012158013
      5497.14       1.6596966     0.012053376
      5502.64       1.7422712     0.012164417
      5508.14       1.8324589     0.012167245
      5513.65       1.9100397     0.012170128
      5519.16       1.9824645     0.012173512
      5524.68       2.0328470     0.012177160
      5530.20       2.0654573     0.012071373
      5535.73       2.0752586     0.012075348
      5541.27       2.0701192     0.012079505
      5546.81       2.0461086     0.012084061
      5552.36       1.9917839     0.012088583
      5557.91       1.9174209     0.012093379
      5563.47       1.8440314     0.012197526
      5569.04       1.7591784     0.012090762
      5574.60       1.6672481     0.012093790
      5580.18       1.5761568     0.012097103
      5585.76       1.4892433     0.012100277
      5591.35       1.4093467     0.012103758
      5596.94       1.3456582     0.012107265
      5602.53       1.2979048     0.012110798
      5608.14       1.2648021     0.012114443
      5613.75       1.2376122     0.012011275
      5619.36       1.2213467     0.012013432
      5624.98       1.2198582     0.012015626
      5630.60       1.2237096     0.012017747
      5636.23       1.2250957     0.012019713
      5641.87       1.2171424     0.012021857
      5647.51       1.2020324     0.012024172
      5653.16       1.1720454     0.012026460
      5658.82       1.1266845     0.012028595
      5664.47       1.0700942     0.012030592
      5670.14       1.0078368     0.012032010
      5675.81      0.93333751     0.012033246
      5681.48      0.85359050     0.012034432
      5687.17      0.77175720     0.012035430
      5692.85      0.68777962     0.012036598
      5698.55      0.61311490     0.012037695
      5704.25      0.54651383     0.012038868
      5709.95      0.48707712     0.012039944
      5715.66      0.44077830     0.012040790
      5721.38      0.40329100     0.012041770
      5727.10      0.38216474     0.012042688
      5732.83      0.37458091     0.012043662
      5738.56      0.37586634     0.012045271
      5744.30      0.39071304     0.012047480
      5750.04      0.41732715     0.012049792
      5755.79      0.45429542     0.012051336
      5761.55      0.49747131     0.012053101
      5767.31      0.54860801     0.011961082
      5773.08      0.60814914     0.011967807
      5778.85      0.67422604     0.011872462
      5784.63      0.74782779     0.011882969
      5790.41      0.82448859     0.011893625
      5796.21      0.90612918     0.011905804
      5802.00      0.99167479     0.011918989
      5807.81       1.0826754     0.011929738
      5813.61       1.1689898     0.011936121
      5819.43       1.2509877     0.011940257
      5825.25       1.3346461     0.011942643
      5831.07       1.4111142     0.011943065
      5836.90       1.4817489     0.011941458
      5842.74       1.5476488     0.011938459
      5848.58       1.6064191     0.011935642
      5854.43       1.6624944     0.011933540
      5860.29       1.7113050     0.011931265
      5866.15       1.7506223     0.011927737
      5872.01       1.7763471     0.011821799
      5877.89       1.8004249     0.011814377
      5883.76       1.8164557     0.011806615
      5889.65       1.8242839     0.011897642
      5895.54       1.8274399     0.011888375
      5901.43       1.8257713     0.011877971
      5907.34       1.8243931     0.011869844
      5913.24       1.8207313     0.011863970
      5919.16       1.8169202     0.011857433
      5925.08       1.8066415     0.011849749
      5931.00       1.7960711     0.011749204
      5936.93       1.7869439     0.011743611
      5942.87       1.7762057     0.011738985
      5948.81       1.7653937     0.011734696
      5954.76       1.7519569     0.011730861
      5960.72       1.7348604     0.011727676
      5966.68       1.7173263     0.011724969
      5972.64       1.6967728     0.011722108
      5978.62       1.6696736     0.011628629
      5984.60       1.6396440     0.011626435
      5990.58       1.6092911     0.011624339
      5996.57       1.5706447     0.011716236
      6002.57       1.5338976     0.011712405
      6008.57       1.4989695     0.011708826
      6014.58       1.4659472     0.011705654
      6020.60       1.4321038     0.011611560
      6026.62       1.3986743     0.011608661
      6032.65       1.3631550     0.011605786
      6038.68       1.3252152     0.011603275
      6044.72       1.2874736     0.011600840
      6050.76       1.2486027     0.011598789
      6056.81       1.2113613     0.011594457
      6062.87       1.1775943     0.011590673
      6068.93       1.1503491     0.011587192
      6075.00       1.1309195     0.011583813
      6081.08       1.1155006     0.011580862
      6087.16       1.1100138     0.011485822
      6093.25       1.1088502     0.011481008
      6099.34       1.1172513     0.011476591
      6105.44       1.1307395     0.011565564
      6111.54       1.1496409     0.011561834
      6117.66       1.1771849     0.011468993
      6123.78       1.1984663     0.011466612
      6129.90       1.2187792     0.011467423
      6136.03       1.2303848     0.011464576
      6142.17       1.2364626     0.011552635
      6148.31       1.2287243     0.011464823
      6154.46       1.2257603     0.011470276
      6160.61       1.2148646     0.011481816
      6166.77       1.2010737     0.011498639
      6172.94       1.1903327     0.011435545
      6179.11       1.1883050     0.011552934
      6185.29       1.1948492     0.011569787
      6191.48       1.2087882     0.011582605
      6197.67       1.2370135     0.011501054
      6203.87       1.2715208     0.011499943
      6210.07       1.3086198     0.011579421
      6216.28       1.3535655     0.011558685
      6222.50       1.4048555     0.011444013
      6228.72       1.4479662     0.011417313
      6234.95       1.4840684     0.011392324
      6241.19       1.5119302     0.011456122
      6247.42       1.5267492     0.011352672
      6253.67       1.5323848     0.011335968
      6259.93       1.5272647     0.011318368
      6266.19       1.5112224     0.011215050
      6272.46       1.4968744     0.011287068
      6278.73       1.4758794     0.011274571
      6285.01       1.4513996     0.011263934
      6291.29       1.4256249     0.011164382
      6297.58       1.4023898     0.011239709
      6303.88       1.3816562     0.011230697
      6310.19       1.3676939     0.011136143
      6316.50       1.3566181     0.011127256
      6322.81       1.3437158     0.011206779
      6329.14       1.3308434     0.011115687
      6335.47       1.3204723     0.011107271
      6341.80       1.3089537     0.011101303
      6348.14       1.2893408     0.011103004
      6354.49       1.2704213     0.011100456
      6360.85       1.2558419     0.011101515
      6367.21       1.2447198     0.011022490
      6373.57       1.2331952     0.011106488
      6379.95       1.2180852     0.011103604
      6386.33       1.2013560     0.011019785
      6392.72       1.1907098     0.011100568
      6399.11       1.1813616     0.011092404
      6405.51       1.1718237     0.011000896
      6411.92       1.1669687     0.010991170
      6418.32       1.1684167     0.010976241
      6424.74       1.1794382     0.010963652
      6431.17       1.1939178     0.010953448
      6437.60       1.2144922     0.010940841
      6444.04       1.2321090     0.010931426
      6450.48       1.2455290     0.010922791
      6456.94       1.2554837     0.010908030
      6463.39       1.2622467     0.010895189
      6469.85       1.2608112     0.010799394
      6476.33       1.2516624     0.010866429
      6482.80       1.2341975     0.010855105
      6489.28       1.1970688     0.010759461
      6495.77       1.1516104     0.010824137
      6502.27       1.0783411     0.010730207
      6508.77       1.0203039     0.010716432
      6515.28      0.95219178     0.010785874
      6521.80      0.89319998     0.010694555
      6528.32      0.84850537     0.010683439
      6534.85      0.80889580     0.010674764
      6541.38      0.78498085     0.010662828
      6547.92      0.78428397     0.010575976
      6554.47      0.79862220     0.010642139
      6561.03      0.82534821     0.010630872
      6567.59      0.87163691     0.010621669
      6574.16      0.92337304     0.010609746
      6580.73      0.98495134     0.010523242
      6587.31       1.0496041     0.010588380
      6593.90       1.1047030     0.010500969
      6600.50       1.1549439     0.010566729
      6607.10       1.1956769     0.010478564
      6613.70       1.2226796     0.010468908
      6620.32       1.2387464     0.010455908
      6626.94       1.2472645     0.010445519
      6633.57       1.2552834     0.010433092
      6640.20       1.2504680     0.010421878
      6646.84       1.2401471     0.010334739
      6653.49       1.2213935     0.010397920
      6660.14       1.2010065     0.010311243
      6666.80       1.1781291     0.010373675
      6673.47       1.1621089     0.010287238
      6680.14       1.1444494     0.010348947
      6686.82       1.1207508     0.010262877
      6693.51       1.1019981     0.010250803
      6700.20       1.0852455     0.010256677
      6706.90       1.0682914     0.010275326
      6713.61       1.0476116     0.010286043
      6720.32       1.0324297     0.010259454
      6727.05       1.0175806     0.010263750
      6733.77       1.0012659     0.010298346
      6740.51      0.98215886     0.010393618
      6747.25      0.96377899     0.010487199
      6754.00      0.95826831     0.010648710
      6760.75      0.93872238     0.010775879
      6767.51      0.92026998     0.010947527
      6774.28      0.89836265     0.011052045
      6781.05      0.87709410     0.011149746
      6787.84      0.86058894     0.011083910
      6794.62      0.84109131     0.011061812
      6801.42      0.81970904     0.010969925
      6808.22      0.80502273     0.010866671
      6815.03      0.78801337     0.010703669
      6821.85      0.77503361     0.010627079
      6828.67      0.76236890     0.010445637
      6835.50      0.75013093     0.010360818
      6842.33      0.73450398     0.010293915
      6849.17      0.71708328     0.010188709
      6856.02      0.69605488     0.010130205
      6862.88      0.67084918     0.010072518
      6869.74      0.64787165    0.0099583506
      6876.61      0.62565632    0.0099833792
      6883.49      0.60358648    0.0098814711
      6890.37      0.57349928    0.0099227933
      6897.27      0.54921884    0.0098317203
      6904.16      0.53135272    0.0098129204
      6911.07      0.52287528    0.0097950349
      6917.98      0.52406195    0.0097723512
      6924.89      0.54282347    0.0097473008
      6931.82      0.57492027    0.0097193471
      6938.75      0.62506125    0.0096876821
      6945.69      0.68615890    0.0095937437
      6952.64      0.75193007    0.0096340287
      6959.59      0.82236563    0.0095439106
      6966.55      0.89519896    0.0095826269
      6973.52      0.96910270    0.0095560260
      6980.49       1.0347787    0.0094675319
      6987.47       1.0960219    0.0095100511
      6994.46       1.1412203    0.0094297020
      7001.46       1.1787931    0.0094172976
      7008.46       1.1985525    0.0094092258
      7015.46       1.2091987    0.0094024712
      7022.48       1.2065471    0.0093969410
      7029.51       1.2012289    0.0093358614
      7036.53       1.1932924    0.0094154061
      7043.57       1.1795490    0.0094543628
      7050.62       1.1686876    0.0094558257
      7057.66       1.1577442    0.0095941477
      7064.72       1.1459388    0.0096944483
      7071.79       1.1312016    0.0097005515
      7078.86       1.1231330    0.0098185641
      7085.94       1.1134512    0.0097709379
      7093.03       1.1049921    0.0097763293
      7100.12       1.0935645    0.0097617412
      7107.22       1.0800906    0.0097337413
      7114.33       1.0633726    0.0096864995
      7121.44       1.0439668    0.0096394954
      7128.56       1.0264038    0.0095432635
      7135.69       1.0151551    0.0095841047
      7142.83       1.0031900    0.0095719604
      7149.97      0.99864024    0.0094913587
      7157.12       1.0025096    0.0094708861
      7164.28       1.0098019    0.0095076231
      7171.44       1.0249001    0.0094559649
      7178.62       1.0379152    0.0093342700
      7185.80       1.0501608    0.0092649863
      7192.98       1.0668988    0.0092691635
      7200.17       1.0790528    0.0091498715
      7207.38       1.0899165    0.0090765068
      7214.58       1.1043719    0.0089979939
      7221.80       1.1247089    0.0088700473
      7229.02       1.1467648    0.0088661530
      7236.25       1.1682448    0.0088003100
      7243.49       1.1867128    0.0087410627
      7250.73       1.2027137    0.0086353884
      7257.98       1.2259525    0.0085895016
      7265.24       1.2496819    0.0086085052
      7272.51       1.2745242    0.0085690127
      7279.78       1.2858064    0.0084775978
      7287.06       1.2980704    0.0084376651
      7294.35       1.3077275    0.0083988994
      7301.64       1.3161606    0.0083630549
      7308.94       1.3191340    0.0083329815
      7316.25       1.3102344    0.0083002134
      7323.57       1.2899368    0.0082694064
      7330.89       1.2662229    0.0082399205
      7338.22       1.2389117    0.0081593754
      7345.56       1.2110830    0.0081303573
      7352.91       1.1834738    0.0081582010
      7360.26       1.1592724    0.0081311835
      7367.62       1.1346058    0.0081044015
      7374.99       1.1147635    0.0080279964
      7382.37       1.0957310    0.0080014197
      7389.75       1.0801195    0.0079751036
      7397.14       1.0720497    0.0079492902
      7404.53       1.0659970    0.0079306645
      7411.94       1.0561761    0.0079388741
      7419.35       1.0489716    0.0080025067
      7426.77       1.0503298    0.0080811089
      7434.20       1.0566310    0.0080704936
      7441.63       1.0663402    0.0080075321
      7449.07       1.0709575    0.0080124573
      7456.52       1.0705766    0.0082060890
      7463.98       1.0664467    0.0085178128
      7471.45       1.0640986    0.0089456471
      7478.92       1.0597986    0.0094694336
      7486.40       1.0566924     0.010054354
      7493.88       1.0475902     0.010642713
      7501.38       1.0359558     0.011030701
      7508.88       1.0250331     0.011397187
      7516.39       1.0180538     0.011498264
      7523.91      0.99036364     0.011299163
      7531.43      0.96620029     0.010852536
      7538.96      0.92777365     0.010262586
      7546.50      0.89195080    0.0096335718
      7554.05      0.86651455    0.0090468252
      7561.60      0.84442925    0.0085836147
      7569.16      0.82208020    0.0081991981
      7576.73      0.79828580    0.0078814284
      7584.31      0.77635033    0.0076294781
      7591.89      0.75583316    0.0074662029
      7599.49      0.74170648    0.0073532140
      7607.09      0.72953529    0.0072524161
      7614.70      0.72299826    0.0071651065
      7622.31      0.71686531    0.0070929856
      7629.93      0.71567404    0.0070343634
      7637.56      0.71305262    0.0069860814
      7645.20      0.71983602    0.0069066958
      7652.85      0.73327853    0.0068690856
      7660.50      0.75415039    0.0068343229
      7668.16      0.77914472    0.0068010272
      7675.83      0.80676473    0.0067690217
      7683.50      0.83127699    0.0067378698
      7691.19      0.86688714    0.0067067278
      7698.88      0.90858111    0.0066755263
      7706.58      0.95286292    0.0066446791
      7714.29      0.99254520    0.0066136689
      7722.00       1.0321953    0.0065825300
      7729.73       1.0671030    0.0065521776
      7737.45       1.1028198    0.0065231032
      7745.19       1.1429673    0.0064518204
      7752.94       1.1672233    0.0064241306
      7760.69       1.1882138    0.0063976035
      7768.45       1.1943371    0.0062944290
      7776.22       1.1926832    0.0062319058
      7784.00       1.1954188    0.0061616271
      7791.78       1.1929657    0.0060587642
      7799.57       1.1821142    0.0060276652
      7807.37       1.1644053    0.0059282149
      7815.18       1.1380634    0.0058308240
      7822.99       1.1113932    0.0057628162
      7830.82       1.0899295    0.0057032580
      7838.65       1.0609937    0.0056368453
      7846.49       1.0271546    0.0055460359
      7854.34      0.99728848    0.0054580049
      7862.19      0.97045715    0.0054279079
      7870.05      0.94600574    0.0053434147
      7877.93      0.91937236    0.0052835956
      7885.80      0.89318242    0.0052012173
      7893.69      0.86695269    0.0051700497
      7901.58      0.84827900    0.0050891426
      7909.49      0.83392086    0.0050106518
      7917.40      0.81719766    0.0049544487
      7925.31      0.79977861    0.0048810631
      7933.24      0.78349322    0.0048533253
      7941.17      0.76945925    0.0047849983
      7949.11      0.75303250    0.0047363459
      7957.06      0.73916867    0.0046704212
      7965.02      0.72757753    0.0046093650
      7972.98      0.71926415    0.0045714436
      7980.96      0.70810167    0.0045402275
      7988.94      0.69615591    0.0045166163
      7996.93      0.68823388    0.0044854358
      8004.93      0.67631402    0.0044648684
      8012.93      0.66532036    0.0044157181
      8020.95      0.65735237    0.0043867332
      8028.97      0.64817272    0.0043410269
      8036.99      0.63812528    0.0043307315
      8045.03      0.62322379    0.0042825941
      8053.08      0.61100369    0.0042282965
      8061.13      0.59666710    0.0041827591
      8069.20      0.58479466    0.0041205533
      8077.26      0.57550915    0.0040688607
      8085.34      0.56525565    0.0040020820
      8093.43      0.55819854    0.0039448834
      8101.52      0.55118055    0.0038762253
      8109.62      0.54527883    0.0038169433
      8117.73      0.53913222    0.0037487609
      8125.85      0.53211324    0.0036897898
      8133.98      0.52018721    0.0036400375
      8142.11      0.51773660    0.0036744730
      8150.25      0.51528898    0.0037136185
      8158.41      0.51289199    0.0037684108
      8166.56      0.51312298    0.0038241353
      8174.73      0.51379321    0.0039070207
      8182.91      0.51613220    0.0040261651
      8191.09      0.51919926    0.0041665582
      8199.28      0.52472348    0.0043212737
      8207.48      0.53314706    0.0045457929
      8215.69      0.54423290    0.0049010793
      8223.91      0.55710504    0.0053027119
      8232.13      0.57173593    0.0057595460
      8240.36      0.58933681    0.0064215126
      8248.60      0.60825563    0.0074201873
      8256.85      0.62807152    0.0085907029
      8265.11      0.64961488    0.0098922944
