# starting wavelength =        3463.5200
# ending wavelength =        7365.7000
# O2 telluric scale =        0
# O2 telluric shift =        0
# H2O telluric scale =        0
# H2O telluric shift =        0
      3464.04       1.3130413     0.047403833
      3467.51       1.3306965     0.039973582
      3470.98       1.3462991     0.032918913
      3474.45       1.3565720     0.028518946
      3477.92       1.3624019     0.025055042
      3481.40       1.3655060     0.022345657
      3484.88       1.3734115     0.020644526
      3488.37       1.3774683     0.018923644
      3491.86       1.3830317     0.017586906
      3495.35       1.3890750     0.016550888
      3498.84       1.3961851     0.015740675
      3502.34       1.3955590     0.014965298
      3505.84       1.3940712     0.014472308
      3509.35       1.3966582     0.014071230
      3512.86       1.3911257     0.013739133
      3516.37       1.3881319     0.013410507
      3519.89       1.3865491     0.013158646
      3523.41       1.3859655     0.012942087
      3526.93       1.3848936     0.012754250
      3530.46       1.3829447     0.012626860
      3533.99       1.3827734     0.012643946
      3537.53       1.3771173     0.012597632
      3541.06       1.3752747     0.012615864
      3544.60       1.3794073     0.012633155
      3548.15       1.3787967     0.012505339
      3551.70       1.3747973     0.012522967
      3555.25       1.3713243     0.012477288
      3558.80       1.3648454     0.012497413
      3562.36       1.3571964     0.012431612
      3565.92       1.3567302     0.012387125
      3569.49       1.3594931     0.012405157
      3573.06       1.3612539     0.012278069
      3576.64       1.3655289     0.012296326
      3580.21       1.3655095     0.012315815
      3583.79       1.3723568     0.012272508
      3587.38       1.3827396     0.012207073
      3590.96       1.3866999     0.012227896
      3594.55       1.3907554     0.012181903
      3598.15       1.3975210     0.012203976
      3601.75       1.4042879     0.012139466
      3605.35       1.4106981     0.012095518
      3608.96       1.4159119     0.012115948
      3612.56       1.4131478     0.012054767
      3616.18       1.4042618     0.012008068
      3619.79       1.3902068     0.012030572
      3623.41       1.3708593     0.012053072
      3627.04       1.3455382     0.011923028
      3630.66       1.3206518     0.011945373
      3634.29       1.2947425     0.011969009
      3637.93       1.2655314     0.011838180
      3641.57       1.2334955     0.011861488
      3645.21       1.1982861     0.011885817
      3648.86       1.1616181     0.011840686
      3652.50       1.1174276     0.011778553
      3656.16       1.0770647     0.011803424
      3659.81       1.0420187     0.011761419
      3663.47      0.99035171     0.011696764
      3667.14      0.94361262     0.011722255
      3670.80      0.90583234     0.011677465
      3674.48      0.86129290     0.011616036
      3678.15      0.82258311     0.011642444
      3681.83      0.79052078     0.011669404
      3685.51      0.76806484     0.011536403
      3689.20      0.74451839     0.011563151
      3692.88      0.73399124     0.011591934
      3696.58      0.73134352     0.011529566
      3700.27      0.72907350     0.011485923
      3703.98      0.73207891     0.011513826
      3707.68      0.73518647     0.011454214
      3711.39      0.74153496     0.011408119
      3715.10      0.74597807     0.011439671
      3718.81      0.75732894     0.011376796
      3722.53      0.76434842     0.011407972
      3726.26      0.77445353     0.011362778
      3729.98      0.78638710     0.011302020
      3733.71      0.80284490     0.011333885
      3737.45      0.82466272     0.011365917
      3741.18      0.84442820     0.011307360
      3744.93      0.86346784     0.011260491
      3748.67      0.88411037     0.011296154
      3752.42      0.90009284     0.011233319
      3756.17      0.91560320     0.011268669
      3759.93      0.92984070     0.011223595
      3763.69      0.94686461     0.011163093
      3767.45      0.96484169     0.011199581
      3771.22      0.97945888     0.011235375
      3774.99      0.99733039     0.011176660
      3778.77       1.0199877     0.011130227
      3782.54       1.0488470     0.011172191
      3786.33       1.0789534     0.011108340
      3790.11       1.1105986     0.011147197
      3793.90       1.1454607     0.011088897
      3797.70       1.1765277     0.011127709
      3801.50       1.2089181     0.011086154
      3805.30       1.2448138     0.011022945
      3809.10       1.2815760     0.011063947
      3812.91       1.3144419     0.011110112
      3816.73       1.3451316     0.011047423
      3820.54       1.3779991     0.011006543
      3824.36       1.4107406     0.010942881
      3828.19       1.4347174     0.010986234
      3832.02       1.4540386     0.011036209
      3835.85       1.4688446     0.010973001
      3839.68       1.4874887     0.011020531
      3843.52       1.5096969     0.010963304
      3847.37       1.5195626     0.010914391
      3851.22       1.5277819     0.010969178
      3855.07       1.5401807     0.010905042
      3858.92       1.5530035     0.010844351
      3862.78       1.5650741     0.010802968
      3866.64       1.5725184     0.010739810
      3870.51       1.5894770     0.010679979
      3874.38       1.5982655     0.010637980
      3878.26       1.6122550     0.010577121
      3882.13       1.6213494     0.010426178
      3886.02       1.6297187     0.010475668
      3889.90       1.6358036     0.010415497
      3893.79       1.6446641     0.010267478
      3897.69       1.6524975     0.010315674
      3901.59       1.6484010     0.010256016
      3905.49       1.6472475     0.010110121
      3909.39       1.6407268     0.010158380
      3913.30       1.6441028     0.010099007
      3917.22       1.6437569    0.0099548052
      3921.13       1.6384758    0.0099010043
      3925.06       1.6348658    0.0099443688
      3928.98       1.6385910    0.0098015526
      3932.91       1.6345314    0.0097476490
      3936.84       1.6308299    0.0097908152
      3940.78       1.6246528    0.0096502830
      3944.72       1.6220734    0.0095963324
      3948.67       1.6118847    0.0095445497
      3952.61       1.6064914    0.0095005539
      3956.57       1.5913422    0.0094473753
      3960.52       1.5807292    0.0093953006
      3964.48       1.5714026    0.0092617084
      3968.45       1.5643447    0.0092999628
      3972.42       1.5523246    0.0092482949
      3976.39       1.5376432    0.0091180599
      3980.37       1.5294267    0.0090650561
      3984.35       1.5158686    0.0091028829
      3988.33       1.5078227    0.0089768813
      3992.32       1.4981225    0.0089236133
      3996.31       1.4934957    0.0088720341
      4000.31       1.4866397    0.0089092590
      4004.31       1.4816503    0.0087850399
      4008.31       1.4805505    0.0087330633
      4012.32       1.4808822    0.0086826588
      4016.33       1.4774796    0.0086489678
      4020.35       1.4812237    0.0085968681
      4024.37       1.4755900    0.0085459963
      4028.40       1.4690803    0.0084965588
      4032.42       1.4683371    0.0083776790
      4036.46       1.4693974    0.0084124813
      4040.50       1.4690765    0.0083624641
      4044.54       1.4709062    0.0083137615
      4048.58       1.4705634    0.0081971123
      4052.63       1.4713105    0.0082317284
      4056.68       1.4679133    0.0081824646
      4060.74       1.4607233    0.0080666420
      4064.80       1.4504875    0.0080197881
      4068.86       1.4488446    0.0079737577
      4072.93       1.4435399    0.0079286486
      4077.01       1.4370107    0.0079586435
      4081.08       1.4352332    0.0078459975
      4085.17       1.4330637    0.0078004233
      4089.25       1.4322898    0.0077556769
      4093.34       1.4280326    0.0077119003
      4097.43       1.4244077    0.0076760439
      4101.53       1.4181938    0.0076306627
      4105.63       1.4171466    0.0075861705
      4109.74       1.4221041    0.0075424303
      4113.85       1.4244826    0.0074382987
      4117.96       1.4248993    0.0073937794
      4122.08       1.4273417    0.0074204575
      4126.20       1.4310638    0.0073770793
      4130.33       1.4332131    0.0073341420
      4134.46       1.4294201    0.0072337928
      4138.59       1.4317182    0.0071903716
      4142.73       1.4313447    0.0071473443
      4146.88       1.4315467    0.0071049796
      4151.02       1.4311044    0.0070632062
      4155.18       1.4321261    0.0070352016
      4159.33       1.4322917    0.0069924223
      4163.49       1.4338957    0.0069502769
      4167.65       1.4342394    0.0069086570
      4171.82       1.4313924    0.0068675141
      4175.99       1.4293108    0.0068268668
      4180.17       1.4309591    0.0067323600
      4184.35       1.4294801    0.0066929164
      4188.54       1.4272927    0.0067182084
      4192.72       1.4244003    0.0066777448
      4196.92       1.4185702    0.0066376711
      4201.11       1.4111962    0.0065981468
      4205.31       1.4026413    0.0065063907
      4209.52       1.3956391    0.0064679447
      4213.73       1.3862593    0.0064297654
      4217.94       1.3758898    0.0063919526
      4222.16       1.3609142    0.0063544952
      4226.38       1.3476919    0.0063172541
      4230.61       1.3360226    0.0062804402
      4234.84       1.3232074    0.0062508740
      4239.08       1.3044048    0.0062136738
      4243.32       1.2870622    0.0061766298
      4247.56       1.2672482    0.0061400341
      4251.81       1.2495834    0.0061035611
      4256.06       1.2322964    0.0060675735
      4260.32       1.2193509    0.0060317890
      4264.58       1.2033483    0.0059962739
      4268.84       1.1864388    0.0059610464
      4273.11       1.1712129    0.0058798136
      4277.38       1.1565636    0.0058446551
      4281.66       1.1480151    0.0058095826
      4285.94       1.1396848    0.0057750598
      4290.23       1.1328590    0.0057406816
      4294.52       1.1268484    0.0057065105
      4298.81       1.1252763    0.0056725768
      4303.11       1.1241294    0.0056390436
      4307.42       1.1259288    0.0056056938
      4311.72       1.1283578    0.0055724329
      4316.04       1.1357378    0.0054969169
      4320.35       1.1392047    0.0054644729
      4324.67       1.1448815    0.0054321311
      4329.00       1.1550079    0.0053999882
      4333.33       1.1649034    0.0053682895
      4337.66       1.1760657    0.0053366467
      4342.00       1.1899465    0.0053050912
      4346.34       1.2024633    0.0052738534
      4350.69       1.2113502    0.0052429330
      4355.04       1.2263177    0.0052121300
      4359.39       1.2395213    0.0051813465
      4363.75       1.2515045    0.0051509885
      4368.12       1.2633369    0.0051207092
      4372.48       1.2746446    0.0050904612
      4376.86       1.2885637    0.0050605882
      4381.23       1.2989446    0.0050309916
      4385.61       1.3113715    0.0050015019
      4390.00       1.3230920    0.0049720214
      4394.39       1.3362252    0.0049429416
      4398.79       1.3483332    0.0049140575
      4403.18       1.3594529    0.0048852529
      4407.59       1.3692637    0.0048566202
      4412.00       1.3826415    0.0048282937
      4416.41       1.3916881    0.0048000951
      4420.82       1.4018893    0.0047719192
      4425.25       1.4070448    0.0047441471
      4429.67       1.4114951    0.0046822465
      4434.10       1.4157123    0.0046889972
      4438.54       1.4225676    0.0046617352
      4442.97       1.4226300    0.0046348425
      4447.42       1.4256101    0.0046080179
      4451.86       1.4330683    0.0045812334
      4456.32       1.4355747    0.0045141894
      4460.77       1.4395214    0.0044882661
      4465.24       1.4431849    0.0044623462
      4469.70       1.4510305    0.0044367117
      4474.17       1.4585853    0.0044114437
      4478.65       1.4671604    0.0043861975
      4483.12       1.4756263    0.0043611213
      4487.61       1.4823387    0.0043364264
      4492.09       1.4851380    0.0043120262
      4496.59       1.4888995    0.0042876278
      4501.08       1.4943337    0.0042256289
      4505.58       1.4956946    0.0042016745
      4510.09       1.4912480    0.0041777417
      4514.60       1.4894064    0.0041540037
      4519.12       1.4876129    0.0041306409
      4523.63       1.4857255    0.0041074787
      4528.16       1.4806362    0.0040843546
      4532.69       1.4778485    0.0040616162
      4537.22       1.4758725    0.0040392496
      4541.76       1.4715465    0.0039821861
      4546.30       1.4699494    0.0039894378
      4550.85       1.4665033    0.0039671910
      4555.40       1.4619421    0.0039450956
      4559.95       1.4579500    0.0039231700
      4564.51       1.4526041    0.0039016270
      4569.08       1.4499911    0.0038469515
      4573.65       1.4435629    0.0038259332
      4578.22       1.4356143    0.0038052957
      4582.80       1.4298664    0.0037850318
      4587.38       1.4264557    0.0037649334
      4591.97       1.4122238    0.0037450235
      4596.56       1.3980531    0.0037186649
      4601.16       1.3817646    0.0036987778
      4605.76       1.3650149    0.0036790297
      4610.37       1.3475251    0.0036596827
      4614.98       1.3270179    0.0036407314
      4619.59       1.3055683    0.0036218465
      4624.21       1.2864179    0.0035711149
      4628.84       1.2669526    0.0035523935
      4633.47       1.2443033    0.0035597282
      4638.10       1.2213935    0.0035413259
      4642.74       1.1998189    0.0035233508
      4647.38       1.1801846    0.0034750748
      4652.03       1.1651642    0.0034569347
      4656.68       1.1529767    0.0034392074
      4661.34       1.1391725    0.0034218891
      4666.00       1.1249007    0.0034009116
      4670.67       1.1125769    0.0033833028
      4675.33       1.0996081    0.0033661166
      4680.01       1.0845975    0.0033492264
      4684.69       1.0753901    0.0033325640
      4689.38       1.0622589    0.0032888388
      4694.07       1.0489776    0.0032960529
      4698.76       1.0343929    0.0032795549
      4703.46       1.0207356    0.0032635009
      4708.16       1.0085994    0.0032210166
      4712.87       1.0020146    0.0032057459
      4717.58      0.99274022    0.0032128944
      4722.30      0.98283894    0.0031974545
      4727.03      0.97379462    0.0031560590
      4731.75      0.96354261    0.0031414002
      4736.48      0.95474078    0.0031271978
      4741.22      0.94890212    0.0031083517
      4745.96      0.94513872    0.0030939130
      4750.71      0.94037308    0.0030799416
      4755.46      0.93861273    0.0030664367
      4760.22      0.93701603    0.0030266912
      4764.97      0.94046169    0.0030346204
      4769.74      0.94561315    0.0030213589
      4774.51      0.95216672    0.0029831949
      4779.29      0.95782770    0.0029697970
      4784.07      0.96412131    0.0029781268
      4788.85      0.97604726    0.0029654953
      4793.64      0.99054681    0.0029282154
      4798.43       1.0059047    0.0029155804
      4803.23       1.0212168    0.0029242881
      4808.03       1.0331923    0.0028882591
      4812.84       1.0419575    0.0028759328
      4817.66       1.0489242    0.0028640632
      4822.48       1.0522870    0.0028498789
      4827.30       1.0537692    0.0028378796
      4832.12       1.0562894    0.0028263902
      4836.96       1.0517228    0.0027929804
      4841.79       1.0486463    0.0028012967
      4846.63       1.0442301    0.0027901479
      4851.48       1.0365462    0.0027574794
      4856.33       1.0290675    0.0027661571
      4861.19       1.0209503    0.0027553943
      4866.05       1.0130441    0.0027234752
      4870.92       1.0074868    0.0027324817
      4875.79       1.0028090    0.0027007523
      4880.66      0.99787243    0.0026909962
      4885.55      0.99276167    0.0026817179
      4890.43      0.98805784    0.0026692379
      4895.32      0.98334700    0.0026599339
      4900.22      0.97954575    0.0026511248
      4905.12      0.97814568    0.0026391101
      4910.02      0.97860960    0.0026303154
      4914.94      0.97963898    0.0026007508
      4919.85      0.98380735    0.0026103990
      4924.77      0.99030211    0.0026021486
      4929.70      0.99519648    0.0025730848
      4934.62       1.0047318    0.0025831079
      4939.56       1.0149155    0.0025550085
      4944.50       1.0254544    0.0025467697
      4949.44       1.0365440    0.0025572147
      4954.39       1.0504073    0.0025295253
      4959.35       1.0617130    0.0025218270
      4964.31       1.0746754    0.0025130116
      4969.27       1.0861757    0.0025053866
      4974.24       1.0943027    0.0024972858
      4979.22       1.1020601    0.0024896748
      4984.20       1.1090063    0.0024640730
      4989.18       1.1143760    0.0024746775
      4994.17       1.1187299    0.0024677103
      4999.16       1.1260267    0.0024429835
      5004.16       1.1300179    0.0024534541
      5009.17       1.1350006    0.0024289535
      5014.18       1.1413528    0.0024398741
      5019.19       1.1457658    0.0024155660
      5024.21       1.1503573    0.0024101041
      5029.23       1.1546174    0.0024028471
      5034.26       1.1599804    0.0023974635
      5039.30       1.1643311    0.0023907584
      5044.34       1.1697028    0.0023854967
      5049.39       1.1737730    0.0023625091
      5054.43       1.1783331    0.0023741397
      5059.49       1.1835216    0.0023516483
      5064.55       1.1889481    0.0023633322
      5069.61       1.1936094    0.0023413204
      5074.68       1.1991891    0.0023531251
      5079.76       1.2046483    0.0023315613
      5084.84       1.2100283    0.0023269531
      5089.92       1.2137078    0.0023223626
      5095.01       1.2197218    0.0023179078
      5100.11       1.2234408    0.0023136389
      5105.21       1.2268494    0.0023094022
      5110.31       1.2323437    0.0023054204
      5115.42       1.2370139    0.0023013802
      5120.54       1.2414574    0.0022977715
      5125.66       1.2454352    0.0022939566
      5130.79       1.2500323    0.0022905845
      5135.92       1.2523864    0.0022870264
      5141.05       1.2558416    0.0022838993
      5146.20       1.2582623    0.0022805693
      5151.34       1.2631062    0.0022777261
      5156.49       1.2651364    0.0022586513
      5161.65       1.2698634    0.0022720062
      5166.81       1.2734583    0.0022533424
      5171.98       1.2774675    0.0022667695
      5177.15       1.2794057    0.0022484624
      5182.33       1.2803359    0.0022614228
      5187.51       1.2783173    0.0022441331
      5192.70       1.2787509    0.0022420596
      5197.89       1.2775807    0.0022403496
      5203.09       1.2745738    0.0022383910
      5208.29       1.2721148    0.0022369920
      5213.50       1.2698635    0.0022352316
      5218.72       1.2639082    0.0022181799
      5223.93       1.2578366    0.0022324943
      5229.16       1.2519641    0.0022156372
      5234.39       1.2439451    0.0022303073
      5239.62       1.2366812    0.0022134789
      5244.86       1.2297324    0.0022130675
      5250.11       1.2237326    0.0022118995
      5255.36       1.2158817    0.0022115014
      5260.61       1.2122809    0.0022116567
      5265.87       1.2080650    0.0022104624
      5271.14       1.2024239    0.0022106491
      5276.41       1.1978332    0.0021952238
      5281.69       1.1933493    0.0022101426
      5286.97       1.1911512    0.0021952150
      5292.26       1.1892740    0.0022102195
      5297.55       1.1878296    0.0022108649
      5302.85       1.1859769    0.0021960536
      5308.15       1.1838696    0.0022114861
      5313.46       1.1828198    0.0021971673
      5318.77       1.1788821    0.0021979120
      5324.09       1.1759478    0.0022137187
      5329.42       1.1730942    0.0021995625
      5334.75       1.1700404    0.0022007086
      5340.08       1.1656603    0.0021867323
      5345.42       1.1615261    0.0022029185
      5350.77       1.1543253    0.0022044281
      5356.12       1.1480827    0.0021907064
      5361.48       1.1432534    0.0022071903
      5366.83       1.1368935    0.0022090496
      5372.20       1.1299303    0.0021955387
      5377.58       1.1231807    0.0022123536
      5382.95       1.1165798    0.0021988180
      5388.34       1.1086190    0.0022011928
      5393.72       1.1005088    0.0022038924
      5399.12       1.0942590    0.0022050344
      5404.52       1.0852461    0.0022076416
      5409.92       1.0761306    0.0022105826
      5415.33       1.0688375    0.0021980282
      5420.75       1.0612839    0.0022148855
      5426.17       1.0549906    0.0022180326
      5431.60       1.0500946    0.0022058641
      5437.03       1.0458781    0.0022088540
      5442.47       1.0394326    0.0022262610
      5447.91       1.0346126    0.0022298802
      5453.36       1.0293509    0.0022176846
      5458.81       1.0267991    0.0022211678
      5464.27       1.0233409    0.0022389869
      5469.73       1.0185033    0.0022272772
      5475.20       1.0140195    0.0022309020
      5480.68       1.0086559    0.0022347014
      5486.16       1.0019764    0.0022230762
      5491.65      0.99595329    0.0022414423
      5497.14      0.98824944    0.0022453550
      5502.64      0.97856405    0.0022494784
      5508.14      0.96591189    0.0022380512
      5513.65      0.95328113    0.0022425072
      5519.16      0.94044831    0.0022610418
      5524.68      0.92519996    0.0022654739
      5530.20      0.90922570    0.0022540812
      5535.73      0.89302719    0.0022588054
      5541.27      0.87476409    0.0022637020
      5546.81      0.85512786    0.0022825071
      5552.36      0.83701715    0.0022712328
      5557.91      0.81900642    0.0022761459
      5563.47      0.80116601    0.0022811815
      5569.04      0.78384138    0.0022864371
      5574.60      0.76868994    0.0022755558
      5580.18      0.75627101    0.0022805908
      5585.76      0.74549932    0.0022997689
      5591.35      0.73654975    0.0023050627
      5596.94      0.73377057    0.0022947821
      5602.53      0.73153621    0.0022999767
      5608.14      0.73687936    0.0023052653
      5613.75      0.74434022    0.0023107063
      5619.36      0.75501405    0.0023162374
      5624.98      0.76638954    0.0023204637
      5630.60      0.78156262    0.0023258918
      5636.23      0.79674243    0.0023314079
      5641.87      0.81335766    0.0023369939
      5647.51      0.83045002    0.0023427206
      5653.16      0.84871354    0.0023485108
      5658.82      0.86744021    0.0023381456
      5664.47      0.88604168    0.0023440912
      5670.14      0.90543918    0.0023500723
      5675.81      0.92334213    0.0023561535
      5681.48      0.94103234    0.0023623017
      5687.17      0.95799779    0.0023825312
      5692.85      0.97295163    0.0023721169
      5698.55      0.98745452    0.0023782285
      5704.25       1.0024354    0.0023843639
      5709.95       1.0180753    0.0023906033
      5715.66       1.0338575    0.0023968659
      5721.38       1.0456562    0.0024031807
      5727.10       1.0568360    0.0024095523
      5732.83       1.0642188    0.0024159578
      5738.56       1.0712869    0.0024060932
      5744.30       1.0769713    0.0024123841
      5750.04       1.0819919    0.0024187288
      5755.79       1.0867024    0.0024251202
      5761.55       1.0894853    0.0024315414
      5767.31       1.0918378    0.0024379833
      5773.08       1.0943885    0.0024444614
      5778.85       1.0988671    0.0024510356
      5784.63       1.0990077    0.0024577413
      5790.41       1.1000108    0.0024646494
      5796.21       1.0986573    0.0024715418
      5802.00       1.0965878    0.0024615216
      5807.81       1.0921278    0.0024683952
      5813.61       1.0856950    0.0024755318
      5819.43       1.0778990    0.0024833433
      5825.25       1.0711189    0.0024919461
      5831.07       1.0644003    0.0025007885
      5836.90       1.0543661    0.0025097126
      5842.74       1.0469873    0.0025189681
      5848.58       1.0397484    0.0025284462
      5854.43       1.0318095    0.0025374652
      5860.29       1.0237448    0.0025455514
      5866.15       1.0173063    0.0025531196
      5872.01       1.0100684    0.0025603757
      5877.89       1.0053104    0.0025671574
      5883.76       1.0004935    0.0025735214
      5889.65      0.99712630    0.0025796614
      5895.54      0.99227698    0.0025710536
      5901.43      0.98790397    0.0025774290
      5907.34      0.98243729    0.0025836697
      5913.24      0.97703771    0.0025895117
      5919.16      0.96945172    0.0025951116
      5925.08      0.96204430    0.0026003960
      5931.00      0.95583290    0.0026056947
      5936.93      0.95276351    0.0026110070
      5942.87      0.94864851    0.0026159023
      5948.81      0.94174127    0.0026206049
      5954.76      0.94073991    0.0026257293
      5960.72      0.93276690    0.0026159369
      5966.68      0.92802535    0.0026213006
      5972.64      0.92568738    0.0026262805
      5978.62      0.92159624    0.0026316299
      5984.60      0.91643526    0.0026373600
      5990.58      0.91091216    0.0026432663
      5996.57      0.90451217    0.0026493239
      6002.57      0.89930687    0.0026405100
      6008.57      0.89199699    0.0026467390
      6014.58      0.88278907    0.0026702810
      6020.60      0.87411511    0.0026762804
      6026.62      0.86359385    0.0026823969
      6032.65      0.85494453    0.0026884728
      6038.68      0.84373735    0.0026794583
      6044.72      0.83298284    0.0026856277
      6050.76      0.82243752    0.0026917057
      6056.81      0.81062018    0.0026978590
      6062.87      0.80119602    0.0027039895
      6068.93      0.79124592    0.0027101091
      6075.00      0.78233756    0.0027003951
      6081.08      0.77545186    0.0027235727
      6087.16      0.76961424    0.0027294534
      6093.25      0.76546312    0.0027353215
      6099.34      0.76095675    0.0027411809
      6105.44      0.76012243    0.0027313459
      6111.54      0.75930212    0.0027368204
      6117.66      0.76247802    0.0027423705
      6123.78      0.76199406    0.0027479910
      6129.90      0.76400092    0.0027557482
      6136.03      0.76896934    0.0027610060
      6142.17      0.77383475    0.0027661748
      6148.31      0.77988941    0.0027714323
      6154.46      0.78437708    0.0027614177
      6160.61      0.79094679    0.0027666999
      6166.77      0.79660038    0.0027892964
      6172.94      0.80216530    0.0027949658
      6179.11      0.80863792    0.0027863108
      6185.29      0.81361988    0.0027915215
      6191.48      0.81889566    0.0027962771
      6197.67      0.82283615    0.0028194867
      6203.87      0.82789255    0.0028117667
      6210.07      0.83306822    0.0028207543
      6216.28      0.83634250    0.0028310669
      6222.50      0.84264083    0.0028269028
      6228.72      0.84629368    0.0028558922
      6234.95      0.84873701    0.0028662864
      6241.19      0.84897137    0.0028598694
      6247.42      0.85089133    0.0028668494
      6253.67      0.85215020    0.0028899986
      6259.93      0.85110269    0.0028929533
      6266.19      0.84924578    0.0028765931
      6272.46      0.84724540    0.0028756406
      6278.73      0.84322349    0.0028741503
      6285.01      0.83875866    0.0028732638
      6291.29      0.83330215    0.0028733566
      6297.58      0.82616280    0.0028748745
      6303.88      0.81701284    0.0028765333
      6310.19      0.80430815    0.0028765019
      6316.50      0.79181877    0.0028615073
      6322.81      0.77856965    0.0028630655
      6329.14      0.76603336    0.0028812584
      6335.47      0.75456625    0.0028667550
      6341.80      0.74592722    0.0028685890
      6348.14      0.73562140    0.0028872213
      6354.49      0.72721032    0.0028731292
      6360.85      0.72091689    0.0028753650
      6367.21      0.71792547    0.0028614769
      6373.57      0.71664644    0.0028808333
      6379.95      0.71754948    0.0028832591
      6386.33      0.72181699    0.0028691882
      6392.72      0.72729673    0.0028888890
      6399.11      0.73681406    0.0028760137
      6405.51      0.74827954    0.0028794667
      6411.92      0.75981923    0.0028855319
      6418.32      0.76855639    0.0028889842
      6424.74      0.77746484    0.0028921213
      6431.17      0.78764688    0.0028964786
      6437.60      0.79925522    0.0028989387
      6444.04      0.80824167    0.0029024868
      6450.48      0.81803504    0.0029034346
      6456.94      0.82612593    0.0028879501
      6463.39      0.83449258    0.0029043795
      6469.85      0.84190212    0.0028876758
      6476.33      0.84720314    0.0028872541
      6482.80      0.85253832    0.0028868845
      6489.28      0.85725031    0.0028866618
      6495.77      0.86118812    0.0028868192
      6502.27      0.86378516    0.0028862299
      6508.77      0.86578794    0.0028855786
      6515.28      0.86679541    0.0028837700
      6521.80      0.86941109    0.0028658941
      6528.32      0.86924115    0.0028803487
      6534.85      0.86750654    0.0028627639
      6541.38      0.86553283    0.0028605369
      6547.92      0.86442402    0.0028581037
      6554.47      0.86321015    0.0028554579
      6561.03      0.86117646    0.0028536025
      6567.59      0.85645460    0.0028513887
      6574.16      0.85163401    0.0028497461
      6580.73      0.84790177    0.0028474359
      6587.31      0.84532725    0.0028456345
      6593.90      0.84088031    0.0028431332
      6600.50      0.83644681    0.0028409027
      6607.10      0.83166317    0.0028380881
      6613.70      0.82727675    0.0028200158
      6620.32      0.82413027    0.0028167609
      6626.94      0.81842733    0.0028141451
      6633.57      0.81477099    0.0028104756
      6640.20      0.80972018    0.0028075800
      6646.84      0.80597082    0.0028034091
      6653.49      0.80219108    0.0027841918
      6660.14      0.79712031    0.0027956113
      6666.80      0.79104486    0.0027759483
      6673.47      0.78495395    0.0027870679
      6680.14      0.77612165    0.0027819942
      6686.82      0.76777930    0.0027620553
      6693.51      0.75900285    0.0027721502
      6700.20      0.74978798    0.0027517341
      6706.90      0.74134555    0.0027615578
      6713.61      0.73296584    0.0027406367
      6720.32      0.72351200    0.0027346337
      6727.05      0.71781481    0.0027288222
      6733.77      0.71065251    0.0027221957
      6740.51      0.70626878    0.0027011684
      6747.25      0.70390995    0.0027094243
      6754.00      0.70255287    0.0027065793
      6760.75      0.70325310    0.0026967790
      6767.51      0.70454607    0.0027076030
      6774.28      0.70750112    0.0026826345
      6781.05      0.71134185    0.0026781393
      6787.84      0.71427629    0.0026841372
      6794.62      0.71713180    0.0027007530
      6801.42      0.72040360    0.0027270391
      6808.22      0.72442918    0.0027438854
      6815.03      0.72878785    0.0027892031
      6821.85      0.73267355    0.0028231787
      6828.67      0.73647431    0.0028310627
      6835.50      0.74105633    0.0028597429
      6842.33      0.74508302    0.0028410776
      6849.17      0.74972285    0.0028232126
      6856.02      0.75369892    0.0027899319
      6862.88      0.75569831    0.0027546039
      6869.74      0.75894760    0.0027068031
      6876.61      0.76219115    0.0026605347
      6883.49      0.76340962    0.0026121537
      6890.37      0.76504720    0.0025993970
      6897.27      0.76450681    0.0025689927
      6904.16      0.75962726    0.0025251539
      6911.07      0.75693586    0.0024975816
      6917.98      0.75391138    0.0024899615
      6924.89      0.75310089    0.0024565825
      6931.82      0.74937359    0.0024352878
      6938.75      0.74648989    0.0024159170
      6945.69      0.74442329    0.0023872944
      6952.64      0.74281903    0.0023845961
      6959.59      0.74113488    0.0023679715
      6966.55      0.73800979    0.0023511633
      6973.52      0.73761849    0.0023225726
      6980.49      0.73608172    0.0022937585
      6987.47      0.73563331    0.0022507020
      6994.46      0.73545702    0.0022080527
      7001.46      0.73771787    0.0021788022
      7008.46      0.73798439    0.0021380761
      7015.46      0.73683937    0.0020984222
      7022.48      0.73658195    0.0020710947
      7029.51      0.73583201    0.0020324669
      7036.53      0.73658120    0.0019879754
      7043.57      0.73644830    0.0019538566
      7050.62      0.73530863    0.0019311300
      7057.66      0.73652130    0.0018979973
      7064.72      0.73695331    0.0018644540
      7071.79      0.73677542    0.0018316057
      7078.86      0.73635262    0.0018092496
      7085.94      0.73319374    0.0017820652
      7093.03      0.73175527    0.0017606898
      7100.12      0.73045569    0.0017422466
      7107.22      0.72836755    0.0017220656
      7114.33      0.72550089    0.0017010779
      7121.44      0.72335296    0.0016768741
      7128.56      0.72027617    0.0016517354
      7135.69      0.71780694    0.0016252154
      7142.83      0.71436764    0.0015967395
      7149.97      0.70999884    0.0015672550
      7157.12      0.70678955    0.0015364783
      7164.28      0.70400512    0.0015120675
      7171.44      0.70293601    0.0014782142
      7178.62      0.70126084    0.0014435118
      7185.80      0.69805534    0.0014085390
      7192.98      0.69511175    0.0013733307
      7200.17      0.69201944    0.0013377282
      7207.38      0.68789228    0.0012995212
      7214.58      0.68494757    0.0012629252
      7221.80      0.68347766    0.0012275062
      7229.02      0.68026368    0.0011931804
      7236.25      0.67813667    0.0011592046
      7243.49      0.67654683    0.0011320814
      7250.73      0.67448618    0.0011306216
      7257.98      0.67194440    0.0011383377
      7265.24      0.66937654    0.0011491123
      7272.51      0.66661370    0.0011636222
      7279.78      0.66370459    0.0011831185
      7287.06      0.66042400    0.0012093142
      7294.35      0.65720021    0.0012448836
      7301.64      0.65386029    0.0012940833
      7308.94      0.65082628    0.0013624109
      7316.25      0.64824980    0.0014557545
      7323.57      0.64440300    0.0015804213
      7330.89      0.64078753    0.0017420500
      7338.22      0.63686258    0.0019491770
      7345.56      0.63272029    0.0022135488
      7352.91      0.62825782    0.0025478807
      7360.26      0.62343837    0.0029686372
