# starting wavelength =        3416.9100
# ending wavelength =        7265.1300
# O2 telluric scale =        0
# O2 telluric shift =        0
# H2O telluric scale =        0
# H2O telluric shift =        0
      3419.32    -0.025765014     -0.28159740
      3422.74     -0.13073608     -0.24523603
      3426.17     -0.18127964     -0.21099810
      3429.59     -0.20451303     -0.18379297
      3433.02     -0.23973755     -0.16240125
      3436.45     -0.24713688     -0.14278160
      3439.89     -0.25837313     -0.13048276
      3443.33     -0.31401984     -0.12096016
      3446.78     -0.31841953      0.11359026
      3450.22     -0.29231820      0.10786723
      3453.67     -0.22388406      0.10386277
      3457.13     -0.18379811      0.10002619
      3460.58     -0.14256208     0.096941443
      3464.04    -0.089924005     0.094421497
      3467.51    -0.066624141    -0.091684944
      3470.98    -0.025285657    -0.089957903
      3474.45   -0.0029493664    -0.088479619
      3477.92  -0.00067910625    -0.087204108
      3481.40     0.028735770     0.085961495
      3484.88     0.058910287     0.086152508
      3488.37     0.056288099     0.085892853
      3491.86     0.097803765     0.086087096
      3495.35      0.20058838     0.085849938
      3498.84      0.22961827     0.085480112
      3502.34      0.24256491     0.085676733
      3505.84      0.22380365     0.085421345
      3509.35      0.20719678     0.085628195
      3512.86      0.16096834     0.084819234
      3516.37     0.094580456     0.085022788
      3519.89     0.056121150     0.085222373
      3523.41     0.058772568     0.084419946
      3526.93     0.090312573     0.084623664
      3530.46      0.13974223     0.084830428
      3533.99      0.11919639     0.084588824
      3537.53     0.090730231     0.084230438
      3541.06      0.10369873     0.083988286
      3544.60     0.085972859     0.084191678
      3548.15     0.031919489     0.084417305
      3551.70     0.012298127     0.083596131
      3555.25    -0.020468478     0.083817801
      3558.80    -0.038214040     0.084038545
      3562.36    -0.043846789     0.083221670
      3565.92    0.0023506903     0.083443579
      3569.49     0.040735609     0.083672688
      3573.06     0.051217780     0.083436418
      3576.64     0.029096092     0.083076605
      3580.21    0.0058086393     0.083313257
      3583.79    -0.013746787     0.083058061
      3587.38    -0.070741707     0.082720016
      3590.96    -0.096221862     0.082956858
      3594.55    -0.090384220     0.082718473
      3598.15    -0.063517547     0.082950080
      3601.75    -0.046882517     0.082614726
      3605.35    -0.023764985     0.082358399
      3608.96    -0.026750476     0.082624236
      3612.56    -0.094236682     0.082270523
      3616.18    -0.094886717     0.082534579
      3619.79     -0.10959368     0.082277619
      3623.41    -0.079177543     0.081942569
      3627.04    -0.034365678     0.082203692
      3630.66    -0.016209892     0.081970208
      3634.29    -0.030127730     0.081614123
      3637.93     0.031099523     0.081886278
      3641.57    0.0065866233     0.082165488
      3645.21     0.016285760     0.081934394
      3648.86     0.033830868     0.081574659
      3652.50     0.030226436     0.081859257
      3656.16     0.034744071     0.082157085
      3659.81    0.0035984715     0.081266694
      3663.47     0.059922623     0.081569495
      3667.14      0.11340702     0.081861069
      3670.80      0.22860393     0.081533921
      3674.48      0.22175471     0.081271505
      3678.15      0.22182619     0.083046664
      3681.83      0.21745144     0.084941330
      3685.51      0.24785438     0.087500260
      3689.20      0.24800561     0.090022609
      3692.88      0.29299666     0.093110723
      3696.58      0.34108688     0.098628176
      3700.27      0.34058579     0.085562976
      3703.98      0.35793141     0.085823396
      3707.68      0.37930381     0.088844283
      3711.39      0.36862170     0.091135770
      3715.10      0.33115853     0.094969925
      3718.81      0.34923794      0.10042699
      3722.53      0.33920684      0.10314072
      3726.26      0.26287138      0.10860418
      3729.98      0.23916769      0.11290086
      3733.71      0.18177722      0.11476513
      3737.45      0.12597843      0.11315884
      3741.18     0.026935340      0.10769954
      3744.93    -0.019313190      0.10353908
      3748.67    0.0058921336     0.099968413
      3752.42    -0.047118750     0.095314224
      3756.17    -0.038361004    -0.090974217
      3759.93    -0.038548627     0.090481587
      3763.69    -0.033879428     0.089913921
      3767.45    -0.090919349     0.098747930
      3771.22    -0.065311342     0.091376802
      3774.99    -0.039884747     0.087427266
      3778.77    0.0095838966     0.084628624
      3782.54      0.12289577     0.081844486
      3786.33      0.14746297     0.080827123
      3790.11      0.19539141     0.080469102
      3793.90      0.22136027     0.080903782
      3797.70      0.28698139     0.081389842
      3801.50      0.37100386     0.081034769
      3805.30      0.38940992     0.081505317
      3809.10      0.37907383     0.080450513
      3812.91      0.35528848     0.080103699
      3816.73      0.34855306     0.079878385
      3820.54      0.30105293     0.079522418
      3824.36      0.27482617     0.079182330
      3828.19      0.21650550     0.078954576
      3832.02      0.16259300     0.078605131
      3835.85      0.13625250     0.078270703
      3839.68     0.088012555     0.078043076
      3843.52      0.17702088     0.077699246
      3847.37      0.22232638     0.076676472
      3851.22      0.29364761     0.076367252
      3855.07      0.38523927     0.076804360
      3858.92      0.50299016     0.075793148
      3862.78      0.52012819     0.075486299
      3866.64      0.60798886     0.075920846
      3870.51      0.64692264     0.074919496
      3874.38      0.66595622     0.074613617
      3878.26      0.71259719     0.074324915
      3882.13      0.72916429     0.074055074
      3886.02      0.70812136     0.073749207
      3889.90      0.72561569     0.073459567
      3893.79      0.72898699     0.073200409
      3897.69      0.70741940     0.072893944
      3901.59      0.72765663     0.072601509
      3905.49      0.70593221     0.071666596
      3909.39      0.69996587     0.072049488
      3913.30      0.67184253     0.071756238
      3917.22      0.71794149     0.070844993
      3921.13      0.71957735     0.070541286
      3925.06      0.75144998     0.070922387
      3928.98      0.78478141     0.070635360
      3932.91      0.78986124     0.069730302
      3936.84      0.77762154     0.069432077
      3940.78      0.78053769     0.069809875
      3944.72      0.77720891     0.068932747
      3948.67      0.78725792     0.068631602
      3952.61      0.84845993     0.068340736
      3956.57      0.81663776     0.068150414
      3960.52      0.83447693     0.067846347
      3964.48      0.85129219     0.067551951
      3968.45      0.86507512     0.067268323
      3972.42      0.87793470     0.067078160
      3976.39      0.89017973     0.066781306
      3980.37      0.82433070     0.066493391
      3984.35      0.78447237     0.066210989
      3988.33      0.77004955     0.065372246
      3992.32      0.77930176     0.065737691
      3996.31      0.76281912     0.065450718
      4000.31      0.80698640     0.065174343
      4004.31      0.85045301     0.064344743
      4008.31      0.88564793     0.064081275
      4012.32      0.91719283     0.064429435
      4016.33      0.98221199     0.064152114
      4020.35       1.0285408     0.063332544
      4024.37       1.0542445     0.063072786
      4028.40       1.0689993     0.062815421
      4032.42       1.1308376     0.062565314
      4036.46       1.1946522     0.062341295
      4040.50       1.2507017     0.062079749
      4044.54       1.2358718     0.061824876
      4048.58       1.2685155     0.061574453
      4052.63       1.2313923     0.060805751
      4056.68       1.1593818     0.060548549
      4060.74       1.1194312     0.060855248
      4064.80       1.0291203     0.060602911
      4068.86      0.94500190     0.060356509
      4072.93      0.89492172     0.059610080
      4077.01      0.87397605     0.059355954
      4081.08      0.79644537     0.059106722
      4085.17      0.74016754     0.059407397
      4089.25      0.72670395     0.059162851
      4093.34      0.70973199     0.058444220
      4097.43      0.66475378     0.058193179
      4101.53      0.62426044     0.057946811
      4105.63      0.61429532     0.057703219
      4109.74      0.66466246     0.057463061
      4113.85      0.64602726     0.057226941
      4117.96      0.63600733     0.057064553
      4122.08      0.63874786     0.056819793
      4126.20      0.66451663     0.056578369
      4130.33      0.63727867     0.056340188
      4134.46      0.57175982     0.056105957
      4138.59      0.55612319     0.055874362
      4142.73      0.54164957     0.055183324
      4146.88      0.55646015     0.054957814
      4151.02      0.55594222     0.054734481
      4155.18      0.50499981     0.054513392
      4159.33      0.49892407     0.054790197
      4163.49      0.52436129     0.054561836
      4167.65      0.50357856     0.053886094
      4171.82      0.47898715     0.053664058
      4175.99      0.47682321     0.053443999
      4180.17      0.51390217     0.053226459
      4184.35      0.54409225     0.053010307
      4188.54      0.56039214     0.052795519
      4192.72      0.52199976     0.052583333
      4196.92      0.54481665     0.052372635
      4201.11      0.57123451     0.051737143
      4205.31      0.55236623     0.051523338
      4209.52      0.54497841     0.051312211
      4213.73      0.53073094     0.051102280
      4217.94      0.53259302     0.050894431
      4222.16      0.52072583     0.050689026
      4226.38      0.50765180     0.050937732
      4230.61      0.50563719     0.050732582
      4234.84      0.48231576     0.050528684
      4239.08      0.46495216     0.050326116
      4243.32      0.45115594     0.049736630
      4247.56      0.42031153     0.049533895
      4251.81      0.44514948     0.049331733
      4256.06      0.45126492     0.049131755
      4260.32      0.48523117     0.048932047
      4264.58      0.48538097     0.048735500
      4268.84      0.47345895     0.048539600
      4273.11      0.46015294     0.048343980
      4277.38      0.48997569     0.048151532
      4281.66      0.51630588     0.047959196
      4285.94      0.51817051     0.047768585
      4290.23      0.54104679     0.047578625
      4294.52      0.54412272     0.047389320
      4298.81      0.50883493     0.047201994
      4303.11      0.49393150     0.047015682
      4307.42      0.48163008     0.046454389
      4311.72      0.47823035     0.046271806
      4316.04      0.45723672     0.046089388
      4320.35      0.44684876     0.045908464
      4324.67      0.43239606     0.045728838
      4329.00      0.43711459     0.045548885
      4333.33      0.42903438     0.045372522
      4337.66      0.43970889     0.045195354
      4342.00      0.46228219     0.045019929
      4346.34      0.45842051     0.044460177
      4350.69      0.46261392     0.044287167
      4355.04      0.47338064     0.044117368
      4359.39      0.47579656     0.043947030
      4363.75      0.46697948     0.043777833
      4368.12      0.47288439     0.043611011
      4372.48      0.47747901     0.043443389
      4376.86      0.47028645     0.043278095
      4381.23      0.48819752     0.043114204
      4385.61      0.49221521     0.042949722
      4390.00      0.48217626     0.042788554
      4394.39      0.49295926     0.042626373
      4398.79      0.52166039     0.042466701
      4403.18      0.53880978     0.042309372
      4407.59      0.54191495     0.042151215
      4412.00      0.56034784     0.041623943
      4416.41      0.53239354     0.041466225
      4420.82      0.52227624     0.041310672
      4425.25      0.52341183     0.041157151
      4429.67      0.49373401     0.041002727
      4434.10      0.49318242     0.040851334
      4438.54      0.45071286     0.041018665
      4442.97      0.43626463     0.040867618
      4447.42      0.42848692     0.040719168
      4451.86      0.44299391     0.040569951
      4456.32      0.44415387     0.040080410
      4460.77      0.45543285     0.039931250
      4465.24      0.47582245     0.039783765
      4469.70      0.50159444     0.039639316
      4474.17      0.51721827     0.039493800
      4478.65      0.57422534     0.039351505
      4483.12      0.64489461     0.039209976
      4487.61      0.70816372     0.038745209
      4492.09      0.74467577     0.038609405
      4496.59      0.78644500     0.038472710
      4501.08      0.79487443     0.038629663
      4505.58      0.82431192     0.038489590
      4510.09      0.89224373     0.038351572
      4514.60      0.91366903     0.038216762
      4519.12      0.96528256     0.037765751
      4523.63      0.97909707     0.037635251
      4528.16      0.97615840     0.037506187
      4532.69       1.0151671     0.037378781
      4537.22       1.0403240     0.037254750
      4541.76       1.0650269     0.037130218
      4546.30       1.0588061     0.036963019
      4550.85       1.0755596     0.036836211
      4555.40       1.1121161     0.036711579
      4559.95       1.1107510     0.036590478
      4564.51       1.1550219     0.036469235
      4569.08       1.1875606     0.036042129
      4573.65       1.2225595     0.035919256
      4578.22       1.2504694     0.035798976
      4582.80       1.2691300     0.035953519
      4587.38       1.2685810     0.035836618
      4591.97       1.2556120     0.035425413
      4596.56       1.2748973     0.035305818
      4601.16       1.2514656     0.035189448
      4605.76       1.2465993     0.035076041
      4610.37       1.2084944     0.034947597
      4614.98       1.2306900     0.034830734
      4619.59       1.2713743     0.034715009
      4624.21       1.2883710     0.034602746
      4628.84       1.3028004     0.034493219
      4633.47       1.2968126     0.034111189
      4638.10       1.3076236     0.034256753
      4642.74       1.2921818     0.034146132
      4647.38       1.2923674     0.034039163
      4652.03       1.3129043     0.033664143
      4656.68       1.2954687     0.033563773
      4661.34       1.2795976     0.033706594
      4666.00       1.2441136     0.033333051
      4670.67       1.2080669     0.033232960
      4675.33       1.1748930     0.033135221
      4680.01       1.1187436     0.033040980
      4684.69       1.0695425     0.032913387
      4689.38       1.0355559     0.032815630
      4694.07       1.0013446     0.032721759
      4698.76      0.98201586     0.032631256
      4703.46      0.99991139     0.032508222
      4708.16      0.98408566     0.032414598
      4712.87      0.99767562     0.032324485
      4717.58      0.96399545     0.031972998
      4722.30      0.95199597     0.031880340
      4727.03      0.94103539     0.032028415
      4731.75      0.95345329     0.031686536
      4736.48      0.97564633     0.031594578
      4741.22      0.98317512     0.031506338
      4745.96      0.95113232     0.031408432
      4750.71      0.93095002     0.031316970
      4755.46      0.93680487     0.031230091
      4760.22      0.92725697     0.030907385
      4764.97      0.90579174     0.031048801
      4769.74      0.86617676     0.030963146
      4774.51      0.83436212     0.030644281
      4779.29      0.81261445     0.030788167
      4784.07      0.76704888     0.030704113
      4788.85      0.73673955     0.030389327
      4793.64      0.70773783     0.030315048
      4798.43      0.66300873     0.030452767
      4803.23      0.62284306     0.030142084
      4808.03      0.55758053     0.030069279
      4812.84      0.52660025     0.030208406
      4817.66      0.49544568     0.029902139
      4822.48      0.48941133     0.029832937
      4827.30      0.47329660     0.029742705
      4832.12      0.46554822     0.029671030
      4836.96      0.46511139     0.029604691
      4841.79      0.46929796     0.029516475
      4846.63      0.49812610     0.029447823
      4851.48      0.51162470     0.029155233
      4856.33      0.53409386     0.029297419
      4861.19      0.51711424     0.029231812
      4866.05      0.55161773     0.028941351
      4870.92      0.59572693     0.029085819
      4875.79      0.63711469     0.028803018
      4880.66      0.68472215     0.028735523
      4885.55      0.71477291     0.028882190
      4890.43      0.74481222     0.028601214
      4895.32      0.76320714     0.028537277
      4900.22      0.77976988     0.028471713
      4905.12      0.77261815     0.028406653
      4910.02      0.78456398     0.028137765
      4914.94      0.80231640     0.028280201
      4919.85      0.83021447     0.028219608
      4924.77      0.86213276     0.028158104
      4929.70      0.89333752     0.028096443
      4934.62      0.90592986     0.027835298
      4939.56      0.95691172     0.027977827
      4944.50      0.99893722     0.027716893
      4949.44       1.0399376     0.027669126
      4954.39       1.0916067     0.027602805
      4959.35       1.1657048     0.027554488
      4964.31       1.2310800     0.027492143
      4969.27       1.2682000     0.027443780
      4974.24       1.3038221     0.027385210
      4979.22       1.3148295     0.027336381
      4984.20       1.3103722     0.027087841
      4989.18       1.2914374     0.027232547
      4994.17       1.2644906     0.027191081
      4999.16       1.2139437     0.027132070
      5004.16       1.1621678     0.026891182
      5009.17       1.1122882     0.026842758
      5014.18       1.0508689     0.026797192
      5019.19      0.99138909     0.026749918
      5024.21      0.90929877     0.026706380
      5029.23      0.83234559     0.026660004
      5034.26      0.79167747     0.026618151
      5039.30      0.75552846     0.026573139
      5044.34      0.72559353     0.026532573
      5049.39      0.70715204     0.026488729
      5054.43      0.66476231     0.026449624
      5059.49      0.61436136     0.026406884
      5064.55      0.58778179     0.026369547
      5069.61      0.59811749     0.026328112
      5074.68      0.58623350     0.026108985
      5079.76      0.58355315     0.026252377
      5084.84      0.59116786     0.026036296
      5089.92      0.61751602     0.025995176
      5095.01      0.66485304     0.025966685
      5100.11      0.70632711     0.025925958
      5105.21      0.75554856     0.025899098
      5110.31      0.80163202     0.025859479
      5115.42      0.83987177     0.025835282
      5120.54      0.83757147     0.025796467
      5125.66      0.86611530     0.025764058
      5130.79      0.90626828     0.025736225
      5135.92      0.94010420     0.025703797
      5141.05      0.95068581     0.025679468
      5146.20      0.94500803     0.025646917
      5151.34      0.92045862     0.025441311
      5156.49      0.90809075     0.025593095
      5161.65      0.90791365     0.025387168
      5166.81      0.90645915     0.025542421
      5171.98      0.86390688     0.025336499
      5177.15      0.85191701     0.025314792
      5182.33      0.83249897     0.025288957
      5187.51      0.83428801     0.025266731
      5192.70      0.85554865     0.025249492
      5197.89      0.86178378     0.025222212
      5203.09      0.86769185     0.025203959
      5208.29      0.88435645     0.025010097
      5213.50      0.87741902     0.025161671
      5218.72      0.85539128     0.024972574
      5223.93      0.88634313     0.024953033
      5229.16      0.90849743     0.025108447
      5234.39      0.92511686     0.024919161
      5239.62      0.94564887     0.025072608
      5244.86      0.97580621     0.024889130
      5250.11       1.0113838     0.024871630
      5255.36       1.0552826     0.024857855
      5260.61       1.0774438     0.024844717
      5265.87       1.1051851     0.024829723
      5271.14       1.1237924     0.024647280
      5276.41       1.1402912     0.024805966
      5281.69       1.1409801     0.024793371
      5286.97       1.1577171     0.024613183
      5292.26       1.1824162     0.024772924
      5297.55       1.1176649     0.024762225
      5302.85       1.1621422     0.024583663
      5308.15       1.2114926     0.024579349
      5313.46       1.2385326     0.024736479
      5318.77       1.2798499     0.024559531
      5324.09       1.3291432     0.024556485
      5329.42       1.3785473     0.024544841
      5334.75       1.4231255     0.024540234
      5340.08       1.4645044     0.024538382
      5345.42       1.5017741     0.024369407
      5350.77       1.5419923     0.024525665
      5356.12       1.5707934     0.024524461
      5361.48       1.5796987     0.024359244
      5366.83       1.5888122     0.024356149
      5372.20       1.5704037     0.024515474
      5377.58       1.5154069     0.024517298
      5382.95       1.4423046     0.024352472
      5388.34       1.3732880     0.024352261
      5393.72       1.2796264     0.024514152
      5399.12       1.1923342     0.024354247
      5404.52       1.2091051     0.024354611
      5409.92       1.1645767     0.024356628
      5415.33       1.1262535     0.024195811
      5420.75       1.1078118     0.024362082
      5426.17       1.0939413     0.024364736
      5431.60       1.1098011     0.024368805
      5437.03       1.1415622     0.024209554
      5442.47       1.1745616     0.024216869
      5447.91       1.2256778     0.024383346
      5453.36       1.2972349     0.024389123
      5458.81       1.3833654     0.024230715
      5464.27       1.4694301     0.024239332
      5469.73       1.5371438     0.024249871
      5475.20       1.5774050     0.024261387
      5480.68       1.6086314     0.024258787
      5486.16       1.6585611     0.024268430
      5491.65       1.6740299     0.024279584
      5497.14       1.6653020     0.024292007
      5502.64       1.6614173     0.024141960
      5508.14       1.6313872     0.024152849
      5513.65       1.5760447     0.024164702
      5519.16       1.5266239     0.024330682
      5524.68       1.4812464     0.024344616
      5530.20       1.4062935     0.024198480
      5535.73       1.3716333     0.024210494
      5541.27       1.3261012     0.024223841
      5546.81       1.2750396     0.024237900
      5552.36       1.2283783     0.024253234
      5557.91       1.2070977     0.024107154
      5563.47       1.1950359     0.024279160
      5569.04       1.1664913     0.024293290
      5574.60       1.1607293     0.024309158
      5580.18       1.1548415     0.024324946
      5585.76       1.1623329     0.024342456
      5591.35       1.1696199     0.024196977
      5596.94       1.1688632     0.024215281
      5602.53       1.1750522     0.024233776
      5608.14       1.1869773     0.024253396
      5613.75       1.1734756     0.024273063
      5619.36       1.1479089     0.024293871
      5624.98       1.1180747     0.024151522
      5630.60       1.0907228     0.024319252
      5636.23       1.0490708     0.024338632
      5641.87       1.0117431     0.024359553
      5647.51      0.94805654     0.024379956
      5653.16      0.87156487     0.024401751
      5658.82      0.79443733     0.024422846
      5664.47      0.74613823     0.024445057
      5670.14      0.68950231     0.024467113
      5675.81      0.65384273     0.024331343
      5681.48      0.61758355     0.024352556
      5687.17      0.58369743     0.024374876
      5692.85      0.57844117     0.024396881
      5698.55      0.59204641     0.024420197
      5704.25      0.61272270     0.024443934
      5709.95      0.64538643     0.024470077
      5715.66      0.66356794     0.024496962
      5721.38      0.70126789     0.024523330
      5727.10      0.71817673     0.024549193
      5732.83      0.75304007     0.024577340
      5738.56      0.78375618     0.024610275
      5744.30      0.76742472     0.024489176
      5750.04      0.77610222     0.024535104
      5755.79      0.79326207     0.024582192
      5761.55      0.81718073     0.024630610
      5767.31      0.84328371     0.024683234
      5773.08      0.88748992     0.024734667
      5778.85      0.92958950     0.024777804
      5784.63      0.96847975     0.024814039
      5790.41       1.0164259     0.024846579
      5796.21       1.0765675     0.024728931
      5802.00       1.1315389     0.024753403
      5807.81       1.1972114     0.024774756
      5813.61       1.2482572     0.024795815
      5819.43       1.3207338     0.024818969
      5825.25       1.3748163     0.024842542
      5831.07       1.4435776     0.024863967
      5836.90       1.4795358     0.024881742
      5842.74       1.5215707     0.024897110
      5848.58       1.5336444     0.024911117
      5854.43       1.5341993     0.024926252
      5860.29       1.5609112     0.024939814
      5866.15       1.5693466     0.024797501
      5872.01       1.5769683     0.024807560
      5877.89       1.5702024     0.024823550
      5883.76       1.5887730     0.024842104
      5889.65       1.5910030     0.024857082
      5895.54       1.5815314     0.024872291
      5901.43       1.5887148     0.024891452
      5907.34       1.5730012     0.024914223
      5913.24       1.5700487     0.024954085
      5919.16       1.5897753     0.024977421
      5925.08       1.5958692     0.025002334
      5931.00       1.6260550     0.025028308
      5936.93       1.6489847     0.025054348
      5942.87       1.6711467     0.025080704
      5948.81       1.6685858     0.025107643
      5954.76       1.6666872     0.024990180
      5960.72       1.6514166     0.025018216
      5966.68       1.6425738     0.025046276
      5972.64       1.6197474     0.025075095
      5978.62       1.5718846     0.025103967
      5984.60       1.5341320     0.025139972
      5990.58       1.5063917     0.025166756
      5996.57       1.4605206     0.025194308
      6002.57       1.4140371     0.025221956
      6008.57       1.3476800     0.025250478
      6014.58       1.2916623     0.025131182
      6020.60       1.2451394     0.025156874
      6026.62       1.2118531     0.025183084
      6032.65       1.1796464     0.025368389
      6038.68       1.1507243     0.025396074
      6044.72       1.1516673     0.025276827
      6050.76       1.1355326     0.025302010
      6056.81       1.1427614     0.025327270
      6062.87       1.1495472     0.025353757
      6068.93       1.1612109     0.025237463
      6075.00       1.1758283     0.025419660
      6081.08       1.1872674     0.025444263
      6087.16       1.1823619     0.025472741
      6093.25       1.1723601     0.025370036
      6099.34       1.1705782     0.025405369
      6105.44       1.1770263     0.025581245
      6111.54       1.1667963     0.025467574
      6117.66       1.1603034     0.025512271
      6123.78       1.1427358     0.025570350
      6129.90       1.1630253     0.025641842
      6136.03       1.1649559     0.025742399
      6142.17       1.1529906     0.025825589
      6148.31       1.1472491     0.025906920
      6154.46       1.1680569     0.025837400
      6160.61       1.2043443     0.025892842
      6166.77       1.2210040     0.026096092
      6172.94       1.2553721     0.025964968
      6179.11       1.2855911     0.025962620
      6185.29       1.3069892     0.025947036
      6191.48       1.3251279     0.025924876
      6197.67       1.3333344     0.025896442
      6203.87       1.3268616     0.025878328
      6210.07       1.3212512     0.025731695
      6216.28       1.3243675     0.025884874
      6222.50       1.3289461     0.025873677
      6228.72       1.3245772     0.025725097
      6234.95       1.3150602     0.025730302
      6241.19       1.3034798     0.025883224
      6247.42       1.2892418     0.025744001
      6253.67       1.2570082     0.025753561
      6259.93       1.2294280     0.025912076
      6266.19       1.2109284     0.025778909
      6272.46       1.1992414     0.025793231
      6278.73       1.1936895     0.025814321
      6285.01       1.1610259     0.025830733
      6291.29       1.1270133     0.025850081
      6297.58       1.1033654     0.025719352
      6303.88       1.0785601     0.025892230
      6310.19       1.0559422     0.025771700
      6316.50       1.0387435     0.025798847
      6322.81       1.0104874     0.025850792
      6329.14       1.0037534     0.025884370
      6335.47       1.0104415     0.026072166
      6341.80       1.0179726     0.025957357
      6348.14       1.0263415     0.025983214
      6354.49       1.0275908     0.026021124
      6360.85       1.0482891     0.026036549
      6367.21       1.0653738     0.025906251
      6373.57       1.0707041     0.026061131
      6379.95       1.0915236     0.025919305
      6386.33       1.0928011     0.025921553
      6392.72       1.0997042     0.025925617
      6399.11       1.0939172     0.025930546
      6405.51       1.0762696     0.025941706
      6411.92       1.0516373     0.025947598
      6418.32       1.0337692     0.025953439
      6424.74       1.0062091     0.025952174
      6431.17      0.97829641     0.025804673
      6437.60      0.94695622     0.025946899
      6444.04      0.92034638     0.025802480
      6450.48      0.90516917     0.025946259
      6456.94      0.89735620     0.025795800
      6463.39      0.89663717     0.025785464
      6469.85      0.89887737     0.025786863
      6476.33      0.92656409     0.025782634
      6482.80      0.98307358     0.025789582
      6489.28      0.98758389     0.025786761
      6495.77       1.0214067     0.025794210
      6502.27       1.0636308     0.025791505
      6508.77       1.1131057     0.025798092
      6515.28       1.1808230     0.025794204
      6521.80       1.2427393     0.025798726
      6528.32       1.2944860     0.025655270
      6534.85       1.3441998     0.025655322
      6541.38       1.3944441     0.025653817
      6547.92       1.4249414     0.025653209
      6554.47       1.4557121     0.025649471
      6561.03       1.4896661     0.025505213
      6567.59       1.4996624     0.025642350
      6574.16       1.4736963     0.025496196
      6580.73       1.4545022     0.025632129
      6587.31       1.4227381     0.025625792
      6593.90       1.4126369     0.025479201
      6600.50       1.4094913     0.025610407
      6607.10       1.3761890     0.025461365
      6613.70       1.3203056     0.025592181
      6620.32       1.2985090     0.025440815
      6626.94       1.2786202     0.025432357
      6633.57       1.2813748     0.025417279
      6640.20       1.2900429     0.025405610
      6646.84       1.2778370     0.025255244
      6653.49       1.2654982     0.025377436
      6660.14       1.2713392     0.025382575
      6666.80       1.2619935     0.025315758
      6673.47       1.2628673     0.025503718
      6680.14       1.2392392     0.025348794
      6686.82       1.2275842     0.025318574
      6693.51       1.1923321     0.025383929
      6700.20       1.1521847     0.025562073
      6706.90       1.1370790     0.025838543
      6713.61       1.1273476     0.026120675
      6720.32       1.1327199     0.026521947
      6727.05       1.1298793     0.026758253
      6733.77       1.1257609     0.027123755
      6740.51       1.1238108     0.027523842
      6747.25       1.1292659     0.027490414
      6754.00       1.1386395     0.027478812
      6760.75       1.1484746     0.027497387
      6767.51       1.1349010     0.027065192
      6774.28       1.1365437     0.026700910
      6781.05       1.1363628     0.026320661
      6787.84       1.1328876     0.026044378
      6794.62       1.1083868     0.025811487
      6801.42       1.0725628     0.025633831
      6808.22       1.0443320     0.025279208
      6815.03       1.0460086     0.025210375
      6821.85       1.0442413     0.025067062
      6828.67       1.0009292     0.024816827
      6835.50       1.0202616     0.024695558
      6842.33       1.0098262     0.024593738
      6849.17       1.0090481     0.024526760
      6856.02       1.0183243     0.024456546
      6862.88       1.0199924     0.024397433
      6869.74       1.0254411     0.024342139
      6876.61       1.0233004     0.024157478
      6883.49       1.0476566     0.024087398
      6890.37       1.0506095     0.023644842
      6897.27       1.0599169     0.023445309
      6904.16       1.0577151     0.023126006
      6911.07       1.0684959     0.022819974
      6917.98       1.0637528     0.022640725
      6924.89       1.0539469     0.022351200
      6931.82       1.0362364     0.022069081
      6938.75       1.0342081     0.021797064
      6945.69       1.0312160     0.021558418
      6952.64       1.0331040     0.021330476
      6959.59       1.0374607     0.021106072
      6966.55       1.0209011     0.020879746
      6973.52       1.0211484     0.020741319
      6980.49       1.0002366     0.020530523
      6987.47       1.0142130     0.020352944
      6994.46       1.0073770     0.020237857
      7001.46       1.0266954     0.020230347
      7008.46       1.0437869     0.020169433
      7015.46       1.0409580     0.020088512
      7022.48       1.0498658     0.019910484
      7029.51       1.0484030     0.019804217
      7036.53       1.0572459     0.019689686
      7043.57       1.0606301     0.019626350
      7050.62       1.0685550     0.019478932
      7057.66       1.0609687     0.019317385
      7064.72       1.0608841     0.019140863
      7071.79       1.0672373     0.018945179
      7078.86       1.0729249     0.018733886
      7085.94       1.0812898     0.018516724
      7093.03       1.0931436     0.018294852
      7100.12       1.0892801     0.018137253
      7107.22       1.0772240     0.017904967
      7114.33       1.0644590     0.017624415
      7121.44       1.0559608     0.017383592
      7128.56       1.0493542     0.017143757
      7135.69       1.0390882     0.016907221
      7142.83       1.0334022     0.016673718
      7149.97       1.0277514     0.016712438
      7157.12       1.0246392     0.016915834
      7164.28       1.0233090     0.017160751
      7171.44       1.0183421     0.017457496
      7178.62       1.0198411     0.017822837
      7185.80       1.0159884     0.018283613
      7192.98       1.0128009     0.018875248
      7200.17       1.0154757     0.019659967
      7207.38       1.0247108     0.020723876
      7214.58       1.0377867     0.022167362
      7221.80       1.0465664     0.024092916
      7229.02       1.0512751     0.026607460
      7236.25       1.0542073     0.029829566
      7243.49       1.0659098     0.033930763
      7250.73       1.0825123     0.039146959
      7257.98       1.1176132     0.045733563
