# starting wavelength =        3589.3821
# ending wavelength =        7365.7000
# O2 telluric scale =        0
# O2 telluric shift =        0
# H2O telluric scale =        0
# H2O telluric shift =        0
      3590.96      0.49056239      0.10102667
      3594.55      0.45677531      0.10064694
      3598.15      0.48310028     0.099689341
      3601.75      0.49684095     0.099737404
      3605.35      0.53847633     0.098784576
      3608.96      0.53078561     0.098833272
      3612.56      0.53493556     0.097887726
      3616.18      0.53756086     0.097536412
      3619.79      0.53389700     0.096995274
      3623.41      0.49906945     0.096063244
      3627.04      0.55409357     0.096110315
      3630.66      0.56596383     0.095185858
      3634.29      0.51345042     0.095229655
      3637.93      0.55478764     0.094313994
      3641.57      0.51930846     0.094356342
      3645.21      0.50154027     0.093448158
      3648.86      0.51117751     0.093093801
      3652.50      0.52783684     0.092587583
      3656.16      0.52281542     0.092235375
      3659.81      0.48818000     0.091732583
      3663.47      0.49312602     0.090851282
      3667.14      0.44863487     0.090883553
      3670.80      0.43949796     0.090010084
      3674.48      0.43633073     0.090040256
      3678.15      0.42833373     0.089173801
      3681.83      0.42396990     0.089202001
      3685.51      0.39232418     0.088343847
      3689.20      0.43729607     0.088018949
      3692.88      0.37435105     0.087519356
      3696.58      0.37395302     0.086675712
      3700.27      0.34039720     0.086701124
      3703.98      0.29407660     0.085862533
      3707.68      0.22437427     0.085888176
      3711.39      0.17264457     0.085055426
      3715.10      0.16106435     0.084585875
      3718.81      0.14848465     0.084254172
      3722.53      0.14482648     0.083785501
      3726.26      0.14303329     0.083458162
      3729.98      0.17397454     0.082991617
      3733.71      0.20562426     0.082194171
      3737.45      0.17727220     0.082203036
      3741.18      0.19916352     0.081414241
      3744.93      0.20625469     0.081420949
      3748.67      0.19597465     0.080641866
      3752.42      0.15202134     0.080180075
      3756.17      0.11404347     0.079874193
      3759.93     0.094804848     0.079415015
      3763.69      0.11015880     0.079114762
      3767.45      0.10282138     0.078655237
      3771.22      0.13122226     0.077893291
      3774.99      0.14323293     0.077902740
      3778.77      0.17172691     0.077453468
      3782.54      0.17969093     0.076704925
      3786.33      0.18803379     0.076706703
      3790.11      0.23927947     0.075963139
      3793.90      0.27504345     0.075533146
      3797.70      0.28177816     0.075227324
      3801.50      0.29997687     0.074796741
      3805.30      0.31195413     0.074075584
      3809.10      0.35086242     0.074068701
      3812.91      0.33341685     0.073356941
      3816.73      0.31371234     0.072928909
      3820.54      0.32993183     0.072923433
      3824.36      0.31674348     0.072219140
      3828.19      0.33596549     0.071797551
      3832.02      0.35051728     0.071514450
      3835.85      0.37910870     0.071094110
      3839.68      0.37789142     0.070407155
      3843.52      0.40752843     0.070397917
      3847.37      0.37265134     0.069983453
      3851.22      0.37300106     0.069306705
      3855.07      0.38745189     0.069295372
      3858.92      0.43857035     0.068619958
      3862.78      0.47621154     0.068219345
      3866.64      0.53093357     0.068205064
      3870.51      0.58150454     0.067541473
      3874.38      0.62905013     0.067145625
      3878.26      0.66099214     0.066869375
      3882.13      0.68612054     0.066474313
      3886.02      0.65597014     0.065835346
      3889.90      0.67554022     0.065441187
      3893.79      0.68491364     0.065420634
      3897.69      0.67953220     0.064789902
      3901.59      0.69536498     0.064401646
      3905.49      0.71243483     0.064379773
      3909.39      0.71280713     0.063757636
      3913.30      0.73206483     0.063374064
      3917.22      0.74781841     0.062758363
      3921.13      0.76175222     0.062739248
      3925.06      0.78277202     0.062359634
      3928.98      0.80981497     0.061752331
      3932.91      0.79932607     0.061383900
      3936.84      0.80414801     0.061358471
      3940.78      0.79591956     0.060758679
      3944.72      0.79001897     0.060394070
      3948.67      0.79867665     0.060033394
      3952.61      0.77846929     0.059778030
      3956.57      0.74851898     0.059416757
      3960.52      0.73253226     0.058843091
      3964.48      0.73275556     0.058483446
      3968.45      0.73469780     0.058452475
      3972.42      0.76652039     0.057889384
      3976.39      0.74551946     0.057533604
      3980.37      0.74993568     0.057181079
      3984.35      0.74598505     0.056624429
      3988.33      0.73582575     0.056596454
      3992.32      0.72427022     0.056247964
      3996.31      0.74164123     0.055698096
      4000.31      0.76462988     0.055357410
      4004.31      0.77602535     0.055327598
      4008.31      0.81045086     0.054985879
      4012.32      0.82129612     0.054447395
      4016.33      0.83624358     0.054112768
      4020.35      0.85718329     0.053781680
      4024.37      0.86104840     0.053550234
      4028.40      0.84344944     0.053218666
      4032.42      0.82550042     0.052890093
      4036.46      0.84112885     0.052376840
      4040.50      0.84386511     0.052049860
      4044.54      0.84207675     0.051726108
      4048.58      0.84779934     0.051689704
      4052.63      0.86014365     0.051188082
      4056.68      0.86500817     0.050866888
      4060.74      0.83791885     0.050548548
      4064.80      0.83527294     0.050054570
      4068.86      0.84640479     0.049742663
      4072.93      0.85365665     0.049705927
      4077.01      0.85297714     0.049393073
      4081.08      0.85586736     0.048908750
      4085.17      0.85478694     0.048602067
      4089.25      0.84167541     0.048297673
      4093.34      0.84824900     0.047996057
      4097.43      0.82414877     0.047525360
      4101.53      0.82721426     0.047483532
      4105.63      0.82669517     0.047184193
      4109.74      0.80828445     0.046887290
      4113.85      0.80306460     0.046430275
      4117.96      0.79674053     0.046134751
      4122.08      0.78641697     0.045841998
      4126.20      0.78070029     0.045551483
      4130.33      0.79212566     0.045358164
      4134.46      0.78557872     0.045067553
      4138.59      0.78753401     0.044779577
      4142.73      0.77906936     0.044493578
      4146.88      0.78296099     0.044056809
      4151.02      0.77777965     0.043775735
      4155.18      0.79053558     0.043497132
      4159.33      0.79245178     0.043220271
      4163.49      0.79753509     0.042944784
      4167.65      0.78596437     0.042523631
      4171.82      0.77270311     0.042479836
      4175.99      0.76146221     0.042207469
      4180.17      0.74805180     0.041936427
      4184.35      0.72900643     0.041667711
      4188.54      0.72638392     0.041262514
      4192.72      0.73389259     0.040995601
      4196.92      0.75043739     0.040730643
      4201.11      0.74922251     0.040467864
      4205.31      0.72586015     0.040206846
      4209.52      0.72702262     0.039812671
      4213.73      0.72328543     0.039555669
      4217.94      0.72669783     0.039300726
      4222.16      0.71719283     0.039047153
      4226.38      0.73224724     0.038794903
      4230.61      0.72346934     0.038751704
      4234.84      0.71974019     0.038371013
      4239.08      0.71548761     0.038121502
      4243.32      0.70730032     0.037873650
      4247.56      0.69722967     0.037627793
      4251.81      0.67888254     0.037383671
      4256.06      0.67791394     0.037140378
      4260.32      0.66533136     0.036898965
      4264.58      0.67688594     0.036540753
      4268.84      0.68707040     0.036302023
      4273.11      0.67939236     0.036064536
      4277.38      0.68113613     0.035828883
      4281.66      0.71046057     0.050223085
      4285.94      0.71956054     0.049895810
      4290.23      0.65736629     0.049569904
      4294.52      0.64376229     0.049245860
      4298.81      0.65892044     0.048923944
      4303.11      0.65272370     0.048605572
      4307.42      0.66751415     0.048288897
      4311.72      0.71407448     0.047973051
      4316.04      0.73151408     0.047298347
      4320.35      0.76411575     0.046990000
      4324.67      0.78445633     0.046682595
      4329.00      0.76213800     0.046376984
      4333.33      0.79246614     0.046075286
      4337.66      0.80890732     0.045774183
      4342.00      0.82322325     0.045473910
      4346.34      0.81752176     0.045176452
      4350.69      0.80278280     0.044881827
      4355.04      0.76043247     0.044588343
      4359.39      0.72598639     0.044295063
      4363.75      0.70258795     0.044005511
      4368.12      0.68023471     0.043716802
      4372.48      0.64783879     0.043428758
      4376.86      0.62625348     0.043143408
      4381.23      0.64980233     0.042860851
      4385.61      0.60990714     0.042579258
      4390.00      0.63609775     0.042297876
      4394.39      0.65894913     0.042020032
      4398.79      0.65546417     0.041743979
      4403.18      0.67197766     0.041468705
      4407.59      0.68395223     0.041194979
      4412.00      0.67230968     0.040924001
      4416.41      0.69593805     0.040654242
      4420.82      0.68982681     0.040384760
      4425.25      0.70595347     0.040118831
      4429.67      0.71988234     0.039569558
      4434.10      0.73037359     0.039590702
      4438.54      0.73354348     0.039329464
      4442.97      0.74600266     0.039071493
      4447.42      0.75916866     0.038814187
      4451.86      0.75077640     0.038557442
      4456.32      0.76441927     0.037956671
      4460.77      0.79043113     0.037707651
      4465.24      0.81775575     0.037458761
      4469.70      0.84232421     0.037212407
      4474.17      0.87511822     0.036969262
      4478.65      0.90195411     0.036726432
      4483.12      0.91467750     0.036485182
      4487.61      0.93939120     0.036247253
      4492.09      0.94894896     0.036011923
      4496.59      0.96518920     0.035776751
      4501.08      0.99904977     0.035222775
      4505.58       1.0181508     0.034991852
      4510.09       1.0186405     0.034761267
      4514.60       1.0370984     0.034532445
      4519.12       1.0503690     0.034306885
      4523.63       1.0405830     0.034083156
      4528.16       1.0461530     0.033859881
      4532.69       1.0399061     0.033639941
      4537.22       1.0221830     0.033423257
      4541.76       1.0324405     0.032914415
      4546.30       1.0429541     0.032937865
      4550.85       1.0571435     0.032722655
      4555.40       1.0741998     0.032508853
      4559.95       1.0738089     0.032296612
      4564.51       1.0925230     0.032087682
      4569.08       1.1148213     0.031601248
      4573.65       1.1344848     0.031397221
      4578.22       1.1706308     0.031196484
      4582.80       1.2010642     0.030998975
      4587.38       1.2093472     0.030802980
      4591.97       1.1982991     0.030608687
      4596.56       1.1828141     0.030351419
      4601.16       1.2064320     0.030157682
      4605.76       1.1974643     0.029965256
      4610.37       1.1856320     0.029776290
      4614.98       1.1933677     0.029590674
      4619.59       1.1894628     0.029405786
      4624.21       1.1872407     0.028957343
      4628.84       1.1916066     0.028774402
      4633.47       1.1870051     0.028797463
      4638.10       1.1799069     0.028617226
      4642.74       1.1726371     0.028440625
      4647.38       1.1496134     0.028014454
      4652.03       1.1628641     0.027837155
      4656.68       1.1549423     0.027663374
      4661.34       1.1412046     0.027493057
      4666.00       1.1314158     0.027283208
      4670.67       1.1005278     0.027110979
      4675.33       1.0596906     0.026942335
      4680.01       1.0347819     0.026776231
      4684.69       1.0258754     0.026612151
      4689.38       1.0293690     0.026227096
      4694.07       1.0160024     0.026248893
      4698.76      0.98915891     0.026086754
      4703.46      0.98242271     0.025928350
      4708.16      0.98231831     0.025555134
      4712.87      0.97070195     0.025403577
      4717.58      0.96170417     0.025424777
      4722.30      0.94688143     0.025272081
      4727.03      0.93903036     0.024909444
      4731.75      0.92022754     0.024763576
      4736.48      0.89394846     0.024621510
      4741.22      0.88548168     0.024433072
      4745.96      0.85269931     0.024289598
      4750.71      0.83917280     0.024150001
      4755.46      0.82197012     0.024014257
      4760.22      0.81370713     0.023668324
      4764.97      0.80699571     0.023695891
      4769.74      0.80926091     0.023562714
      4774.51      0.81622922     0.023230686
      4779.29      0.81602129     0.023097120
      4784.07      0.79777358     0.023127821
      4788.85      0.77878620     0.023000416
      4793.64      0.76882911     0.022677304
      4798.43      0.76006128     0.022550570
      4803.23      0.76058036     0.022584224
      4808.03      0.73985978     0.022272344
      4812.84      0.72449573     0.022148710
      4817.66      0.70904003     0.022028759
      4822.48      0.69808578     0.021881836
      4827.30      0.66503429     0.021761440
      4832.12      0.65161020     0.021645165
      4836.96      0.63704546     0.021356653
      4841.79      0.62385454     0.021387797
      4846.63      0.60913431     0.021274855
      4851.48      0.60508905     0.020993518
      4856.33      0.59871239     0.021027563
      4861.19      0.60496973     0.020918292
      4866.05      0.59388394     0.020644194
      4870.92      0.61576276     0.020680869
      4875.79      0.63870475     0.020409298
      4880.66      0.67996832     0.020308834
      4885.55      0.71304668     0.020212216
      4890.43      0.76268905     0.020082915
      4895.32      0.80699880     0.019986596
      4900.22      0.83948471     0.019894236
      4905.12      0.90988418     0.019769423
      4910.02      0.97389329     0.019677686
      4914.94       1.0455618     0.019426633
      4919.85       1.0875289     0.019469029
      4924.77       1.1546622     0.019382115
      4929.70       1.1932135     0.019136297
      4934.62       1.2087665     0.019181714
      4939.56       1.2300230     0.018944150
      4944.50       1.2361317     0.018858507
      4949.44       1.2392983     0.018907301
      4954.39       1.2301777     0.018674287
      4959.35       1.2174375     0.018593402
      4964.31       1.2035353     0.018496622
      4969.27       1.1717482     0.018416850
      4974.24       1.1359454     0.018325997
      4979.22       1.0966002     0.018246859
      4984.20       1.0642925     0.018032425
      4989.18       1.0191945     0.018083344
      4994.17      0.97529260     0.018009710
      4999.16      0.96799604     0.017803110
      5004.16      0.95902168     0.017853394
      5009.17      0.94932345     0.017649408
      5014.18      0.92538346     0.017703251
      5019.19      0.91021278     0.017501681
      5024.21      0.88743820     0.017440714
      5029.23      0.84138102     0.017360126
      5034.26      0.82437078     0.017300145
      5039.30      0.83434244     0.017224104
      5044.34      0.83041264     0.017165687
      5049.39      0.84517509     0.016976655
      5054.43      0.86614135     0.017036845
      5059.49      0.87979619     0.016852403
      5064.55      0.89569336     0.016913196
      5069.61      0.91340656     0.016733153
      5074.68      0.94660218     0.016795511
      5079.76      0.97168440     0.016619198
      5084.84      0.98131369     0.016567719
      5089.92       1.0026449     0.016510479
      5095.01       1.0376118     0.016460653
      5100.11       1.0538502     0.016406381
      5105.21       1.0612038     0.016358652
      5110.31       1.0613550     0.016307104
      5115.42       1.0422845     0.016261270
      5120.54       1.0312711     0.016213082
      5125.66       1.0008699     0.016169378
      5130.79      0.99976650     0.016123542
      5135.92       1.0092192     0.016082188
      5141.05      0.99160986     0.016038781
      5146.20       1.0041506     0.015999567
      5151.34       1.0048147     0.015958827
      5156.49      0.99767069     0.015807446
      5161.65      0.99729914     0.015883274
      5166.81       1.0029256     0.015735634
      5171.98       1.0157916     0.015812331
      5177.15       1.0123453     0.015668022
      5182.33       1.0158906     0.015746428
      5187.51       1.0304841     0.015605455
      5192.70       1.0567786     0.015573021
      5197.89       1.0696548     0.015547874
      5203.09       1.0895873     0.015516922
      5208.29       1.1083319     0.015494437
      5213.50       1.1126483     0.015465531
      5218.72       1.1280865     0.015333376
      5223.93       1.1380759     0.015418251
      5229.16       1.1587266     0.015288225
      5234.39       1.1716030     0.015375943
      5239.62       1.1739938     0.015246886
      5244.86       1.1762414     0.015229449
      5250.11       1.1706731     0.015210707
      5255.36       1.1685479     0.015194011
      5260.61       1.1701722     0.015181494
      5265.87       1.1736479     0.015163340
      5271.14       1.1493326     0.015151670
      5276.41       1.1575535     0.015035054
      5281.69       1.1624911     0.015126436
      5286.97       1.1769270     0.015013928
      5292.26       1.1892757     0.015106312
      5297.55       1.1855562     0.015099424
      5302.85       1.2091356     0.014988805
      5308.15       1.2204703     0.015084774
      5313.46       1.2317366     0.014978181
      5318.77       1.2427038     0.014973336
      5324.09       1.2658919     0.015072522
      5329.42       1.2718746     0.014968079
      5334.75       1.2731003     0.014966933
      5340.08       1.2686847     0.014864455
      5345.42       1.2526531     0.014967153
      5350.77       1.2494706     0.014969430
      5356.12       1.2414117     0.014869658
      5361.48       1.2245051     0.014975050
      5366.83       1.2038871     0.014980651
      5372.20       1.1740359     0.014883242
      5377.58       1.1742648     0.014991557
      5382.95       1.1550438     0.014894583
      5388.34       1.1426857     0.014904913
      5393.72       1.1355316     0.014917711
      5399.12       1.1408925     0.014921637
      5404.52       1.1479260     0.014934437
      5409.92       1.1536765     0.014949795
      5415.33       1.1776871     0.014861272
      5420.75       1.1976623     0.014971743
      5426.17       1.2240473     0.014989373
      5431.60       1.2540394     0.014904279
      5437.03       1.2917908     0.014921452
      5442.47       1.3255040     0.015036574
      5447.91       1.3585711     0.015058549
      5453.36       1.3968083     0.014974345
      5458.81       1.4118772     0.014995982
      5464.27       1.4281306     0.015114821
      5469.73       1.4425547     0.015034646
      5475.20       1.4328961     0.015058045
      5480.68       1.4303947     0.015082915
      5486.16       1.3942960     0.015004064
      5491.65       1.3838714     0.015127748
      5497.14       1.3712572     0.015154167
      5502.64       1.3471547     0.015182292
      5508.14       1.3275565     0.015105696
      5513.65       1.3176725     0.015136580
      5519.16       1.3053442     0.015262570
      5524.68       1.2907497     0.015293809
      5530.20       1.2862538     0.015218310
      5535.73       1.2760101     0.015252013
      5541.27       1.2865393     0.015287141
      5546.81       1.2933477     0.015416123
      5552.36       1.2911511     0.015342228
      5557.91       1.2850740     0.015378181
      5563.47       1.2668119     0.015415214
      5569.04       1.2702199     0.015453986
      5574.60       1.2438523     0.015383494
      5580.18       1.2064857     0.015421212
      5585.76       1.1601492     0.015554300
      5591.35       1.0950294     0.015594252
      5596.94       1.0567840     0.015528514
      5602.53       1.0142347     0.015568210
      5608.14      0.95012980     0.015608774
      5613.75      0.89859139     0.015650598
      5619.36      0.84211602     0.015693265
      5624.98      0.77784586     0.015725938
      5630.60      0.73429646     0.015768294
      5636.23      0.68116955     0.015811471
      5641.87      0.63008061     0.015855337
      5647.51      0.61869010     0.015900374
      5653.16      0.57975730     0.015946059
      5658.82      0.54302863     0.015881405
      5664.47      0.51417702     0.015928485
      5670.14      0.49978160     0.015976028
      5675.81      0.49368256     0.016024443
      5681.48      0.46698029     0.016073525
      5687.17      0.45920104     0.016217683
      5692.85      0.44973606     0.016153438
      5698.55      0.46272057     0.016202801
      5704.25      0.47279243     0.016252513
      5709.95      0.48966705     0.016303121
      5715.66      0.50702529     0.016354077
      5721.38      0.54036650     0.016405569
      5727.10      0.57014274     0.016457636
      5732.83      0.60105338     0.016510110
      5738.56      0.64093924     0.016450394
      5744.30      0.67157219     0.016502357
      5750.04      0.71483304     0.016554853
      5755.79      0.76543964     0.016607833
      5761.55      0.78833823     0.016661215
      5767.31      0.82863498     0.016714847
      5773.08      0.86869542     0.016768914
      5778.85      0.90650851     0.016823799
      5784.63      0.92221746     0.016879727
      5790.41      0.94302141     0.016937199
      5796.21      0.96912007     0.016994706
      5802.00      0.99579182     0.016934727
      5807.81       1.0266673     0.016992345
      5813.61       1.0478791     0.017051902
      5819.43       1.0899295     0.017116239
      5825.25       1.1278373     0.017186161
      5831.07       1.1730539     0.017257903
      5836.90       1.2096365     0.017330426
      5842.74       1.2446322     0.017405337
      5848.58       1.2677443     0.017481979
      5854.43       1.3084208     0.017555632
      5860.29       1.3395049     0.017623025
      5866.15       1.3702945     0.017686965
      5872.01       1.3778394     0.017748837
      5877.89       1.3911336     0.017807514
      5883.76       1.3999776     0.018211539
      5889.65       1.3907483     0.018408307
      5895.54       1.3644430     0.017870143
      5901.43       1.3523015     0.017954301
      5907.34       1.3399335     0.018200713
      5913.24       1.3311492     0.018532590
      5919.16       1.3268007     0.018901154
      5925.08       1.3230300     0.019264805
      5931.00       1.3245252     0.019586161
      5936.93       1.3272830     0.019831003
      5942.87       1.3175730     0.019953493
      5948.81       1.3134435     0.019905552
      5954.76       1.2973436     0.019756671
      5960.72       1.2596559     0.019383527
      5966.68       1.2399282     0.019119540
      5972.64       1.2118425     0.018853945
      5978.62       1.1836437     0.018636533
      5984.60       1.1393417     0.018526435
      5990.58       1.0990966     0.018625622
      5996.57       1.0630793     0.019579334
      6002.57       1.0267521     0.018969104
      6008.57       1.0079310     0.018636369
      6014.58      0.99267570     0.018903502
      6020.60      0.97498196     0.019128288
      6026.62      0.96662100     0.019391266
      6032.65      0.95800476     0.019662349
      6038.68      0.94976461     0.019789195
      6044.72      0.94806502     0.019991617
      6050.76      0.94573584     0.020135277
      6056.81      0.94073748     0.020190207
      6062.87      0.93661822     0.020160364
      6068.93      0.91127307     0.020069336
      6075.00      0.88335657     0.019794568
      6081.08      0.88114468     0.019765060
      6087.16      0.87090216     0.019614544
      6093.25      0.85877365     0.019509211
      6099.34      0.84358976     0.019495992
      6105.44      0.84463066     0.019566967
      6111.54      0.85559177     0.020063850
      6117.66      0.87359605     0.019557259
      6123.78      0.90134078     0.019610431
      6129.90      0.93341070     0.019682179
      6136.03      0.97072303     0.019732839
      6142.17       1.0151477     0.019782888
      6148.31       1.0666648     0.019833595
      6154.46       1.1358788     0.019776563
      6160.61       1.2028884     0.019827428
      6166.77       1.2697100     0.020004136
      6172.94       1.3281986     0.020057828
      6179.11       1.3830329     0.020010187
      6185.29       1.4138130     0.020060630
      6191.48       1.4475326     0.020107879
      6197.67       1.4801909     0.020289506
      6203.87       1.4894527     0.020248442
      6210.07       1.5255918     0.020326059
      6216.28       1.5628205     0.020413299
      6222.50       1.6151094     0.020397780
      6228.72       1.6438903     0.020621719
      6234.95       1.6624715     0.020709971
      6241.19       1.6828422     0.020678448
      6247.42       1.6939483     0.020742180
      6253.67       1.7135151     0.020924714
      6259.93       1.7268749     0.020959393
      6266.19       1.7456385     0.020855572
      6272.46       1.7501607     0.020861618
      6278.73       1.7431455     0.020863639
      6285.01       1.7353914     0.020873130
      6291.29       1.7167795     0.020886559
      6297.58       1.6850901     0.020910388
      6303.88       1.6292832     0.020938249
      6310.19       1.5721937     0.020950525
      6316.50       1.5211929     0.020855316
      6322.81       1.4839742     0.020879091
      6329.14       1.4689487     0.021025801
      6335.47       1.4528176     0.020933834
      6341.80       1.4451322     0.020959546
      6348.14       1.4266169     0.021109593
      6354.49       1.4105168     0.021020299
      6360.85       1.3957477     0.021048848
      6367.21       1.3818216     0.020960742
      6373.57       1.3826712     0.021116165
      6379.95       1.3724750     0.021146018
      6386.33       1.3615977     0.021056274
      6392.72       1.3508685     0.021214369
      6399.11       1.3383110     0.021133166
      6405.51       1.3250542     0.021170364
      6411.92       1.2979754     0.021229672
      6418.32       1.2627083     0.021266852
      6424.74       1.2325193     0.021301754
      6431.17       1.2081481     0.021348576
      6437.60       1.1725590     0.021378439
      6444.04       1.1469749     0.021419204
      6450.48       1.1201893     0.021437833
      6456.94       1.1051496     0.021336428
      6463.39       1.0932114     0.021470772
      6469.85       1.0797003     0.021360048
      6476.33       1.0665492     0.021368217
      6482.80       1.0613658     0.021379529
      6489.28       1.0657292     0.021389057
      6495.77       1.0625522     0.021404147
      6502.27       1.0650297     0.021410841
      6508.77       1.0672919     0.021417002
      6515.28       1.0684742     0.021417240
      6521.80       1.0720583     0.021296608
      6528.32       1.0650818     0.021416201
      6534.85       1.0625697     0.021297487
      6541.38       1.0604353     0.021291537
      6547.92       1.0623284     0.021286559
      6554.47       1.0547421     0.021277291
      6561.03       1.0402488     0.021276457
      6567.59       1.0294643     0.021270278
      6574.16       1.0108019     0.021270859
      6580.73       1.0029542     0.021263805
      6587.31      0.99436271     0.021263028
      6593.90      0.98360162     0.021254408
      6600.50      0.97721645     0.021250222
      6607.10      0.96855760     0.021239105
      6613.70      0.96199922     0.021114913
      6620.32      0.95248858     0.021102705
      6626.94      0.94496049     0.021092752
      6633.57      0.93127496     0.021077282
      6640.20      0.92113121     0.021065103
      6646.84      0.89949000     0.021045634
      6653.49      0.88601776     0.020911872
      6660.14      0.87722586     0.021008116
      6666.80      0.86996597     0.020870695
      6673.47      0.85292794     0.020964615
      6680.14      0.83221308     0.020937806
      6686.82      0.82600406     0.020797821
      6693.51      0.81230667     0.020883882
      6700.20      0.79738115     0.020739987
      6706.90      0.79395478     0.020823910
      6713.61      0.78809761     0.020675887
      6720.32      0.77199996     0.020641320
      6727.05      0.76208590     0.020605952
      6733.77      0.75836261     0.020566436
      6740.51      0.75788065     0.020416897
      6747.25      0.76443938     0.020488556
      6754.00      0.76178513     0.020476976
      6760.75      0.75805126     0.020411165
      6767.51      0.75498444     0.020501879
      6774.28      0.74654506     0.020322056
      6781.05      0.74846545     0.020297756
      6787.84      0.74115888     0.020350621
      6794.62      0.72804123     0.020485731
      6801.42      0.70180923     0.020694281
      6808.22      0.67925816     0.020830484
      6815.03      0.66775173     0.021183251
      6821.85      0.64687445     0.021451454
      6828.67      0.63612144     0.021520836
      6835.50      0.62036728     0.021748746
      6842.33      0.61376337     0.021616702
      6849.17      0.59221515     0.021491505
      6856.02      0.59337863     0.021248314
      6862.88      0.61364030     0.020986839
      6869.74      0.62730687     0.020631429
      6876.61      0.65798413     0.020287067
      6883.49      0.68368081     0.019925621
      6890.37      0.71007616     0.019836084
      6897.27      0.72972185     0.019612151
      6904.16      0.75878656     0.019284173
      6911.07      0.77863640     0.019081030
      6917.98      0.78721867     0.019029517
      6924.89      0.79005349     0.018780921
      6931.82      0.79435427     0.018625171
      6938.75      0.79771895     0.018483938
      6945.69      0.80362415     0.018271120
      6952.64      0.81162905     0.018256578
      6959.59      0.82265769     0.018136042
      6966.55      0.82221733     0.018013934
      6973.52      0.83510071     0.017800697
      6980.49      0.84761153     0.017585521
      6987.47      0.85474993     0.017261497
      6994.46      0.86759929     0.016940253
      7001.46      0.89548447     0.016720943
      7008.46      0.92728009     0.016413916
      7015.46      0.94389922     0.016114822
      7022.48      0.97232366     0.015909601
      7029.51      0.98813169     0.015617807
      7036.53       1.0137948     0.015280192
      7043.57       1.0444847     0.015022410
      7050.62       1.0705349     0.014851485
      7057.66       1.0827467     0.014600884
      7064.72       1.0964681     0.014346879
      7071.79       1.1012792     0.014097999
      7078.86       1.1167416     0.013929292
      7085.94       1.1311474     0.013723562
      7093.03       1.1450573     0.013562220
      7100.12       1.1616281     0.013423251
      7107.22       1.1795142     0.013270831
      7114.33       1.1981189     0.013111530
      7121.44       1.2157640     0.012927920
      7128.56       1.2435931     0.012736909
      7135.69       1.2776216     0.012535036
      7142.83       1.3006233     0.012317872
      7149.97       1.3325021     0.012092651
      7157.12       1.3696942     0.011857249
      7164.28       1.3989337     0.011670530
      7171.44       1.4212416     0.011410876
      7178.62       1.4569064     0.011144404
      7185.80       1.4750306     0.010875568
      7192.98       1.5077477     0.010604644
      7200.17       1.5170367     0.010331011
      7207.38       1.5190971     0.010048124
      7214.58       1.5276390    0.0097841889
      7221.80       1.5261816    0.0095198728
      7229.02       1.5280125    0.0092569355
      7236.25       1.5260546    0.0089967593
      7243.49       1.5221334    0.0087926184
      7250.73       1.5200481    0.0087834862
      7257.98       1.5132152    0.0088451391
      7265.24       1.5087555    0.0089311060
      7272.51       1.4956687    0.0090469070
      7279.78       1.4831442    0.0092027063
      7287.06       1.4678647    0.0094123479
      7294.35       1.4527325    0.0096972957
      7301.64       1.4329148     0.010091441
      7308.94       1.4159776     0.010638369
      7316.25       1.3919328     0.011384825
      7323.57       1.3709489     0.012380919
      7330.89       1.3509741     0.013671584
      7338.22       1.3341314     0.015324362
      7345.56       1.3174556     0.017431998
      7352.91       1.3055123     0.020095398
      7360.26       1.2882779     0.023445493
