# starting wavelength =        3423.0000
# ending wavelength =        7279.5200
# O2 telluric scale =        0
# O2 telluric shift =        0
# H2O telluric scale =        0
# H2O telluric shift =        0
      3426.17       1.1009305      0.11879411
      3429.59       1.1430554      0.10111146
      3433.02       1.2042811     0.087077883
      3436.45       1.2528711     0.074014730
      3439.89       1.3029430     0.065811189
      3443.33       1.3574571     0.059433564
      3446.78       1.4073245     0.054477154
      3450.22       1.4353109     0.050651991
      3453.67       1.4814596     0.048171970
      3457.13       1.5090471     0.045701171
      3460.58       1.5485148     0.043754737
      3464.04       1.5874507     0.042205876
      3467.51       1.5819407     0.040637331
      3470.98       1.6067166     0.039636774
      3474.45       1.6070471     0.038799656
      3477.92       1.6205900     0.038089390
      3481.40       1.6271058     0.037278715
      3484.88       1.6274922     0.036719349
      3488.37       1.6472702     0.036588764
      3491.86       1.6430602     0.036462524
      3495.35       1.6624769     0.036524778
      3498.84       1.6442046     0.036163787
      3502.34       1.5967165     0.036223347
      3505.84       1.5975267     0.036283446
      3509.35       1.5888674     0.036158777
      3512.86       1.5410050     0.035986208
      3516.37       1.5311021     0.035860600
      3519.89       1.5391984     0.035925297
      3523.41       1.5451908     0.035986779
      3526.93       1.5168443     0.035627106
      3530.46       1.5170023     0.035689458
      3533.99       1.4991973     0.035566423
      3537.53       1.4670788     0.035394285
      3541.06       1.4705931     0.035458762
      3544.60       1.4712082     0.035340132
      3548.15       1.4619941     0.035402315
      3551.70       1.4480029     0.035233574
      3555.25       1.4434085     0.035107171
      3558.80       1.4214214     0.035178893
      3562.36       1.4201635     0.035248278
      3565.92       1.4009491     0.034884264
      3569.49       1.3951751     0.034953646
      3573.06       1.3990962     0.035028109
      3576.64       1.4130170     0.034661194
      3580.21       1.4073745     0.034733909
      3583.79       1.3812576     0.034809527
      3587.38       1.3702714     0.034685828
      3590.96       1.3825949     0.034516412
      3594.55       1.3945347     0.034592982
      3598.15       1.3931102     0.034476780
      3601.75       1.4096855     0.034300955
      3605.35       1.4123853     0.034381372
      3608.96       1.4134120     0.034257143
      3612.56       1.4003247     0.034090139
      3616.18       1.4198797     0.034170248
      3619.79       1.4389704     0.034054610
      3623.41       1.4405075     0.034131539
      3627.04       1.4602145     0.033963943
      3630.66       1.4681733     0.034049871
      3634.29       1.4627901     0.033934771
      3637.93       1.4671653     0.033759242
      3641.57       1.4768780     0.033847856
      3645.21       1.4855341     0.033725443
      3648.86       1.5021330     0.033557812
      3652.50       1.5022103     0.033650107
      3656.16       1.4949664     0.033742677
      3659.81       1.4933821     0.033361725
      3663.47       1.4729915     0.033452478
      3667.14       1.4887550     0.033552947
      3670.80       1.4932919     0.033382194
      3674.48       1.5125916     0.033264876
      3678.15       1.5249874     0.033358252
      3681.83       1.5207972     0.033194754
      3685.51       1.5258115     0.033295356
      3689.20       1.5480874     0.033182127
      3692.88       1.5706896     0.033007440
      3696.58       1.5852656     0.033111034
      3700.27       1.6092642     0.033222946
      3703.98       1.6029577     0.032822168
      3707.68       1.5963514     0.032935919
      3711.39       1.5799391     0.033041194
      3715.10       1.5559711     0.032877928
      3718.81       1.5195894     0.032992421
      3722.53       1.4899185     0.032881717
      3726.26       1.4580232     0.032705262
      3729.98       1.4277049     0.032819556
      3733.71       1.3673021     0.032658761
      3737.45       1.3053239     0.032776854
      3741.18       1.2463536     0.032664637
      3744.93       1.1715874     0.032490212
      3748.67       1.0932464     0.032613018
      3752.42       1.0165193     0.032749356
      3756.17      0.94878486     0.032578384
      3759.93      0.87856057     0.032714239
      3763.69      0.83707099     0.032291684
      3767.45      0.79064815     0.032421461
      3771.22      0.74666972     0.032566746
      3774.99      0.72354748     0.032395445
      3778.77      0.71238563     0.032538153
      3782.54      0.68782724     0.032689604
      3786.33      0.64832952     0.032245879
      3790.11      0.61701459     0.032403379
      3793.90      0.58986912     0.032230383
      3797.70      0.58145595     0.032379630
      3801.50      0.59154052     0.032544320
      3805.30      0.57893734     0.032372545
      3809.10      0.57235888     0.032536428
      3812.91      0.58421824     0.032085090
      3816.73      0.59515147     0.031917460
      3820.54      0.60807273     0.031803966
      3824.36      0.61928066     0.031631028
      3828.19      0.63521212     0.031466805
      3832.02      0.66174090     0.031352488
      3835.85      0.69860815     0.031182785
      3839.68      0.75514946     0.030748556
      3843.52      0.79449478     0.030907135
      3847.37      0.83528543     0.030740672
      3851.22      0.91454358     0.030312239
      3855.07      0.95832348     0.030468210
      3858.92      0.99015998     0.030302910
      3862.78       1.0373218     0.029880406
      3866.64       1.0765484     0.029730007
      3870.51       1.1045951     0.029871203
      3874.38       1.1149389     0.029453216
      3878.26       1.1447770     0.029303774
      3882.13       1.2037955     0.029444443
      3886.02       1.2717969     0.029031392
      3889.90       1.3440690     0.028882704
      3893.79       1.4052348     0.028739585
      3897.69       1.4646314     0.028614349
      3901.59       1.5114701     0.028466206
      3905.49       1.5579822     0.028323265
      3909.39       1.6290927     0.028203350
      3913.30       1.6880797     0.028055025
      3917.22       1.7435264     0.027911562
      3921.13       1.7950837     0.027528020
      3925.06       1.8406866     0.027649494
      3928.98       1.8594760     0.027505829
      3932.91       1.8787992     0.027132726
      3936.84       1.8760497     0.026985278
      3940.78       1.8729872     0.027105642
      3944.72       1.8394665     0.026965291
      3948.67       1.8401326     0.026595762
      3952.61       1.8382926     0.026451723
      3956.57       1.8410662     0.026570488
      3960.52       1.8229000     0.026213614
      3964.48       1.8374644     0.026068995
      3968.45       1.8384033     0.025928070
      3972.42       1.8373736     0.025790773
      3976.39       1.8281537     0.025693588
      3980.37       1.8344621     0.025551789
      3984.35       1.8679470     0.025413502
      3988.33       1.8706309     0.025065779
      3992.32       1.8783259     0.025183445
      3996.31       1.8619385     0.025044188
      4000.31       1.8679858     0.024908048
      4004.31       1.8867532     0.024565808
      4008.31       1.8706120     0.024436432
      4012.32       1.8491460     0.024546359
      4016.33       1.8158799     0.024411333
      4020.35       1.7780458     0.024075419
      4024.37       1.7417036     0.023946706
      4028.40       1.6924093     0.023820675
      4032.42       1.6540776     0.023697194
      4036.46       1.6091832     0.023593800
      4040.50       1.5822783     0.023466328
      4044.54       1.5417939     0.023341105
      4048.58       1.5237988     0.023218025
      4052.63       1.4938486     0.023096732
      4056.68       1.4758106     0.022996007
      4060.74       1.4720217     0.022870990
      4064.80       1.4412585     0.022748544
      4068.86       1.4214156     0.022627832
      4072.93       1.3981601     0.022323698
      4077.01       1.4125864     0.022201074
      4081.08       1.4208298     0.022079868
      4085.17       1.4043210     0.022169177
      4089.25       1.3974987     0.022050518
      4093.34       1.3781866     0.021758228
      4097.43       1.3667448     0.021637087
      4101.53       1.3532032     0.021518083
      4105.63       1.3343972     0.021400538
      4109.74       1.3160462     0.021284299
      4113.85       1.3034197     0.021207985
      4117.96       1.3010110     0.021089041
      4122.08       1.3069848     0.020972023
      4126.20       1.3014073     0.020856231
      4130.33       1.2926483     0.020741745
      4134.46       1.2970655     0.020628126
      4138.59       1.3016808     0.020350772
      4142.73       1.2933718     0.020240479
      4146.88       1.2965013     0.020131656
      4151.02       1.3030787     0.020215216
      4155.18       1.3044799     0.020103313
      4159.33       1.3172384     0.019992944
      4163.49       1.3311356     0.019883464
      4167.65       1.3377467     0.019615222
      4171.82       1.3430553     0.019508508
      4175.99       1.3555107     0.019402766
      4180.17       1.3612289     0.019297895
      4184.35       1.3604597     0.019193746
      4188.54       1.3549564     0.019090821
      4192.72       1.3572109     0.018988483
      4196.92       1.3603485     0.018734126
      4201.11       1.3629708     0.018631135
      4205.31       1.3473639     0.018700444
      4209.52       1.3428822     0.018598511
      4213.73       1.3439837     0.018497465
      4217.94       1.3412965     0.018396908
      4222.16       1.3333091     0.018297440
      4226.38       1.3221688     0.018198561
      4230.61       1.3245426     0.018100252
      4234.84       1.3184574     0.017864531
      4239.08       1.3433770     0.017766147
      4243.32       1.3565807     0.017668763
      4247.56       1.3639298     0.017572116
      4251.81       1.3718743     0.017476169
      4256.06       1.3730228     0.017380833
      4260.32       1.3705712     0.017286043
      4264.58       1.3682783     0.017191838
      4268.84       1.3560693     0.017098398
      4273.11       1.3627838     0.017005594
      4277.38       1.3599618     0.016913394
      4281.66       1.3565451     0.016822042
      4285.94       1.3436200     0.016601153
      4290.23       1.3292850     0.016511280
      4294.52       1.3341133     0.016422051
      4298.81       1.3249618     0.016333558
      4303.11       1.3136956     0.016245243
      4307.42       1.3064153     0.016157672
      4311.72       1.3102651     0.016070654
      4316.04       1.3120354     0.015984070
      4320.35       1.3141354     0.015897914
      4324.67       1.3085222     0.015812285
      4329.00       1.2990197     0.015727186
      4333.33       1.2970731     0.015642627
      4337.66       1.2860066     0.015558757
      4342.00       1.2713959     0.015475431
      4346.34       1.2501052     0.015392305
      4350.69       1.2284826     0.015309753
      4355.04       1.2018162     0.015227993
      4359.39       1.1556131     0.015146381
      4363.75       1.1158068     0.015065512
      4368.12       1.0697220     0.014985239
      4372.48       1.0293559     0.014905453
      4376.86      0.99339471     0.014825842
      4381.23      0.94651168     0.014616470
      4385.61      0.91486959     0.014538919
      4390.00      0.88827444     0.014461922
      4394.39      0.86981485     0.014385372
      4398.79      0.85310514     0.014309363
      4403.18      0.83908649     0.014233879
      4407.59      0.83845704     0.014159033
      4412.00      0.84113221     0.014084915
      4416.41      0.85882279     0.014011091
      4420.82      0.86980400     0.013937768
      4425.25      0.88008207     0.013865368
      4429.67      0.89100329     0.013793537
      4434.10      0.90576627     0.013722036
      4438.54      0.91366104     0.013527885
      4442.97      0.92679569     0.013457109
      4447.42      0.94916762     0.013386905
      4451.86      0.96225543     0.013317272
      4456.32      0.97606363     0.013248135
      4460.77      0.99269133     0.013179662
      4465.24       1.0151494     0.013111852
      4469.70       1.0362894     0.013044595
      4474.17       1.0616124     0.012964446
      4478.65       1.0846755     0.012896864
      4483.12       1.1090583     0.012829954
      4487.61       1.1399755     0.012763637
      4492.09       1.1725331     0.012697967
      4496.59       1.2036755     0.012632947
      4501.08       1.2341593     0.012568840
      4505.58       1.2522623     0.012505414
      4510.09       1.2701144     0.012336026
      4514.60       1.2926901     0.012274375
      4519.12       1.3078968     0.012213689
      4523.63       1.3257124     0.012153725
      4528.16       1.3417677     0.012179818
      4532.69       1.3649471     0.012118466
      4537.22       1.3805199     0.011955228
      4541.76       1.4021690     0.011896248
      4546.30       1.4270080     0.011838063
      4550.85       1.4475498     0.011780414
      4555.40       1.4631493     0.011723821
      4559.95       1.4809584     0.011565046
      4564.51       1.4898776     0.011508236
      4569.08       1.5010566     0.011536353
      4573.65       1.5066121     0.011480813
      4578.22       1.5080234     0.011426001
      4582.80       1.4994600     0.011274736
      4587.38       1.4909758     0.011219618
      4591.97       1.4827505     0.011165550
      4596.56       1.4665446     0.011112540
      4601.16       1.4676201     0.011141812
      4605.76       1.4523067     0.010996338
      4610.37       1.4405142     0.010943325
      4614.98       1.4221890     0.010891421
      4619.59       1.4162339     0.010840274
      4624.21       1.4009193     0.010790120
      4628.84       1.4055029     0.010729391
      4633.47       1.4023820     0.010678546
      4638.10       1.4026223     0.010628756
      4642.74       1.4037129     0.010579993
      4647.38       1.4060782     0.010445495
      4652.03       1.4093856     0.010399249
      4656.68       1.4109638     0.010425515
      4661.34       1.4182341     0.010378198
      4666.00       1.4188567     0.010246987
      4670.67       1.4195628     0.010202243
      4675.33       1.4219007     0.010158527
      4680.01       1.4181622     0.010100129
      4684.69       1.4147207     0.010055786
      4689.38       1.4124399     0.010012742
      4694.07       1.3967973    0.0099706977
      4698.76       1.3755122    0.0099148252
      4703.46       1.3564092    0.0098721957
      4708.16       1.3392986    0.0098308085
      4712.87       1.3216782    0.0097906982
      4717.58       1.3106913    0.0096673363
      4722.30       1.2851726    0.0096963185
      4727.03       1.2638585    0.0096567527
      4731.75       1.2424298    0.0095376050
      4736.48       1.2172199    0.0094978557
      4741.22       1.1957345    0.0095277405
      4745.96       1.1590404    0.0094123005
      4750.71       1.1290989    0.0093732017
      4755.46       1.0909692    0.0093354101
      4760.22       1.0500761    0.0092909174
      4764.97       1.0127398    0.0092526454
      4769.74      0.96773211    0.0092157696
      4774.51      0.93453061    0.0091077615
      4779.29      0.89199682    0.0091362930
      4784.07      0.85976878    0.0091003692
      4788.85      0.82700562    0.0089944260
      4793.64      0.80534850    0.0090240554
      4798.43      0.79458389    0.0089891528
      4803.23      0.78623644    0.0088851299
      4808.03      0.78394977    0.0088535328
      4812.84      0.78658849    0.0088816917
      4817.66      0.79860569    0.0087799994
      4822.48      0.81009328    0.0087493915
      4827.30      0.82190552    0.0087093282
      4832.12      0.82612585    0.0086784163
      4836.96      0.82769923    0.0086490695
      4841.79      0.84155446    0.0086103501
      4846.63      0.84113168    0.0085809590
      4851.48      0.83323003    0.0085530813
      4856.33      0.81859871    0.0085153614
      4861.19      0.81226188    0.0084872858
      4866.05      0.80597492    0.0083926701
      4870.92      0.79357106    0.0084241808
      4875.79      0.78600838    0.0083976448
      4880.66      0.78107497    0.0083042686
      4885.55      0.77828935    0.0083368027
      4890.43      0.79434231    0.0082461521
      4895.32      0.79819278    0.0082195318
      4900.22      0.80297520    0.0081901702
      4905.12      0.81371508    0.0081634396
      4910.02      0.83134465    0.0081385212
      4914.94      0.85741656    0.0081095086
      4919.85      0.87781739    0.0080846290
      4924.77      0.90802864    0.0080577406
      4929.70      0.94181171    0.0080327492
      4934.62      0.97695226    0.0079495578
      4939.56       1.0069841    0.0079827939
      4944.50       1.0402503    0.0079002117
      4949.44       1.0675396    0.0078794851
      4954.39       1.1051196    0.0079118510
      4959.35       1.1269835    0.0078319485
      4964.31       1.1479163    0.0078655878
      4969.27       1.1596175    0.0077863688
      4974.24       1.1573863    0.0077679426
      4979.22       1.1546687    0.0077425351
      4984.20       1.1413305    0.0077244000
      4989.18       1.1069607    0.0077004149
      4994.17       1.0675209    0.0076825919
      4999.16       1.0263797    0.0076599601
      5004.16      0.98598990    0.0076424208
      5009.17      0.94328949    0.0075675967
      5014.18      0.89698326    0.0076039705
      5019.19      0.86481096    0.0075303838
      5024.21      0.82928946    0.0075670248
      5029.23      0.80355889    0.0074946754
      5034.26      0.78523828    0.0075315485
      5039.30      0.77685867    0.0074603761
      5044.34      0.77184963    0.0074447937
      5049.39      0.77978796    0.0074275139
      5054.43      0.78935301    0.0074125169
      5059.49      0.80588973    0.0073960849
      5064.55      0.82101554    0.0073289903
      5069.61      0.84372819    0.0073661505
      5074.68      0.87367034    0.0072999771
      5079.76      0.89702156    0.0073374354
      5084.84      0.92155895    0.0072725200
      5089.92      0.94742225    0.0073101752
      5095.01      0.97041941    0.0072461658
      5100.11      0.98827097    0.0072843772
      5105.21       1.0133550    0.0072213700
      5110.31       1.0276834    0.0072083328
      5115.42       1.0431526    0.0071979983
      5120.54       1.0560841    0.0071854519
      5125.66       1.0640126    0.0071760582
      5130.79       1.0689245    0.0071639594
      5135.92       1.0736365    0.0071555115
      5141.05       1.0700838    0.0071438873
      5146.20       1.0670496    0.0070842338
      5151.34       1.0676751    0.0071251268
      5156.49       1.0637156    0.0070658553
      5161.65       1.0636520    0.0071078277
      5166.81       1.0707816    0.0070489021
      5171.98       1.0728351    0.0070413692
      5177.15       1.0792621    0.0070829606
      5182.33       1.0845451    0.0070259464
      5187.51       1.0922148    0.0070202815
      5192.70       1.1008280    0.0070119629
      5197.89       1.1113733    0.0070063862
      5203.09       1.1292866    0.0069993861
      5208.29       1.1351045    0.0069938368
      5213.50       1.1572666    0.0069409031
      5218.72       1.1737283    0.0069828404
      5223.93       1.1863331    0.0069787747
      5229.16       1.1997249    0.0069261600
      5234.39       1.2113925    0.0069692955
      5239.62       1.2151314    0.0069182681
      5244.86       1.2328067    0.0069142682
      5250.11       1.2438070    0.0069584699
      5255.36       1.2526120    0.0069080461
      5260.61       1.2563246    0.0069051658
      5265.87       1.2663223    0.0069032862
      5271.14       1.2769416    0.0069004867
      5276.41       1.2834402    0.0068987161
      5281.69       1.2825978    0.0068973487
      5286.97       1.2832835    0.0068955062
      5292.26       1.2855138    0.0068469888
      5297.55       1.2858317    0.0068940641
      5302.85       1.2850235    0.0068931744
      5308.15       1.2804025    0.0068454035
      5313.46       1.2822330    0.0068466105
      5318.77       1.2766071    0.0068933646
      5324.09       1.2675853    0.0068463285
      5329.42       1.2602296    0.0068482440
      5334.75       1.2509493    0.0068511166
      5340.08       1.2406328    0.0068494947
      5345.42       1.2312172    0.0068520167
      5350.77       1.2106913    0.0068554729
      5356.12       1.2036483    0.0068549654
      5361.48       1.1895369    0.0068581191
      5366.83       1.1797647    0.0068620971
      5372.20       1.1642799    0.0068184936
      5377.58       1.1460381    0.0068664160
      5382.95       1.1301809    0.0068708452
      5388.34       1.1174356    0.0068287432
      5393.72       1.1054094    0.0068328536
      5399.12       1.0950667    0.0068377134
      5404.52       1.0868357    0.0068413252
      5409.92       1.0853387    0.0068458216
      5415.33       1.0782318    0.0068510352
      5420.75       1.0766304    0.0069496662
      5426.17       1.0728961    0.0071187376
      5431.60       1.0768341    0.0069418779
      5437.03       1.0842822    0.0068718655
      5442.47       1.0891289    0.0068912660
      5447.91       1.0900398    0.0070012656
      5453.36       1.0933267    0.0071632901
      5458.81       1.1035570    0.0073073847
      5464.27       1.1033172    0.0073910985
      5469.73       1.0994228    0.0074928262
      5475.20       1.0947980    0.0075509752
      5480.68       1.0955947    0.0075394289
      5486.16       1.0941757    0.0074724271
      5491.65       1.0927310    0.0073790475
      5497.14       1.0896870    0.0072610817
      5502.64       1.0837358    0.0071375386
      5508.14       1.0840473    0.0070297319
      5513.65       1.0792235    0.0069160042
      5519.16       1.0704409    0.0069049993
      5524.68       1.0677987    0.0070846769
      5530.20       1.0582998    0.0071777623
      5535.73       1.0505068    0.0069690164
      5541.27       1.0449693    0.0069319460
      5546.81       1.0406732    0.0069421843
      5552.36       1.0311160    0.0069527039
      5557.91       1.0227113    0.0069636659
      5563.47       1.0162880    0.0069275387
      5569.04       1.0078118    0.0069825015
      5574.60      0.99740022    0.0069934214
      5580.18      0.99191376    0.0070045804
      5585.76      0.99069417    0.0070160646
      5591.35      0.98653118    0.0070277560
      5596.94      0.98101055    0.0069918991
      5602.53      0.98122645    0.0070040638
      5608.14      0.98473678    0.0070164553
      5613.75      0.98570349    0.0070290216
      5619.36      0.98773874    0.0070419410
      5624.98      0.98805998    0.0070548924
      5630.60      0.98729074    0.0070616944
      5636.23      0.98232440    0.0070744330
      5641.87      0.97957501    0.0070873851
      5647.51      0.97716447    0.0071004108
      5653.16      0.97445556    0.0071137703
      5658.82      0.96854257    0.0071271704
      5664.47      0.96044005    0.0071407553
      5670.14      0.94873177    0.0071544528
      5675.81      0.93205888    0.0071209395
      5681.48      0.91193551    0.0071343874
      5687.17      0.89131358    0.0071480126
      5692.85      0.86787917    0.0071618334
      5698.55      0.83791728    0.0071758010
      5704.25      0.80764560    0.0071898517
      5709.95      0.77972859    0.0072040935
      5715.66      0.74999014    0.0072187430
      5721.38      0.72094805    0.0072339344
      5727.10      0.69985132    0.0072493553
      5732.83      0.68679700    0.0072644765
      5738.56      0.68372545    0.0072308938
      5744.30      0.68981709    0.0072467212
      5750.04      0.70109024    0.0072644469
      5755.79      0.72054002    0.0072844337
      5761.55      0.74444265    0.0073056298
      5767.31      0.78089105    0.0073271070
      5773.08      0.82436375    0.0073493065
      5778.85      0.87285479    0.0073725659
      5784.63      0.92324203    0.0073948626
      5790.41      0.96966063    0.0074146534
      5796.21       1.0173257    0.0074325774
      5802.00       1.0674290    0.0074494919
      5807.81       1.1125029    0.0074652707
      5813.61       1.1497959    0.0074797990
      5819.43       1.1856191    0.0074499834
      5825.25       1.2160285    0.0074637515
      5831.07       1.2423039    0.0074781002
      5836.90       1.2608092    0.0074923220
      5842.74       1.2797019    0.0075057460
      5848.58       1.2860074    0.0075181145
      5854.43       1.2892208    0.0075297913
      5860.29       1.2862865    0.0075411375
      5866.15       1.2783056    0.0075527972
      5872.01       1.2685912    0.0075636388
      5877.89       1.2718530    0.0075734357
      5883.76       1.2705816    0.0075390811
      5889.65       1.2633493    0.0075512079
      5895.54       1.2510894    0.0075633975
      5901.43       1.2364382    0.0075746087
      5907.34       1.2302586    0.0075863110
      5913.24       1.2227216    0.0075992324
      5919.16       1.2095618    0.0076129278
      5925.08       1.1985158    0.0076269615
      5931.00       1.1874647    0.0075980167
      5936.93       1.1710794    0.0076620139
      5942.87       1.1493872    0.0076764151
      5948.81       1.1292924    0.0076907399
      5954.76       1.1106145    0.0077052448
      5960.72       1.0874853    0.0077198254
      5966.68       1.0746830    0.0076907384
      5972.64       1.0591556    0.0077055873
      5978.62       1.0469585    0.0077203807
      5984.60       1.0396989    0.0077353485
      5990.58       1.0381051    0.0077503238
      5996.57       1.0257536    0.0077652859
      6002.57       1.0206948    0.0077835003
      6008.57       1.0121924    0.0077977808
      6014.58       1.0038708    0.0078120668
      6020.60       1.0032408    0.0078265490
      6026.62      0.99362159    0.0078410093
      6032.65      0.98961756    0.0078099120
      6038.68      0.99038397    0.0078235599
      6044.72      0.98431679    0.0078373115
      6050.76      0.97730954    0.0079012008
      6056.81      0.97247877    0.0078705552
      6062.87      0.96554240    0.0078834608
      6068.93      0.96094344    0.0078964840
      6075.00      0.95643119    0.0079096480
      6081.08      0.95837140    0.0078788932
      6087.16      0.95596538    0.0079416988
      6093.25      0.95283910    0.0079543190
      6099.34      0.94890677    0.0079682517
      6105.44      0.94481751    0.0079418513
      6111.54      0.93619248    0.0079561686
      6117.66      0.93298541    0.0079681200
      6123.78      0.92991731    0.0080310180
      6129.90      0.91964009    0.0080064795
      6136.03      0.92289812    0.0080298447
      6142.17      0.91942585    0.0080571549
      6148.31      0.91460368    0.0080434879
      6154.46      0.90695583    0.0081246382
      6160.61      0.89371979    0.0081538080
      6166.77      0.88286603    0.0081353388
      6172.94      0.87212760    0.0081554014
      6179.11      0.85598209    0.0082219448
      6185.29      0.83918006    0.0082307986
      6191.48      0.82559533    0.0081846671
      6197.67      0.81036926    0.0081820804
      6203.87      0.79351936    0.0082264795
      6210.07      0.77133201    0.0081733921
      6216.28      0.76067351    0.0081717883
      6222.50      0.74637154    0.0081292589
      6228.72      0.73020362    0.0081802845
      6234.95      0.72313556    0.0081792994
      6241.19      0.72071229    0.0081358567
      6247.42      0.71084350    0.0081399102
      6253.67      0.71651508    0.0081912822
      6259.93      0.71707950    0.0081497220
      6266.19      0.71634632    0.0081547958
      6272.46      0.71986445    0.0082076153
      6278.73      0.73364060    0.0081673600
      6285.01      0.74516025    0.0081738010
      6291.29      0.75430183    0.0081343045
      6297.58      0.76681693    0.0081895142
      6303.88      0.77955258    0.0081968434
      6310.19      0.80042372    0.0081570449
      6316.50      0.81612568    0.0082133105
      6322.81      0.83020629    0.0081767140
      6329.14      0.84190232    0.0081866587
      6335.47      0.86129371    0.0082044982
      6341.80      0.87069484    0.0082154178
      6348.14      0.87553319    0.0082254955
      6354.49      0.88305298    0.0082390519
      6360.85      0.88592057    0.0082471689
      6367.21      0.88105053    0.0082589356
      6373.57      0.88033324    0.0082632056
      6379.95      0.88465674    0.0082209379
      6386.33      0.87939732    0.0082693695
      6392.72      0.87900622    0.0082234350
      6399.11      0.87910436    0.0082235051
      6405.51      0.87405422    0.0082240263
      6411.92      0.86835706    0.0082247147
      6418.32      0.86818639    0.0082728046
      6424.74      0.86468333    0.0082273815
      6431.17      0.85921611    0.0082275008
      6437.60      0.85702613    0.0082248877
      6444.04      0.85299647    0.0082225973
      6450.48      0.85034835    0.0082192534
      6456.94      0.84125018    0.0081714083
      6463.39      0.83401102    0.0081676130
      6469.85      0.81771608    0.0081635495
      6476.33      0.80258821    0.0081579039
      6482.80      0.78077657    0.0081553717
      6489.28      0.76160824    0.0081513108
      6495.77      0.74308312    0.0081497344
      6502.27      0.72788284    0.0081456848
      6508.77      0.70630356    0.0081439104
      6515.28      0.69429200    0.0081394801
      6521.80      0.67832709    0.0081368551
      6528.32      0.67346323    0.0081316880
      6534.85      0.66699128    0.0080832487
      6541.38      0.66864973    0.0080779242
      6547.92      0.67443499    0.0080735627
      6554.47      0.68562358    0.0080672336
      6561.03      0.70627665    0.0080622720
      6567.59      0.72379953    0.0080547768
      6574.16      0.74135972    0.0080492485
      6580.73      0.76091827    0.0080405732
      6587.31      0.78513522    0.0079884395
      6593.90      0.80724041    0.0080247404
      6600.50      0.82807703    0.0080152604
      6607.10      0.84812784    0.0079624300
      6613.70      0.86864691    0.0079962493
      6620.32      0.88011577    0.0079423159
      6626.94      0.89127868    0.0079754729
      6633.57      0.90120528    0.0079202978
      6640.20      0.90795489    0.0079087038
      6646.84      0.91363170    0.0078965670
      6653.49      0.91878655    0.0078834859
      6660.14      0.92072215    0.0078280293
      6666.80      0.91732044    0.0078570967
      6673.47      0.91324790    0.0078515120
      6680.14      0.91031841    0.0078259024
      6686.82      0.90634701    0.0078697310
      6693.51      0.89893398    0.0078063374
      6700.20      0.88998598    0.0077923088
      6706.90      0.88263753    0.0078095203
      6713.61      0.87616526    0.0078588657
      6720.32      0.86503961    0.0079375629
      6727.05      0.85968085    0.0080175790
      6733.77      0.85124729    0.0081290025
      6740.51      0.84382492    0.0082396887
      6747.25      0.82971194    0.0082773504
      6754.00      0.82197256    0.0083777820
      6760.75      0.81843278    0.0083421795
      6767.51      0.81477280    0.0083105112
      6774.28      0.80736022    0.0082915893
      6781.05      0.79361543    0.0081396240
      6787.84      0.78317714    0.0080105237
      6794.62      0.77278513    0.0078812204
      6801.42      0.77199509    0.0077895160
      6808.22      0.76708719    0.0077087089
      6815.03      0.76270337    0.0076338631
      6821.85      0.76032407    0.0075118966
      6828.67      0.75607535    0.0074356827
      6835.50      0.75507125    0.0074217933
      6842.33      0.74965747    0.0073314961
      6849.17      0.74416672    0.0072780845
      6856.02      0.73810104    0.0072303760
      6862.88      0.73045039    0.0071962038
      6869.74      0.72354096    0.0071563679
      6876.61      0.71333355    0.0071188613
      6883.49      0.70511541    0.0070813432
      6890.37      0.69143746    0.0070077280
      6897.27      0.67791907    0.0069650455
      6904.16      0.66894969    0.0068167117
      6911.07      0.65667067    0.0067388202
      6917.98      0.64901467    0.0066247815
      6924.89      0.65520780    0.0065146658
      6931.82      0.66227672    0.0064430927
      6938.75      0.67627354    0.0063373768
      6945.69      0.69154817    0.0062338977
      6952.64      0.70798857    0.0061339239
      6959.59      0.72606783    0.0060711112
      6966.55      0.74585691    0.0059618942
      6973.52      0.76321695    0.0058751135
      6980.49      0.78183674    0.0057873073
      6987.47      0.79531265    0.0057271898
      6994.46      0.80564267    0.0056446299
      7001.46      0.81257409    0.0055731014
      7008.46      0.81936104    0.0055196315
      7015.46      0.82321581    0.0054776385
      7022.48      0.82729028    0.0054531831
      7029.51      0.82395539    0.0054023308
      7036.53      0.82334657    0.0053270874
      7043.57      0.81656897    0.0052682615
      7050.62      0.80689151    0.0052061481
      7057.66      0.79419777    0.0051602961
      7064.72      0.78689885    0.0050886906
      7071.79      0.77260901    0.0050130957
      7078.86      0.75685855    0.0049333439
      7085.94      0.74286836    0.0048483330
      7093.03      0.73215249    0.0047598381
      7100.12      0.72898973    0.0046702967
      7107.22      0.72385809    0.0045798646
      7114.33      0.71438251    0.0044883368
      7121.44      0.70493205    0.0044160687
      7128.56      0.69739286    0.0043210874
      7135.69      0.69571734    0.0042180417
      7142.83      0.69522937    0.0041225305
      7149.97      0.69944844    0.0040274366
      7157.12      0.70049477    0.0039326464
      7164.28      0.70360485    0.0039197432
      7171.44      0.70347036    0.0039547539
      7178.62      0.70325195    0.0039998202
      7185.80      0.70504235    0.0040572191
      7192.98      0.70660719    0.0041308822
      7200.17      0.70883712    0.0042265146
      7207.38      0.71303781    0.0043525815
      7214.58      0.71625607    0.0045229642
      7221.80      0.72210024    0.0047567913
      7229.02      0.72642766    0.0050758151
      7236.25      0.73223749    0.0055010205
      7243.49      0.73722576    0.0060533802
      7250.73      0.74194660    0.0067593688
      7257.98      0.74422912    0.0076618673
      7265.24      0.74458146    0.0088051159
      7272.51      0.74377525     0.010244858
