# starting wavelength =        3453.6400
# ending wavelength =        7367.2400
# O2 telluric scale =        0
# O2 telluric shift =        0
# H2O telluric scale =        0
# H2O telluric shift =        0
      3453.67      0.61474616      0.12674778
      3457.13      0.61244937      0.10692484
      3460.58      0.59262977     0.091126329
      3464.04      0.58182464     0.078572922
      3467.51      0.57347374     0.066880287
      3470.98      0.57425163     0.059563147
      3474.45      0.57370564     0.053876507
      3477.92      0.57012369     0.049461701
      3481.40      0.57030598     0.046050855
      3484.88      0.57259016     0.043840306
      3488.37      0.57087965     0.041631502
      3491.86      0.57786937     0.039893722
      3495.35      0.59403242     0.038513151
      3498.84      0.56169077     0.037106958
      3502.34      0.53557830     0.036212283
      3505.84      0.54376942     0.035463324
      3509.35      0.54668680     0.034826637
      3512.86      0.57086031     0.034280021
      3516.37      0.58114424     0.033599310
      3519.89      0.58057961     0.033495425
      3523.41      0.59618833     0.033395708
      3526.93      0.59396029     0.033472361
      3530.46      0.58807988     0.033160315
      3533.99      0.60836337     0.033234255
      3537.53      0.60125873     0.033308713
      3541.06      0.59725364     0.033209951
      3544.60      0.57355352     0.033074548
      3548.15      0.56642104     0.032975158
      3551.70      0.53681204     0.033054249
      3555.25      0.54519975     0.033130463
      3558.80      0.54476508     0.032819544
      3562.36      0.55559474     0.032897223
      3565.92      0.56271674     0.032977801
      3569.49      0.56358422     0.032884419
      3573.06      0.57009330     0.032744095
      3576.64      0.56288799     0.032649777
      3580.21      0.57464813     0.032728620
      3583.79      0.55590477     0.032816128
      3587.38      0.56156882     0.032496849
      3590.96      0.57672291     0.032582462
      3594.55      0.57500068     0.032668649
      3598.15      0.56706231     0.032350914
      3601.75      0.57514757     0.032437159
      3605.35      0.58603085     0.032525943
      3608.96      0.58226406     0.032434004
      3612.56      0.59699293     0.032294562
      3616.18      0.58869756     0.032388205
      3619.79      0.59850090     0.032288370
      3623.41      0.63856491     0.032158020
      3627.04      0.65840099     0.032248822
      3630.66      0.67009949     0.032155202
      3634.29      0.65485410     0.032246950
      3637.93      0.67238818     0.032118834
      3641.57      0.65383657     0.032017704
      3645.21      0.65201541     0.032118844
      3648.86      0.65693143     0.031983856
      3652.50      0.64158009     0.031890075
      3656.16      0.62904972     0.031987496
      3659.81      0.63198504     0.032094137
      3663.47      0.60062652     0.031759441
      3667.14      0.60634105     0.031865457
      3670.80      0.58732701     0.031967923
      3674.48      0.55957290     0.031841842
      3678.15      0.53900451     0.031740236
      3681.83      0.52518507     0.031853214
      3685.51      0.50062690     0.031718929
      3689.20      0.49724775     0.031626635
      3692.88      0.47007076     0.031732672
      3696.58      0.49898693     0.031605683
      3700.27      0.49964766     0.031717686
      3703.98      0.50523205     0.031627495
      3707.68      0.50819220     0.031490963
      3711.39      0.50723478     0.031608428
      3715.10      0.53940668     0.031730055
      3718.81      0.55342372     0.031381382
      3722.53      0.55882579     0.031504014
      3726.26      0.57055693     0.031625551
      3729.98      0.58267555     0.031501838
      3733.71      0.59340470     0.031398921
      3737.45      0.59787714     0.031532226
      3741.18      0.56988902     0.031397611
      3744.93      0.55917936     0.031530751
      3748.67      0.53460378     0.031430882
      3752.42      0.50674083     0.031302507
      3756.17      0.49665261     0.031439604
      3759.93      0.45314418     0.031574537
      3763.69      0.41491700     0.031451543
      3767.45      0.39495167     0.031347903
      3771.22      0.37520535     0.031499976
      3774.99      0.36735939     0.031363710
      3778.77      0.35559682     0.031509431
      3782.54      0.35826932     0.031389365
      3786.33      0.37404661     0.031281870
      3790.11      0.37967187     0.031441619
      3793.90      0.39889646     0.031306539
      3797.70      0.40356823     0.031461111
      3801.50      0.43529664     0.031625494
      3805.30      0.45354362     0.031232789
      3809.10      0.47411517     0.031400998
      3812.91      0.49956638     0.031267367
      3816.73      0.51878003     0.031429981
      3820.54      0.54067583     0.031604527
      3824.36      0.54879522     0.031473298
      3828.19      0.54980343     0.031382570
      3832.02      0.58662130     0.031247556
      3835.85      0.60743372     0.031419498
      3839.68      0.62165969     0.031608256
      3843.52      0.62063118     0.031474088
      3847.37      0.63362746     0.031661013
      3851.22      0.64183941     0.031250444
      3855.07      0.66219583     0.031119826
      3858.92      0.67347152     0.031032009
      3862.78      0.69206369     0.030896994
      3866.64      0.71198133     0.030770203
      3870.51      0.74053217     0.030680341
      3874.38      0.76197270     0.030548722
      3878.26      0.78880763     0.030425186
      3882.13      0.81264615     0.030334905
      3886.02      0.84678503     0.030205512
      3889.90      0.87727734     0.029814293
      3893.79      0.89924855     0.029993814
      3897.69      0.92753590     0.029866217
      3901.59      0.93534287     0.029479155
      3905.49      0.95185637     0.029656520
      3909.39      0.97456743     0.029530730
      3913.30      0.96113911     0.029147517
      3917.22      0.95500472     0.029035942
      3921.13      0.95153927     0.029200016
      3925.06      0.96086430     0.028820544
      3928.98      0.98191833     0.028709329
      3932.91      0.98118025     0.028873995
      3936.84       1.0012367     0.028498140
      3940.78       1.0004795     0.028386438
      3944.72       1.0028549     0.028279974
      3948.67       1.0102174     0.028178532
      3952.61       1.0157846     0.028066692
      3956.57       1.0103184     0.027959494
      3960.52       1.0065235     0.027863230
      3964.48       1.0005978     0.027750916
      3968.45      0.97954695     0.027643890
      3972.42      0.97683624     0.027291944
      3976.39      0.95169958     0.027440849
      3980.37      0.93837631     0.027332732
      3984.35      0.94580599     0.026990555
      3988.33      0.93504370     0.026877698
      3992.32      0.92896351     0.027026123
      3996.31      0.92711392     0.026694130
      4000.31      0.93612749     0.026581000
      4004.31      0.94772920     0.026471453
      4008.31      0.93743016     0.026617945
      4012.32      0.93547796     0.026290205
      4016.33      0.92104909     0.026179220
      4020.35      0.93489924     0.026072176
      4024.37      0.92542624     0.025745125
      4028.40      0.92313121     0.025894616
      4032.42      0.90917515     0.025786502
      4036.46      0.88781965     0.025681317
      4040.50      0.86962449     0.025357863
      4044.54      0.87864731     0.025259679
      4048.58      0.88825727     0.025399839
      4052.63      0.88599926     0.025295848
      4056.68      0.86679405     0.024977896
      4060.74      0.85036791     0.024879580
      4064.80      0.83826702     0.024785283
      4068.86      0.82464299     0.024918986
      4072.93      0.80429061     0.024604516
      4077.01      0.80233095     0.024508202
      4081.08      0.77168501     0.024413214
      4085.17      0.74629254     0.024321350
      4089.25      0.74296671     0.024240333
      4093.34      0.75507344     0.024143137
      4097.43      0.77849887     0.024048931
      4101.53      0.76548307     0.023955773
      4105.63      0.76575440     0.023865461
      4109.74      0.76070834     0.023568493
      4113.85      0.75137476     0.023691796
      4117.96      0.74429188     0.023599988
      4122.08      0.76792688     0.023508596
      4126.20      0.78328408     0.023224827
      4130.33      0.77371786     0.023131953
      4134.46      0.75537843     0.023039565
      4138.59      0.76282352     0.022949967
      4142.73      0.77837181     0.023072435
      4146.88      0.78905355     0.022798516
      4151.02      0.79652519     0.022706917
      4155.18      0.80433927     0.022615561
      4159.33      0.80243621     0.022526839
      4163.49      0.79976365     0.022439242
      4167.65      0.81480825     0.022352646
      4171.82      0.82842687     0.022295021
      4175.99      0.83022974     0.022205060
      4180.17      0.82439169     0.022117270
      4184.35      0.81405281     0.022030507
      4188.54      0.80467615     0.021944734
      4192.72      0.80205272     0.021860973
      4196.92      0.80131190     0.021595636
      4201.11      0.81728680     0.021514356
      4205.31      0.82221321     0.021433375
      4209.52      0.82974504     0.021353524
      4213.73      0.82720659     0.021468441
      4217.94      0.83962765     0.021385266
      4222.16      0.85480469     0.021126142
      4226.38      0.87180755     0.021046059
      4230.61      0.87434661     0.020966326
      4234.84      0.87210155     0.020888338
      4239.08      0.87958231     0.020809745
      4243.32      0.87072306     0.020732868
      4247.56      0.86788266     0.020656528
      4251.81      0.85673343     0.020580830
      4256.06      0.83514228     0.020336493
      4260.32      0.82691751     0.020259809
      4264.58      0.80576186     0.020184346
      4268.84      0.79870881     0.020109049
      4273.11      0.78958964     0.020213379
      4277.38      0.76283366     0.020139248
      4281.66      0.74551687     0.020064945
      4285.94      0.73519730     0.019992122
      4290.23      0.72092358     0.019919058
      4294.52      0.69335858     0.019846692
      4298.81      0.69289192     0.019619185
      4303.11      0.69284449     0.019546526
      4307.42      0.70343630     0.019474904
      4311.72      0.70107538     0.019403321
      4316.04      0.70777826     0.019332583
      4320.35      0.71773568     0.019262480
      4324.67      0.72238608     0.019192593
      4329.00      0.72461919     0.019123620
      4333.33      0.72235862     0.019054835
      4337.66      0.71917617     0.018986998
      4342.00      0.72861670     0.018919402
      4346.34      0.72064759     0.018852100
      4350.69      0.71131314     0.018785710
      4355.04      0.70177914     0.018718951
      4359.39      0.69253037     0.018502773
      4363.75      0.68507067     0.018437487
      4368.12      0.67436956     0.018372885
      4372.48      0.66617534     0.018308917
      4376.86      0.66351164     0.018245110
      4381.23      0.66825271     0.018182120
      4385.61      0.67556015     0.018119027
      4390.00      0.67703108     0.018056634
      4394.39      0.66872159     0.017994697
      4398.79      0.67262961     0.017932924
      4403.18      0.68455932     0.017871865
      4407.59      0.69031269     0.017810995
      4412.00      0.70922682     0.017750929
      4416.41      0.72152537     0.017540035
      4420.82      0.73108413     0.017481131
      4425.25      0.74157115     0.017422640
      4429.67      0.75607735     0.017364564
      4434.10      0.78689338     0.017306888
      4438.54      0.80562124     0.017249649
      4442.97      0.82710865     0.017192920
      4447.42      0.84471289     0.017136447
      4451.86      0.87360599     0.017080370
      4456.32      0.92566795     0.017024716
      4460.77      0.96159026     0.016969925
      4465.24      0.99549919     0.016915675
      4469.70       1.0285675     0.016861670
      4474.17       1.0459034     0.016808174
      4478.65       1.0807567     0.016608678
      4483.12       1.1111267     0.016555347
      4487.61       1.1305971     0.016502186
      4492.09       1.1486632     0.016449845
      4496.59       1.1593399     0.016397740
      4501.08       1.1703114     0.016346318
      4505.58       1.1839097     0.016295316
      4510.09       1.2056186     0.016373263
      4514.60       1.2252697     0.016323164
      4519.12       1.2333168     0.016138593
      4523.63       1.2387230     0.016088078
      4528.16       1.2538476     0.016037800
      4532.69       1.2757725     0.015988296
      4537.22       1.2989341     0.015939252
      4541.76       1.3160864     0.015890539
      4546.30       1.3351668     0.015842725
      4550.85       1.3413739     0.015795169
      4555.40       1.3451848     0.015619840
      4559.95       1.3398123     0.015574042
      4564.51       1.3423732     0.015529370
      4569.08       1.3312934     0.015603473
      4573.65       1.3158248     0.015556979
      4578.22       1.2942042     0.015511415
      4582.80       1.2786486     0.015339655
      4587.38       1.2734969     0.015296059
      4591.97       1.2707731     0.015252703
      4596.56       1.2543333     0.015210599
      4601.16       1.2211217     0.015168849
      4605.76       1.1900825     0.015128000
      4610.37       1.1829170     0.014958938
      4614.98       1.1768839     0.015032040
      4619.59       1.1577024     0.014991205
      4624.21       1.1387287     0.014950753
      4628.84       1.1244128     0.014911635
      4633.47       1.1235072     0.014749357
      4638.10       1.1021644     0.014708933
      4642.74       1.0801427     0.014669294
      4647.38       1.0497745     0.014743538
      4652.03       1.0365434     0.014705639
      4656.68       1.0281001     0.014548832
      4661.34       1.0117479     0.014510051
      4666.00      0.99804447     0.014471460
      4670.67      0.99260923     0.014434472
      4675.33      0.99332085     0.014398445
      4680.01      0.98436108     0.014357697
      4684.69      0.96837214     0.014320051
      4689.38      0.97004877     0.014283355
      4694.07      0.97373215     0.014248210
      4698.76      0.97020325     0.014101606
      4703.46      0.97932288     0.014174661
      4708.16      0.96261375     0.014138519
      4712.87      0.96137067     0.014103999
      4717.58      0.95755128     0.013959863
      4722.30      0.94584259     0.013928014
      4727.03      0.92056864     0.013999772
      4731.75      0.89572288     0.013965977
      4736.48      0.88142835     0.013824432
      4741.22      0.87168598     0.013793575
      4745.96      0.86199501     0.013764641
      4750.71      0.83491612     0.013725442
      4755.46      0.81672895     0.013695064
      4760.22      0.80296231     0.013665436
      4764.97      0.80596018     0.013637535
      4769.74      0.81132260     0.013498433
      4774.51      0.82445924     0.013570971
      4779.29      0.83958094     0.013543238
      4784.07      0.84867414     0.013408226
      4788.85      0.84214430     0.013379389
      4793.64      0.85660120     0.013452563
      4798.43      0.85894469     0.013321759
      4803.23      0.87318378     0.013292841
      4808.03      0.88054211     0.013265745
      4812.84      0.89014557     0.013238622
      4817.66      0.89905991     0.013210220
      4822.48      0.91313682     0.013183278
      4827.30      0.92061743     0.013158119
      4832.12      0.91812738     0.013130696
      4836.96      0.90957832     0.013104152
      4841.79      0.89624645     0.012980759
      4846.63      0.89249893     0.013053795
      4851.48      0.89461304     0.013027942
      4856.33      0.90660945     0.012905694
      4861.19      0.91692209     0.012883792
      4866.05      0.92041458     0.012954590
      4870.92      0.92038445     0.012833932
      4875.79      0.92352241     0.012812935
      4880.66      0.92190852     0.012884508
      4885.55      0.91874286     0.012765395
      4890.43      0.93199504     0.012745408
      4895.32      0.94675128     0.012720742
      4900.22      0.96566038     0.012699740
      4905.12      0.98421605     0.012681083
      4910.02       1.0018098     0.012563720
      4914.94       1.0125297     0.012637153
      4919.85       1.0137999     0.012619250
      4924.77       1.0220961     0.012502808
      4929.70       1.0159349     0.012577086
      4934.62       1.0178344     0.012464062
      4939.56       1.0117356     0.012445012
      4944.50       1.0089649     0.012520696
      4949.44       1.0124016     0.012407799
      4954.39       1.0014403     0.012482629
      4959.35      0.98336039     0.012372753
      4964.31      0.96814974     0.012354612
      4969.27      0.94048574     0.012339408
      4974.24      0.91554434     0.012320594
      4979.22      0.90151963     0.012304360
      4984.20      0.89948411     0.012288395
      4989.18      0.89367043     0.012271603
      4994.17      0.88584250     0.012168684
      4999.16      0.89742395     0.012240445
      5004.16      0.90779428     0.012137591
      5009.17      0.90958807     0.012211216
      5014.18      0.91573471     0.012108218
      5019.19      0.92019051     0.012096214
      5024.21      0.92584530     0.012080266
      5029.23      0.93612238     0.012068016
      5034.26      0.94974711     0.012053709
      5039.30      0.96426202     0.012041293
      5044.34      0.98246169     0.011941633
      5049.39      0.98285868     0.012015891
      5054.43      0.99743987     0.012006422
      5059.49      0.99683395     0.011992112
      5064.55       1.0125415     0.011982621
      5069.61       1.0302468     0.011969525
      5074.68       1.0532070     0.011960087
      5079.76       1.0706246     0.011861480
      5084.84       1.0934287     0.011938782
      5089.92       1.1110513     0.011841244
      5095.01       1.1469159     0.011833859
      5100.11       1.1654079     0.011822031
      5105.21       1.1773163     0.011815388
      5110.31       1.1884772     0.011804035
      5115.42       1.1973774     0.011798147
      5120.54       1.2117261     0.011787135
      5125.66       1.2225547     0.011781822
      5130.79       1.2286895     0.011771268
      5135.92       1.2264709     0.011766391
      5141.05       1.2277088     0.011756391
      5146.20       1.2224860     0.011668083
      5151.34       1.2194290     0.011742506
      5156.49       1.2193674     0.011655079
      5161.65       1.2438520     0.011648432
      5166.81       1.2439295     0.011643437
      5171.98       1.2615318     0.011636968
      5177.15       1.2808794     0.011632861
      5182.33       1.3088299     0.011626527
      5187.51       1.3205997     0.011623423
      5192.70       1.3336535     0.011617152
      5197.89       1.3443484     0.011530672
      5203.09       1.3578351     0.011608887
      5208.29       1.3771493     0.011604875
      5213.50       1.3870954     0.011601688
      5218.72       1.3952162     0.011597814
      5223.93       1.4007596     0.011514015
      5229.16       1.3986950     0.011591869
      5234.39       1.4071711     0.011507776
      5239.62       1.4041472     0.011587117
      5244.86       1.3967019     0.011502684
      5250.11       1.3911984     0.011502956
      5255.36       1.3890552     0.011498786
      5260.61       1.3874831     0.011498679
      5265.87       1.3854510     0.011500983
      5271.14       1.3967677     0.011495681
      5276.41       1.4057356     0.011497445
      5281.69       1.4042494     0.011417173
      5286.97       1.4028200     0.011495265
      5292.26       1.4000999     0.011417064
      5297.55       1.4054517     0.011417775
      5302.85       1.4155530     0.011496947
      5308.15       1.4221764     0.011418632
      5313.46       1.4226621     0.011496968
      5318.77       1.4196823     0.011420953
      5324.09       1.4210206     0.011422006
      5329.42       1.4263252     0.011424990
      5334.75       1.4128999     0.011425467
      5340.08       1.3924601     0.011427741
      5345.42       1.3770608     0.011351414
      5350.77       1.3748466     0.011432291
      5356.12       1.3624500     0.011435023
      5361.48       1.3528201     0.011359643
      5366.83       1.3540402     0.011440823
      5372.20       1.3363963     0.011444607
      5377.58       1.3253627     0.011369295
      5382.95       1.3030798     0.011375707
      5388.34       1.2951188     0.011455476
      5393.72       1.2771779     0.011380636
      5399.12       1.2628042     0.011387202
      5404.52       1.2578951     0.011387716
      5409.92       1.2490971     0.011393470
      5415.33       1.2366099     0.011400537
      5420.75       1.2279785     0.011328732
      5426.17       1.2239872     0.011408240
      5431.60       1.2178714     0.011415269
      5437.03       1.2058654     0.011344940
      5442.47       1.2097921     0.011351006
      5447.91       1.2236341     0.011431862
      5453.36       1.2347174     0.011439878
      5458.81       1.2381139     0.011369231
      5464.27       1.2508071     0.011376139
      5469.73       1.2660533     0.011457887
      5475.20       1.2630507     0.011389167
      5480.68       1.2616881     0.011396189
      5486.16       1.2521875     0.011404044
      5491.65       1.2452629     0.011334454
      5497.14       1.2365742     0.011418375
      5502.64       1.2158175     0.011426086
      5508.14       1.1887511     0.011434608
      5513.65       1.1651641     0.011365132
      5519.16       1.1385863     0.011374879
      5524.68       1.1109459     0.011458445
      5530.20       1.0789063     0.011467444
      5535.73       1.0476833     0.011397943
      5541.27       1.0187664     0.011407925
      5546.81      0.98885750     0.011418644
      5552.36      0.96119557     0.011429884
      5557.91      0.93592015     0.011433123
      5563.47      0.91549438     0.011443266
      5569.04      0.90436407     0.011454107
      5574.60      0.89000442     0.011465350
      5580.18      0.88664318     0.011399372
      5585.76      0.88083226     0.011409502
      5591.35      0.87253557     0.011420173
      5596.94      0.88021081     0.011503017
      5602.53      0.88345391     0.011514643
      5608.14      0.87572127     0.011449800
      5613.75      0.88321565     0.011460442
      5619.36      0.90254560     0.011471542
      5624.98      0.91455436     0.011482794
      5630.60      0.92278120     0.011494658
      5636.23      0.93814041     0.011429235
      5641.87      0.94688140     0.011514790
      5647.51      0.95403182     0.011525837
      5653.16      0.95986556     0.011537485
      5658.82      0.96541434     0.011549219
      5664.47      0.96837647     0.011561466
      5670.14      0.98157146     0.011495847
      5675.81      0.99877109     0.011508412
      5681.48       1.0203077     0.011521126
      5687.17       1.0510596     0.011533983
      5692.85       1.0666939     0.011547242
      5698.55       1.0866237     0.011560408
      5704.25       1.1122108     0.011573911
      5709.95       1.1385060     0.011508447
      5715.66       1.1687716     0.011591452
      5721.38       1.2029260     0.011604154
      5727.10       1.2342229     0.011617399
      5732.83       1.2614545     0.011630426
      5738.56       1.2793024     0.011643815
      5744.30       1.3001754     0.011657244
      5750.04       1.3153711     0.011670786
      5755.79       1.3350654     0.011608563
      5761.55       1.3531358     0.011621427
      5767.31       1.3686374     0.011634529
      5773.08       1.3782038     0.011647565
      5778.85       1.3900604     0.011661122
      5784.63       1.3948126     0.011674746
      5790.41       1.4044730     0.011689541
      5796.21       1.4069098     0.011704563
      5802.00       1.3978553     0.011719164
      5807.81       1.3977158     0.011733659
      5813.61       1.3868957     0.011749181
      5819.43       1.3776649     0.011767383
      5825.25       1.3622401     0.011711261
      5831.07       1.3532072     0.011735251
      5836.90       1.3365843     0.011759141
      5842.74       1.3196691     0.011784424
      5848.58       1.2971625     0.011810863
      5854.43       1.2947144     0.011836634
      5860.29       1.2901438     0.011857920
      5866.15       1.2901107     0.011876311
      5872.01       1.2945628     0.011822790
      5877.89       1.2964904     0.011837411
      5883.76       1.2937082     0.011849990
      5889.65       1.2910361     0.011860941
      5895.54       1.2956092     0.011872114
      5901.43       1.2980019     0.011883972
      5907.34       1.2959109     0.011896034
      5913.24       1.2967553     0.011906539
      5919.16       1.3003095     0.011915587
      5925.08       1.3001882     0.011923383
      5931.00       1.2939857     0.011930538
      5936.93       1.3011630     0.011938190
      5942.87       1.3076835     0.011872034
      5948.81       1.3105504     0.011876205
      5954.76       1.3116337     0.011881345
      5960.72       1.3079271     0.011889487
      5966.68       1.3111979     0.011898128
      5972.64       1.3126608     0.011905016
      5978.62       1.3104800     0.011912375
      5984.60       1.3123457     0.011921673
      5990.58       1.2996162     0.011932487
      5996.57       1.2771006     0.011950620
      6002.57       1.2621403     0.011961446
      6008.57       1.2298013     0.011972977
      6014.58       1.2005016     0.011984730
      6020.60       1.1714399     0.011996526
      6026.62       1.1449007     0.012008444
      6032.65       1.1174063     0.011951251
      6038.68       1.0915661     0.011963646
      6044.72       1.0715248     0.011976213
      6050.76       1.0529346     0.011988829
      6056.81       1.0367942     0.012001526
      6062.87       1.0267512     0.012014328
      6068.93       1.0156054     0.012029448
      6075.00       1.0050803     0.012041080
      6081.08       1.0087311     0.012052962
      6087.16       1.0126200     0.012064993
      6093.25       1.0137905     0.012077097
      6099.34       1.0188422     0.012017769
      6105.44       1.0129703     0.012028458
      6111.54       1.0010147     0.012039541
      6117.66      0.99749348     0.012126255
      6123.78      0.98036219     0.012068355
      6129.90      0.97530969     0.012078310
      6136.03      0.96414349     0.012088264
      6142.17      0.94947665     0.012098678
      6148.31      0.93949008     0.012109177
      6154.46      0.92629585     0.012126247
      6160.61      0.91939878     0.012135405
      6166.77      0.91539116     0.012145186
      6172.94      0.91873351     0.012089448
      6179.11      0.92059107     0.012105888
      6185.29      0.92937912     0.012119676
      6191.48      0.94341421     0.012200093
      6197.67      0.96945120     0.012144111
      6203.87      0.98541636     0.012163664
      6210.07       1.0133659     0.012189594
      6216.28       1.0318843     0.012221826
      6222.50       1.0544033     0.012266061
      6228.72       1.0777645     0.012302870
      6234.95       1.1021931     0.012338680
      6241.19       1.1105585     0.012300699
      6247.42       1.1216308     0.012323493
      6253.67       1.1266606     0.012415323
      6259.93       1.1169535     0.012347501
      6266.19       1.1113416     0.012342189
      6272.46       1.1015590     0.012330895
      6278.73       1.0876476     0.012315465
      6285.01       1.0774868     0.012298752
      6291.29       1.0662160     0.012288080
      6297.58       1.0522283     0.012215013
      6303.88       1.0397798     0.012282644
      6310.19       1.0384914     0.012273924
      6316.50       1.0304862     0.012200146
      6322.81       1.0175042     0.012269787
      6329.14       1.0195982     0.012267050
      6335.47       1.0135642     0.012197099
      6341.80       1.0148152     0.012198118
      6348.14       1.0164895     0.012199482
      6354.49       1.0156738     0.012200901
      6360.85       1.0096831     0.012204065
      6367.21       1.0053705     0.012208466
      6373.57       1.0055141     0.012212547
      6379.95       1.0048918     0.012147432
      6386.33       1.0056984     0.012222562
      6392.72       1.0182539     0.012227878
      6399.11       1.0220392     0.012165777
      6405.51       1.0251894     0.012247190
      6411.92       1.0322905     0.012193308
      6418.32       1.0395063     0.012204881
      6424.74       1.0489709     0.012221178
      6431.17       1.0594333     0.012228036
      6437.60       1.0564696     0.012235660
      6444.04       1.0563472     0.012246598
      6450.48       1.0620174     0.012249051
      6456.94       1.0627569     0.012182131
      6463.39       1.0692352     0.012248403
      6469.85       1.0678362     0.012176210
      6476.33       1.0682657     0.012240510
      6482.80       1.0720111     0.012167766
      6489.28       1.0795401     0.012165421
      6495.77       1.0905361     0.012163674
      6502.27       1.0944143     0.012161298
      6508.77       1.0895849     0.012156978
      6515.28       1.0948176     0.012150576
      6521.80       1.0910022     0.012074706
      6528.32       1.0918085     0.012135617
      6534.85       1.0919206     0.012061629
      6541.38       1.0909012     0.012122511
      6547.92       1.0894551     0.012045160
      6554.47       1.0888893     0.012035177
      6561.03       1.0833274     0.012028377
      6567.59       1.0899970     0.012021033
      6574.16       1.1018790     0.012016455
      6580.73       1.1144060     0.012009638
      6587.31       1.1203982     0.012005223
      6593.90       1.1226359     0.011998410
      6600.50       1.1319265     0.011993134
      6607.10       1.1379413     0.011920151
      6613.70       1.1501585     0.011979304
      6620.32       1.1395774     0.011906064
      6626.94       1.1281077     0.011964551
      6633.57       1.1122729     0.011891085
      6640.20       1.1013357     0.011948408
      6646.84       1.0874873     0.011874380
      6653.49       1.0714034     0.011865008
      6660.14       1.0551016     0.011856033
      6666.80       1.0375017     0.011845433
      6673.47       1.0256248     0.011836357
      6680.14       1.0117909     0.011824302
      6686.82       1.0001119     0.011748706
      6693.51      0.99178555     0.011801757
      6700.20      0.98801164     0.011724716
      6706.90      0.98162770     0.011713129
      6713.61      0.97404208     0.011699252
      6720.32      0.97095320     0.011686024
      6727.05      0.96989134     0.011672395
      6733.77      0.96770675     0.011657485
      6740.51      0.97073594     0.011643268
      6747.25      0.96988609     0.011628173
      6754.00      0.96956843     0.011622905
      6760.75      0.96878694     0.011588110
      6767.51      0.97452295     0.011662094
      6774.28      0.97500055     0.011578504
      6781.05      0.98669786     0.011559539
      6787.84      0.99368759     0.011650600
      6794.62      0.99575313     0.011663239
      6801.42      0.99750311     0.011783934
      6808.22      0.99810596     0.011868038
      6815.03      0.98934282     0.012081157
      6821.85      0.98272674     0.012257471
      6828.67      0.98237690     0.012327486
      6835.50      0.97917458     0.012493705
      6842.33      0.97721130     0.012459196
      6849.17      0.96839437     0.012432577
      6856.02      0.96920694     0.012334671
      6862.88      0.97351174     0.012211811
      6869.74      0.97705594     0.012032988
      6876.61      0.97444734     0.011850919
      6883.49      0.97588112     0.011651784
      6890.37      0.98325507     0.011609533
      6897.27      0.99403635     0.011514682
      6904.16       1.0037520     0.011344851
      6911.07       1.0092677     0.011240763
      6917.98       1.0157661     0.011232668
      6924.89       1.0231955     0.011110915
      6931.82       1.0239011     0.011045449
      6938.75       1.0254252     0.010989088
      6945.69       1.0232628     0.010941759
      6952.64       1.0290922     0.010907863
      6959.59       1.0332327     0.010869338
      6966.55       1.0337212     0.010831664
      6973.52       1.0330270     0.010737519
      6980.49       1.0290569     0.010693102
      6987.47       1.0320753     0.010485546
      6994.46       1.0349118     0.010329710
      7001.46       1.0367699     0.010231007
      7008.46       1.0440536     0.010083061
      7015.46       1.0366537    0.0099407572
      7022.48       1.0453321    0.0098524918
      7029.51       1.0464014    0.0097152981
      7036.53       1.0412465    0.0095831393
      7043.57       1.0465128    0.0094242837
      7050.62       1.0406911    0.0093571742
      7057.66       1.0374065    0.0092460665
      7064.72       1.0345870    0.0091337979
      7071.79       1.0289184    0.0090231847
      7078.86       1.0269454    0.0089577220
      7085.94       1.0186993    0.0088695171
      7093.03       1.0097865    0.0088092353
      7100.12       1.0096767    0.0087688446
      7107.22       1.0086413    0.0087277814
      7114.33       1.0094470    0.0087071172
      7121.44       1.0082615    0.0086165422
      7128.56       1.0058350    0.0085558799
      7135.69       1.0026607    0.0084910321
      7142.83      0.99752574    0.0084169795
      7149.97      0.99797431    0.0083379276
      7157.12      0.99585050    0.0082854191
      7164.28      0.99979728    0.0081936309
      7171.44      0.99930021    0.0080935419
      7178.62       1.0007549    0.0079873357
      7185.80      0.99798884    0.0078790223
      7192.98      0.99243913    0.0077690769
      7200.17      0.98769512    0.0076574413
      7207.38      0.99007202    0.0075436230
      7214.58      0.98798454    0.0074271599
      7221.80      0.98552632    0.0073393680
      7229.02      0.98415910    0.0072064889
      7236.25      0.97958809    0.0070908943
      7243.49      0.97480767    0.0069764354
      7250.73      0.96736810    0.0069833289
      7257.98      0.96309127    0.0070629825
      7265.24      0.95760406    0.0071602698
      7272.51      0.94951983    0.0072794509
      7279.78      0.94148804    0.0074276448
      7287.06      0.93406752    0.0076156494
      7294.35      0.92706266    0.0078596999
      7301.64      0.91836154    0.0081850859
      7308.94      0.90712993    0.0086267467
      7316.25      0.90014132    0.0092272632
      7323.57      0.89534886     0.010028547
      7330.89      0.88669593     0.011070635
      7338.22      0.87450448     0.012402489
      7345.56      0.86275687     0.014103251
      7352.91      0.85073451     0.016263213
      7360.26      0.83794700     0.018982479
