# starting wavelength =        3417.1900
# ending wavelength =        7255.8800
# O2 telluric scale =        0
# O2 telluric shift =        0
# H2O telluric scale =        0
# H2O telluric shift =        0
      3419.32      0.17554289      0.18981177
      3422.74      0.16387816      0.16514043
      3426.17      0.13922126      0.14190962
      3429.59      0.11461809      0.12348305
      3433.02     0.099439932      0.10897523
      3436.45     0.065937295     0.097626494
      3439.89     0.086848086     0.087298489
      3443.33     0.083904415     0.080804621
      3446.78     0.090609978     0.075791383
      3450.22     0.095932606     0.071896758
      3453.67     0.095709797     0.069166166
      3457.13     0.087363659     0.066557863
      3460.58      0.11237046     0.064462338
      3464.04     0.099287260     0.062751155
      3467.51     0.082233484     0.061331203
      3470.98     0.048301659     0.059723647
      3474.45     0.047430177     0.058719600
      3477.92     0.044917260     0.057851943
      3481.40     0.061046015     0.057364692
      3484.88     0.064790191     0.056815828
      3488.37     0.047925573     0.056909401
      3491.86     0.057738278     0.057009572
      3495.35      0.10965181     0.056828212
      3498.84     0.095503741     0.056553693
      3502.34     0.086355356     0.056370233
      3505.84     0.093312409     0.056464482
      3509.35     0.094050012     0.056572350
      3512.86      0.12355209     0.056013704
      3516.37      0.13746134     0.056118446
      3519.89      0.16093800     0.055939417
      3523.41      0.16848452     0.056034538
      3526.93      0.16501892     0.055773940
      3530.46      0.18185060     0.055583203
      3533.99      0.21604894     0.055698551
      3537.53      0.20621657     0.055431130
      3541.06      0.21110658     0.055247779
      3544.60      0.24182378     0.055355197
      3548.15      0.26161909     0.055474241
      3551.70      0.29551695     0.054907692
      3555.25      0.31987084     0.055023391
      3558.80      0.35459884     0.055142108
      3562.36      0.35049239     0.054576802
      3565.92      0.33115372     0.054694929
      3569.49      0.32741085     0.054816090
      3573.06      0.30850160     0.054638050
      3576.64      0.27184130     0.054368577
      3580.21      0.26499729     0.054495844
      3583.79      0.24752286     0.054305789
      3587.38      0.21672076     0.054051853
      3590.96      0.23754527     0.054177001
      3594.55      0.24498278     0.053998489
      3598.15      0.21449937     0.054121192
      3601.75      0.16892742     0.053866121
      3605.35      0.17685575     0.053676351
      3608.96      0.17453285     0.053821554
      3612.56      0.11203773     0.053556388
      3616.18      0.11239445     0.053698755
      3619.79      0.13841548     0.053507764
      3623.41      0.16886665     0.053253317
      3627.04      0.16189189     0.053394455
      3630.66      0.17818687     0.053220281
      3634.29      0.18983994     0.052954772
      3637.93      0.23317287     0.053101388
      3641.57      0.25818633     0.053252048
      3645.21      0.25468499     0.052658319
      3648.86      0.28063255     0.052810082
      3652.50      0.25967296     0.052964046
      3656.16      0.30434700     0.052720334
      3659.81      0.28013548     0.052522892
      3663.47      0.28907570     0.052687596
      3667.14      0.27135599     0.052427447
      3670.80      0.28618079     0.052596814
      3674.48      0.29217717     0.052404320
      3678.15      0.26844870     0.052155449
      3681.83      0.29528459     0.052321667
      3685.51      0.27558719     0.052495157
      3689.20      0.29152325     0.051884157
      3692.88      0.27678677     0.052052550
      3696.58      0.28763094     0.052238157
      3700.27      0.33229138     0.051979334
      3703.98      0.35328849     0.052167827
      3707.68      0.35958332     0.051975080
      3711.39      0.35185085     0.051724426
      3715.10      0.37881273     0.051915609
      3718.81      0.36179230     0.052106085
      3722.53      0.35776818     0.051479869
      3726.26      0.34188653     0.051664831
      3729.98      0.31693733     0.051418313
      3733.71      0.29369711     0.051617863
      3737.45      0.22955923     0.051821971
      3741.18      0.18613879     0.051579206
      3744.93      0.16509599     0.051377552
      3748.67      0.14305909     0.051609461
      3752.42      0.11527113     0.051345198
      3756.17     0.065138800     0.051561713
      3759.93     0.046325199     0.051320082
      3763.69     0.036249420     0.051535478
      3767.45     0.016120739     0.051362852
      3771.22     0.021433400     0.051098709
      3774.99     0.047532824     0.051326862
      3778.77     0.063266519     0.051583326
      3782.54     0.074248177     0.051317182
      3786.33     0.093600177     0.051565727
      3790.11     0.081020134     0.051328447
      3793.90     0.087836155     0.051120159
      3797.70      0.11156149     0.051402660
      3801.50      0.11643986     0.051131617
      3805.30     0.040967395     0.050874941
      3809.10     0.044280673     0.050699001
      3812.91     0.017405389     0.050436355
      3816.73    -0.024861133     0.050187476
      3820.54    -0.015549918     0.050010170
      3824.36   -0.0081704057     0.049749282
      3828.19    0.0047904816     0.049065957
      3832.02     0.036922577     0.049325828
      3835.85     0.076189697     0.049073009
      3839.68      0.10133261     0.048400090
      3843.52      0.11109867     0.048654661
      3847.37      0.15679149     0.048401414
      3851.22      0.17168036     0.047735716
      3855.07      0.18470750     0.047508083
      3858.92      0.24179413     0.047740989
      3862.78      0.26074852     0.047083261
      3866.64      0.27507276     0.046853983
      3870.51      0.26956282     0.047084913
      3874.38      0.28295649     0.046434134
      3878.26      0.27442770     0.046209251
      3882.13      0.28989789     0.045992254
      3886.02      0.29288437     0.045796368
      3889.90      0.31373290     0.045568513
      3893.79      0.33578428     0.045350520
      3897.69      0.38091402     0.045163765
      3901.59      0.40140764     0.044939367
      3905.49      0.42464942     0.044720777
      3909.39      0.45966267     0.044111462
      3913.30      0.49036628     0.044314515
      3917.22      0.52209782     0.044095108
      3921.13      0.57168471     0.043505217
      3925.06      0.60619271     0.043280530
      3928.98      0.62905690     0.043481960
      3932.91      0.67839450     0.042907025
      3936.84      0.68432610     0.042680549
      3940.78      0.71200970     0.042461382
      3944.72      0.74732781     0.042662023
      3948.67      0.77893421     0.042096074
      3952.61      0.77120965     0.041873393
      3956.57      0.76519088     0.041657120
      3960.52      0.75660879     0.041096712
      3964.48      0.74014704     0.041297563
      3968.45      0.72604733     0.041081158
      3972.42      0.70592214     0.040868589
      3976.39      0.67467289     0.040316582
      3980.37      0.66899795     0.040513520
      3984.35      0.67020618     0.040300388
      3988.33      0.66272468     0.040092853
      3992.32      0.67987523     0.039551511
      3996.31      0.69793713     0.039351911
      4000.31      0.71202626     0.039535028
      4004.31      0.71845089     0.039328312
      4008.31      0.77602399     0.038797442
      4012.32      0.75216192     0.038601184
      4016.33      0.78176636     0.038407594
      4020.35      0.84006930     0.038581069
      4024.37      0.89405303     0.038056123
      4028.40      0.93354366     0.037862086
      4032.42      0.98660809     0.037671083
      4036.46       1.0227829     0.037482212
      4040.50       1.0565967     0.036982407
      4044.54       1.0816318     0.037137710
      4048.58       1.0842699     0.036947888
      4052.63       1.0679060     0.036760733
      4056.68       1.0590762     0.036575441
      4060.74       1.0269739     0.036090461
      4064.80      0.99403159     0.035900402
      4068.86      0.95944967     0.035715714
      4072.93      0.89517460     0.035870076
      4077.01      0.84516139     0.035688035
      4081.08      0.81158102     0.035221330
      4085.17      0.77466913     0.035034287
      4089.25      0.70003389     0.034852092
      4093.34      0.67842408     0.034673013
      4097.43      0.68492557     0.034495213
      4101.53      0.66062301     0.034376597
      4105.63      0.63066377     0.034192813
      4109.74      0.62481781     0.034011935
      4113.85      0.62119899     0.033835096
      4117.96      0.62104493     0.033659976
      4122.08      0.60517006     0.033485771
      4126.20      0.57594101     0.033042411
      4130.33      0.55033409     0.032873050
      4134.46      0.54543489     0.032707454
      4138.59      0.53887513     0.032850738
      4142.73      0.52010335     0.032678530
      4146.88      0.52420580     0.032507141
      4151.02      0.52427009     0.032337949
      4155.18      0.55900983     0.031911041
      4159.33      0.57646393     0.031747821
      4163.49      0.60205013     0.031585230
      4167.65      0.59958524     0.031423302
      4171.82      0.59393697     0.031262661
      4175.99      0.61064716     0.031104985
      4180.17      0.61295324     0.030949160
      4184.35      0.62232076     0.030542077
      4188.54      0.62583344     0.030383861
      4192.72      0.63032992     0.030503656
      4196.92      0.61187238     0.030347037
      4201.11      0.58889315     0.030192461
      4205.31      0.56285756     0.030038172
      4209.52      0.54575916     0.029884195
      4213.73      0.52800146     0.029730523
      4217.94      0.50426431     0.029579927
      4222.16      0.48629570     0.029202710
      4226.38      0.47226751     0.029051875
      4230.61      0.46694767     0.028901512
      4234.84      0.47019751     0.028751617
      4239.08      0.45545452     0.028603881
      4243.32      0.45487840     0.028458221
      4247.56      0.43635171     0.028312847
      4251.81      0.43270906     0.028167868
      4256.06      0.43794715     0.028023263
      4260.32      0.45393289     0.027879971
      4264.58      0.47739991     0.027739008
      4268.84      0.47367566     0.027598196
      4273.11      0.47909559     0.027242883
      4277.38      0.48430251     0.027103789
      4281.66      0.48576111     0.026966065
      4285.94      0.49886101     0.026830397
      4290.23      0.50178663     0.026694879
      4294.52      0.48896708     0.026559633
      4298.81      0.47337602     0.026424698
      4303.11      0.47138797     0.026291013
      4307.42      0.46571539     0.026159322
      4311.72      0.45931312     0.026027772
      4316.04      0.44601004     0.025896483
      4320.35      0.42797737     0.025765493
      4324.67      0.41352674     0.025635234
      4329.00      0.40515895     0.025507688
      4333.33      0.39178326     0.025380241
      4337.66      0.39533143     0.025252960
      4342.00      0.41060084     0.025125903
      4346.34      0.41971325     0.025000411
      4350.69      0.41337222     0.024876199
      4355.04      0.41561861     0.024752244
      4359.39      0.41261440     0.024628595
      4363.75      0.41177377     0.024505306
      4368.12      0.42357108     0.024169169
      4372.48      0.42562758     0.024050086
      4376.86      0.42807440     0.023931351
      4381.23      0.44826948     0.023813072
      4385.61      0.46722083     0.023695235
      4390.00      0.47727791     0.023579075
      4394.39      0.49158421     0.023464214
      4398.79      0.50687274     0.023349848
      4403.18      0.50512208     0.023235979
      4407.59      0.51895257     0.023122625
      4412.00      0.53920884     0.023010546
      4416.41      0.53847954     0.022900074
      4420.82      0.54871704     0.022587337
      4425.25      0.54697560     0.022476560
      4429.67      0.54078212     0.022366276
      4434.10      0.53233213     0.022258320
      4438.54      0.52411466     0.022151109
      4442.97      0.51291817     0.022044399
      4447.42      0.50094162     0.021938383
      4451.86      0.48384019     0.021833359
      4456.32      0.47460848     0.021729772
      4460.77      0.47373015     0.021606681
      4465.24      0.47543474     0.021502017
      4469.70      0.48286147     0.021398104
      4474.17      0.49881968     0.021295544
      4478.65      0.50394543     0.021194284
      4483.12      0.51411268     0.021094058
      4487.61      0.53582581     0.020994657
      4492.09      0.56196905     0.020718577
      4496.59      0.60779184     0.020622647
      4501.08      0.63942790     0.020527743
      4505.58      0.68754486     0.020433998
      4510.09      0.71266228     0.020341198
      4514.60      0.74761100     0.020392961
      4519.12      0.77739741     0.020298225
      4523.63      0.79366364     0.020034147
      4528.16      0.80841933     0.019942954
      4532.69      0.80921837     0.019852729
      4537.22      0.81732052     0.019763825
      4541.76      0.82487876     0.019676569
      4546.30      0.84106078     0.019418213
      4550.85      0.85649904     0.019473658
      4555.40      0.86976355     0.019385989
      4559.95      0.87662263     0.019300026
      4564.51      0.88082343     0.019215700
      4569.08      0.90138860     0.018968930
      4573.65      0.92686400     0.018883616
      4578.22      0.95287759     0.018799499
      4582.80       1.0009971     0.018717428
      4587.38       1.0366856     0.018775439
      4591.97       1.0875697     0.018538286
      4596.56       1.1113980     0.018455981
      4601.16       1.1548364     0.018375335
      4605.76       1.1897958     0.018296348
      4610.37       1.2381646     0.018069678
      4614.98       1.2780563     0.018125128
      4619.59       1.2980800     0.018045990
      4624.21       1.3125979     0.017968878
      4628.84       1.3311933     0.017893294
      4633.47       1.3593916     0.017674028
      4638.10       1.3724589     0.017729110
      4642.74       1.3762979     0.017653564
      4647.38       1.3706231     0.017580340
      4652.03       1.3552772     0.017366012
      4656.68       1.3254928     0.017296903
      4661.34       1.2906856     0.017350419
      4666.00       1.2533561     0.017138640
      4670.67       1.2164447     0.017069864
      4675.33       1.1771076     0.017003367
      4680.01       1.1504674     0.016938616
      4684.69       1.1082541     0.016851639
      4689.38       1.0880384     0.016785766
      4694.07       1.0709618     0.016721613
      4698.76       1.0653375     0.016520677
      4703.46       1.0474527     0.016455851
      4708.16       1.0191419     0.016512443
      4712.87       1.0030374     0.016451510
      4717.58       1.0088846     0.016254615
      4722.30       1.0264551     0.016192929
      4727.03       1.0286107     0.016250907
      4731.75       1.0279878     0.016060430
      4736.48       1.0270785     0.015999556
      4741.22       1.0222948     0.015941247
      4745.96       1.0040113     0.015872387
      4750.71      0.97803779     0.015813138
      4755.46      0.95675189     0.015755968
      4760.22      0.92959976     0.015690629
      4764.97      0.91032250     0.015632350
      4769.74      0.88680007     0.015576318
      4774.51      0.85886709     0.015401670
      4779.29      0.83220676     0.015457803
      4784.07      0.81080608     0.015403626
      4788.85      0.77624125     0.015231882
      4793.64      0.72391900     0.015289586
      4798.43      0.68270569     0.015237092
      4803.23      0.64250377     0.015068498
      4808.03      0.61101877     0.015021574
      4812.84      0.57816751     0.014958916
      4817.66      0.53737799     0.014911494
      4822.48      0.51223645     0.014866311
      4827.30      0.49100488     0.014805271
      4832.12      0.47431191     0.014759584
      4836.96      0.45835818     0.014599421
      4841.79      0.44592428     0.014657656
      4846.63      0.45409754     0.014614240
      4851.48      0.45961679     0.014455928
      4856.33      0.47951813     0.014516014
      4861.19      0.51082451     0.014362833
      4866.05      0.52556884     0.014318705
      4870.92      0.55007702     0.014380284
      4875.79      0.57083168     0.014228296
      4880.66      0.58807859     0.014187378
      4885.55      0.60135076     0.014141840
      4890.43      0.62275132     0.014099981
      4895.32      0.63552973     0.014061453
      4900.22      0.64528871     0.014016481
      4905.12      0.65758466     0.013977907
      4910.02      0.67392864     0.013935660
      4914.94      0.67890633     0.013896905
      4919.85      0.69545927     0.013757804
      4924.77      0.72147016     0.013819478
      4929.70      0.74755537     0.013681106
      4934.62      0.76919947     0.013649145
      4939.56      0.80971443     0.013607062
      4944.50      0.86644384     0.013575694
      4949.44      0.92645487     0.013637535
      4954.39      0.99187129     0.013504401
      4959.35       1.0478469     0.013476289
      4964.31       1.1137718     0.013436414
      4969.27       1.1795608     0.013408776
      4974.24       1.2467950     0.013370572
      4979.22       1.3019465     0.013343272
      4984.20       1.3488410     0.013307704
      4989.18       1.3896244     0.013281136
      4994.17       1.4235711     0.013153931
      4999.16       1.4415480     0.013220939
      5004.16       1.4376831     0.013095881
      5009.17       1.4234306     0.013163940
      5014.18       1.4013408     0.013040924
      5019.19       1.3648644     0.013108616
      5024.21       1.3089854     0.012987287
      5029.23       1.2346140     0.013056284
      5034.26       1.1718792     0.012936775
      5039.30       1.1033530     0.012821417
      5044.34       1.0313309     0.012887641
      5049.39      0.96102279     0.012774296
      5054.43      0.90087567     0.012841542
      5059.49      0.85381347     0.012729319
      5064.55      0.80934672     0.012796760
      5069.61      0.76932055     0.012686442
      5074.68      0.74436693     0.012754925
      5079.76      0.73777756     0.012646156
      5084.84      0.73854030     0.012714521
      5089.92      0.74752494     0.012607690
      5095.01      0.76736902     0.012587489
      5100.11      0.78541344     0.012571937
      5105.21      0.81952010     0.012551659
      5110.31      0.84474139     0.012537679
      5115.42      0.87079876     0.012518853
      5120.54      0.88716852     0.012415734
      5125.66      0.90995827     0.012487749
      5130.79      0.92169993     0.012384951
      5135.92      0.93661331     0.012459215
      5141.05      0.94687060     0.012357278
      5146.20      0.95224800     0.012345120
      5151.34      0.96292749     0.012418031
      5156.49      0.96269654     0.012319444
      5161.65      0.95356980     0.012394710
      5166.81      0.94645099     0.012296018
      5171.98      0.94276325     0.012286923
      5177.15      0.93682797     0.012274588
      5182.33      0.92033430     0.012266131
      5187.51      0.91369860     0.012172543
      5192.70      0.91441547     0.012246675
      5197.89      0.91148911     0.012240874
      5203.09      0.91202904     0.012230550
      5208.29      0.92646688     0.012224374
      5213.50      0.93037400     0.012133593
      5218.72      0.93357589     0.012209845
      5223.93      0.95128269     0.012122580
      5229.16      0.96452437     0.012116282
      5234.39      0.98228150     0.012194019
      5239.62      0.99381539     0.012107076
      5244.86       1.0112169     0.012103104
      5250.11       1.0351895     0.012101265
      5255.36       1.0649210     0.012096433
      5260.61       1.0915875     0.012093638
      5265.87       1.1128961     0.012092834
      5271.14       1.1371412     0.012090096
      5276.41       1.1661085     0.012088889
      5281.69       1.1888970     0.012005607
      5286.97       1.2210710     0.012087620
      5292.26       1.2565190     0.012004092
      5297.55       1.2867602     0.012006039
      5302.85       1.3178627     0.012088907
      5308.15       1.3507772     0.012006680
      5313.46       1.3666829     0.012010108
      5318.77       1.3849258     0.012014783
      5324.09       1.4028163     0.012012658
      5329.42       1.4162349     0.012017410
      5334.75       1.4164600     0.012023373
      5340.08       1.4238188     0.011945448
      5345.42       1.4289690     0.012028055
      5350.77       1.4350600     0.012035199
      5356.12       1.4501765     0.011959739
      5361.48       1.4511508     0.011965691
      5366.83       1.4553580     0.012050327
      5372.20       1.4669702     0.011977548
      5377.58       1.4763383     0.011984475
      5382.95       1.4651114     0.011992365
      5388.34       1.4674308     0.012078806
      5393.72       1.4532803     0.012006781
      5399.12       1.4297028     0.012015441
      5404.52       1.4113130     0.012024938
      5409.92       1.3673179     0.011952733
      5415.33       1.3319252     0.012042207
      5420.75       1.2962302     0.012052415
      5426.17       1.2609295     0.012063363
      5431.60       1.2440393     0.011992157
      5437.03       1.2282083     0.012005372
      5442.47       1.2248279     0.012095209
      5447.91       1.2235703     0.012107338
      5453.36       1.2465718     0.012036664
      5458.81       1.2832394     0.012050997
      5464.27       1.3193762     0.012065922
      5469.73       1.3762725     0.012081429
      5475.20       1.4252609     0.012086726
      5480.68       1.4886574     0.012101976
      5486.16       1.5345773     0.012117744
      5491.65       1.5877649     0.012133986
      5497.14       1.6136620     0.012067368
      5502.64       1.6386813     0.012083206
      5508.14       1.6518796     0.012174772
      5513.65       1.6420038     0.012191565
      5519.16       1.6391877     0.012209087
      5524.68       1.6177271     0.012144710
      5530.20       1.5868002     0.012161612
      5535.73       1.5497797     0.012178845
      5541.27       1.5035917     0.012197022
      5546.81       1.4576063     0.012215878
      5552.36       1.4283331     0.012151993
      5557.91       1.3871452     0.012247659
      5563.47       1.3494451     0.012266262
      5569.04       1.3069804     0.012285460
      5574.60       1.2868760     0.012304902
      5580.18       1.2616344     0.012324695
      5585.76       1.2430442     0.012261174
      5591.35       1.2099559     0.012281879
      5596.94       1.1935512     0.012302784
      5602.53       1.1654385     0.012324059
      5608.14       1.1411337     0.012345956
      5613.75       1.1042958     0.012368120
      5619.36       1.0614728     0.012305634
      5624.98       1.0163664     0.012401061
      5630.60      0.95963766     0.012423087
      5636.23      0.89392132     0.012445503
      5641.87      0.83469406     0.012467958
      5647.51      0.78613564     0.012490764
      5653.16      0.74131434     0.012513935
      5658.82      0.70251459     0.012537279
      5664.47      0.64255467     0.012478280
      5670.14      0.59359694     0.012501079
      5675.81      0.54797716     0.012524445
      5681.48      0.51608925     0.012547834
      5687.17      0.48668043     0.012571378
      5692.85      0.48024258     0.012595391
      5698.55      0.47890244     0.012620295
      5704.25      0.49890563     0.012646036
      5709.95      0.52388278     0.012672110
      5715.66      0.56116422     0.012697746
      5721.38      0.60254174     0.012723850
      5727.10      0.64476105     0.012751200
      5732.83      0.68791316     0.012696403
      5738.56      0.73623386     0.012730818
      5744.30      0.79032120     0.012767390
      5750.04      0.84144933     0.012804034
      5755.79      0.90027049     0.012842364
      5761.55      0.94502717     0.012882375
      5767.31      0.98973985     0.012920475
      5773.08       1.0261400     0.012953949
      5778.85       1.0598442     0.012984576
      5784.63       1.1004108     0.012938151
      5790.41       1.1394094     0.012964836
      5796.21       1.1866172     0.012989459
      5802.00       1.2354482     0.013012530
      5807.81       1.2822730     0.013036301
      5813.61       1.3400958     0.013060880
      5819.43       1.3993806     0.013085470
      5825.25       1.4546558     0.013108255
      5831.07       1.5025308     0.013129596
      5836.90       1.5479477     0.013149676
      5842.74       1.5866211     0.013169482
      5848.58       1.6214207     0.013189654
      5854.43       1.6497668     0.013208325
      5860.29       1.6584696     0.013145997
      5866.15       1.6647384     0.013164178
      5872.01       1.6665044     0.013185694
      5877.89       1.6670121     0.013206879
      5883.76       1.6604922     0.013226529
      5889.65       1.6443151     0.013247107
      5895.54       1.6397432     0.013270073
      5901.43       1.6260139     0.013294455
      5907.34       1.6146854     0.013329990
      5913.24       1.6050049     0.013354603
      5919.16       1.6112617     0.013379890
      5925.08       1.6112523     0.013405709
      5931.00       1.6070520     0.013431084
      5936.93       1.6099426     0.013456706
      5942.87       1.6083293     0.013406933
      5948.81       1.6159505     0.013433207
      5954.76       1.6260306     0.013459591
      5960.72       1.6258055     0.013486300
      5966.68       1.6249706     0.013513282
      5972.64       1.6123072     0.013540326
      5978.62       1.6062737     0.013573034
      5984.60       1.5976511     0.013598987
      5990.58       1.5832695     0.013625175
      5996.57       1.5588936     0.013651127
      6002.57       1.5288913     0.013677593
      6008.57       1.5057243     0.013624738
      6014.58       1.4766403     0.013649606
      6020.60       1.4491896     0.013674589
      6026.62       1.4180252     0.013787538
      6032.65       1.3878450     0.013736001
      6038.68       1.3417138     0.013759701
      6044.72       1.3140378     0.013783990
      6050.76       1.2847270     0.013808638
      6056.81       1.2571896     0.013756837
      6062.87       1.2545488     0.013868536
      6068.93       1.2556034     0.013891877
      6075.00       1.2467241     0.013916309
      6081.08       1.2526625     0.013867566
      6087.16       1.2587145     0.013899077
      6093.25       1.2644168     0.013925810
      6099.34       1.2742231     0.014032806
      6105.44       1.2777311     0.013984442
      6111.54       1.2726263     0.014021126
      6117.66       1.2732573     0.014065487
      6123.78       1.2769905     0.014116310
      6129.90       1.2814573     0.014183782
      6136.03       1.2640835     0.014239168
      6142.17       1.2529705     0.014292886
      6148.31       1.2394142     0.014261041
      6154.46       1.2285573     0.014389623
      6160.61       1.2338873     0.014417555
      6166.77       1.2319611     0.014350330
      6172.94       1.2407909     0.014355019
      6179.11       1.2593178     0.014353568
      6185.29       1.2734045     0.014350310
      6191.48       1.2897775     0.014344054
      6197.67       1.3173587     0.014345896
      6203.87       1.3401276     0.014276060
      6210.07       1.3574762     0.014367023
      6216.28       1.3681301     0.014369272
      6222.50       1.3743520     0.014298073
      6228.72       1.3741806     0.014393173
      6234.95       1.3682299     0.014322536
      6241.19       1.3506640     0.014334222
      6247.42       1.3308353     0.014347796
      6253.67       1.2969696     0.014364172
      6259.93       1.2809057     0.014377873
      6266.19       1.2544005     0.014394270
      6272.46       1.2379824     0.014414208
      6278.73       1.2209870     0.014430589
      6285.01       1.1978287     0.014366739
      6291.29       1.1764246     0.014469103
      6297.58       1.1597081     0.014487417
      6303.88       1.1471155     0.014427109
      6310.19       1.1390766     0.014537847
      6316.50       1.1376817     0.014486976
      6322.81       1.1279543     0.014511344
      6329.14       1.0978210     0.014544487
      6335.47       1.0877065     0.014564284
      6341.80       1.0765079     0.014584336
      6348.14       1.0642030     0.014610437
      6354.49       1.0552391     0.014624072
      6360.85       1.0582524     0.014555913
      6367.21       1.0603666     0.014646532
      6373.57       1.0668221     0.014572773
      6379.95       1.0790608     0.014661765
      6386.33       1.0790845     0.014586990
      6392.72       1.0855376     0.014595627
      6399.11       1.0910059     0.014606731
      6405.51       1.0878787     0.014614040
      6411.92       1.0750758     0.014621102
      6418.32       1.0640645     0.014624012
      6424.74       1.0421058     0.014543602
      6431.17       1.0147491     0.014628852
      6437.60      0.97479452     0.014551028
      6444.04      0.93431544     0.014635372
      6450.48      0.88994784     0.014552297
      6456.94      0.85258889     0.014634585
      6463.39      0.81849613     0.014555139
      6469.85      0.79684907     0.014556462
      6476.33      0.78659766     0.014562480
      6482.80      0.77982149     0.014564371
      6489.28      0.78318838     0.014570326
      6495.77      0.79985221     0.014493135
      6502.27      0.82202701     0.014576338
      6508.77      0.86526006     0.014498206
      6515.28      0.90668611     0.014579511
      6521.80      0.95867038     0.014501180
      6528.32       1.0114520     0.014582030
      6534.85       1.0695184     0.014502360
      6541.38       1.1216932     0.014502814
      6547.92       1.1640971     0.014501389
      6554.47       1.2077540     0.014499882
      6561.03       1.2464269     0.014497494
      6567.59       1.2905012     0.014494614
      6574.16       1.3166140     0.014411993
      6580.73       1.3290811     0.014486689
      6587.31       1.3415199     0.014402510
      6593.90       1.3580186     0.014476851
      6600.50       1.3609025     0.014390382
      6607.10       1.3588979     0.014385114
      6613.70       1.3637012     0.014376200
      6620.32       1.3602245     0.014368446
      6626.94       1.3599605     0.014282242
      6633.57       1.3636365     0.014349439
      6640.20       1.3538424     0.014340096
      6646.84       1.3597471     0.014253811
      6653.49       1.3634837     0.014336368
      6660.14       1.3673215     0.014306275
      6666.80       1.3525646     0.014323463
      6673.47       1.3364408     0.014293104
      6680.14       1.3217483     0.014288990
      6686.82       1.2999227     0.014355712
      6693.51       1.2806598     0.014449590
      6700.20       1.2522315     0.014614411
      6706.90       1.2276366     0.014729673
      6713.61       1.2086231     0.015003414
      6720.32       1.2033302     0.015225952
      6727.05       1.1914764     0.015310304
      6733.77       1.1830805     0.015430842
      6740.51       1.1705796     0.015557935
      6747.25       1.1702284     0.015419702
      6754.00       1.1691288     0.015290669
      6760.75       1.1688343     0.015207931
      6767.51       1.1661714     0.014916418
      6774.28       1.1728332     0.014698080
      6781.05       1.1700566     0.014463958
      6787.84       1.1574094     0.014426634
      6794.62       1.1396631     0.014306361
      6801.42       1.1096552     0.014158409
      6808.22       1.0743634     0.013982534
      6815.03       1.0397526     0.013896993
      6821.85       1.0089284     0.013895195
      6828.67      0.96454105     0.013754973
      6835.50      0.92359097     0.013689632
      6842.33      0.89386849     0.013635386
      6849.17      0.86715797     0.013521602
      6856.02      0.84281313     0.013552456
      6862.88      0.82169238     0.013507564
      6869.74      0.81212096     0.013391189
      6876.61      0.81027562     0.013336646
      6883.49      0.82512852     0.013139948
      6890.37      0.84235488     0.012885950
      6897.27      0.87471487     0.012764367
      6904.16      0.90779022     0.012581496
      6911.07      0.94125166     0.012404891
      6917.98      0.97974696     0.012233124
      6924.89       1.0116006     0.012124872
      6931.82       1.0413036     0.011960876
      6938.75       1.0694779     0.011812449
      6945.69       1.0933597     0.011625299
      6952.64       1.1122024     0.011541133
      6959.59       1.1277254     0.011399471
      6966.55       1.1372741     0.011260984
      6973.52       1.1410700     0.011132054
      6980.49       1.1368012     0.011073264
      6987.47       1.1343904     0.011001298
      6994.46       1.1375541     0.010950631
      7001.46       1.1417361     0.010895417
      7008.46       1.1412471     0.010828097
      7015.46       1.1354143     0.010790918
      7022.48       1.1324917     0.010669735
      7029.51       1.1370104     0.010583507
      7036.53       1.1276503     0.010485632
      7043.57       1.1198123     0.010381432
      7050.62       1.1128757     0.010269034
      7057.66       1.1062460     0.010147713
      7064.72       1.1127760     0.010058354
      7071.79       1.1049556    0.0099197918
      7078.86       1.0977155    0.0097787144
      7085.94       1.1051762    0.0096356149
      7093.03       1.1136605    0.0094900725
      7100.12       1.1121945    0.0093416526
      7107.22       1.1209156    0.0091897070
      7114.33       1.1259817    0.0090365807
      7121.44       1.1252184    0.0088639203
      7128.56       1.1200696    0.0087137919
      7135.69       1.1209237    0.0085649349
      7142.83       1.1204980    0.0086443456
      7149.97       1.1196191    0.0087416867
      7157.12       1.1225302    0.0088608865
      7164.28       1.1225857    0.0090073909
      7171.44       1.1241193    0.0091906792
      7178.62       1.1264553    0.0094251158
      7185.80       1.1282821    0.0097312014
      7192.98       1.1304020     0.010142537
      7200.17       1.1354648     0.010705686
      7207.38       1.1406257     0.011468620
      7214.58       1.1461458     0.012483805
      7221.80       1.1485869     0.013802253
      7229.02       1.1490270     0.015490334
      7236.25       1.1487593     0.017648193
      7243.49       1.1484535     0.020389680
      7250.73       1.1467964     0.023846425
