# starting wavelength =        3463.5200
# ending wavelength =        7364.2300
# O2 telluric scale =        0
# O2 telluric shift =        0
# H2O telluric scale =        0
# H2O telluric shift =        0
      3464.04       1.4238042     0.037167642
      3467.51       1.4308809     0.031348972
      3470.98       1.4388113     0.025822611
      3474.45       1.4408259     0.022376128
      3477.92       1.4433530     0.019662766
      3481.40       1.4437541     0.017540542
      3484.88       1.4472355     0.016212293
      3488.37       1.4533229     0.014864276
      3491.86       1.4518236     0.013817470
      3495.35       1.4466600     0.013006544
      3498.84       1.4451644     0.012372739
      3502.34       1.4418535     0.011766985
      3505.84       1.4418903     0.011382182
      3509.35       1.4456151     0.011069484
      3512.86       1.4474676     0.010810899
      3516.37       1.4497425     0.010556190
      3519.89       1.4576760     0.010360435
      3523.41       1.4646480     0.010192380
      3526.93       1.4678697     0.010046860
      3530.46       1.4676412    0.0099522685
      3533.99       1.4682078    0.0099714019
      3537.53       1.4733406    0.0099394439
      3541.06       1.4778416    0.0099595274
      3544.60       1.4795204    0.0099789047
      3548.15       1.4763897    0.0098837443
      3551.70       1.4822681    0.0099034049
      3555.25       1.4880121    0.0098718947
      3558.80       1.4950866    0.0098935639
      3562.36       1.5009498    0.0098484367
      3565.92       1.5011201    0.0098178386
      3569.49       1.5035534    0.0098379106
      3573.06       1.5149084    0.0097429742
      3576.64       1.5127517    0.0097632383
      3580.21       1.5144883    0.0097845177
      3583.79       1.5134980    0.0097548055
      3587.38       1.5143505    0.0097098201
      3590.96       1.5143903    0.0097322188
      3594.55       1.5107784    0.0097003286
      3598.15       1.5049121    0.0097237721
      3601.75       1.4952875    0.0096794754
      3605.35       1.4840225    0.0096491716
      3608.96       1.4718905    0.0096713670
      3612.56       1.4464163    0.0096296688
      3616.18       1.4216358    0.0095971294
      3619.79       1.3981443    0.0096210418
      3623.41       1.3745558    0.0096450000
      3627.04       1.3481331    0.0095469650
      3630.66       1.3202395    0.0095708219
      3634.29       1.2868637    0.0095957556
      3637.93       1.2504755    0.0094969301
      3641.57       1.2107623    0.0095216168
      3645.21       1.1665219    0.0095472107
      3648.86       1.1281034    0.0095157948
      3652.50       1.0836165    0.0094731478
      3656.16       1.0402104    0.0094992087
      3659.81       1.0027357    0.0094703001
      3663.47      0.97047492    0.0094255639
      3667.14      0.94608202    0.0094521999
      3670.80      0.91906732    0.0094210010
      3674.48      0.89485210    0.0093788073
      3678.15      0.87077749    0.0094062557
      3681.83      0.85999843    0.0094342066
      3685.51      0.85086178    0.0093329049
      3689.20      0.83824523    0.0093607078
      3692.88      0.83314997    0.0093902051
      3696.58      0.83254002    0.0093471800
      3700.27      0.83022659    0.0093168022
      3703.98      0.83119908    0.0093456751
      3707.68      0.83265118    0.0093775594
      3711.39      0.84346553    0.0092724051
      3715.10      0.85391647    0.0093043244
      3718.81      0.86530564    0.0093340998
      3722.53      0.88031382    0.0092924596
      3726.26      0.89567910    0.0093244252
      3729.98      0.90100095    0.0092188420
      3733.71      0.90866675    0.0092511857
      3737.45      0.91780680    0.0092837247
      3741.18      0.92949631    0.0092436189
      3744.93      0.94707731    0.0092104547
      3748.67      0.96574121    0.0092460638
      3752.42      0.98791994    0.0092024017
      3756.17       1.0093543    0.0092378342
      3759.93       1.0350255    0.0092061026
      3763.69       1.0605636    0.0091642951
      3767.45       1.0856254    0.0092007636
      3771.22       1.1098484    0.0092367358
      3774.99       1.1373056    0.0091963960
      3778.77       1.1596392    0.0091634734
      3782.54       1.1839271    0.0092046295
      3786.33       1.2120935    0.0091600019
      3790.11       1.2346327    0.0091986998
      3793.90       1.2622107    0.0091586211
      3797.70       1.2990158    0.0091973733
      3801.50       1.3327980    0.0091684274
      3805.30       1.3605699    0.0091242405
      3809.10       1.3855750    0.0091649240
      3812.91       1.4041925    0.0092099608
      3816.73       1.4165021    0.0091662079
      3820.54       1.4347354    0.0092108074
      3824.36       1.4570720    0.0090931027
      3828.19       1.4776709    0.0091359664
      3832.02       1.4988965    0.0091844289
      3835.85       1.5186685    0.0091401537
      3839.68       1.5371342    0.0091866959
      3843.52       1.5539816    0.0091473779
      3847.37       1.5703999    0.0091121597
      3851.22       1.5867653    0.0091649116
      3855.07       1.6065410    0.0091197699
      3858.92       1.6241645    0.0090774539
      3862.78       1.6391485    0.0090484442
      3866.64       1.6528094    0.0090039666
      3870.51       1.6725387    0.0089622280
      3874.38       1.6888942    0.0089325975
      3878.26       1.7017641    0.0088899038
      3882.13       1.7055373    0.0087700225
      3886.02       1.7103544    0.0088186008
      3889.90       1.7116261    0.0087763311
      3893.79       1.7222641    0.0086585749
      3897.69       1.7284921    0.0087061500
      3901.59       1.7277163    0.0086641596
      3905.49       1.7299958    0.0085478501
      3909.39       1.7355047    0.0085955660
      3913.30       1.7402287    0.0085536697
      3917.22       1.7388411    0.0084384582
      3921.13       1.7250886    0.0084010963
      3925.06       1.7184012    0.0084447768
      3928.98       1.7146798    0.0083304070
      3932.91       1.7093604    0.0082928138
      3936.84       1.6973115    0.0083363992
      3940.78       1.6953450    0.0082236328
      3944.72       1.6821887    0.0081858532
      3948.67       1.6692779    0.0081498709
      3952.61       1.6575487    0.0081177566
      3956.57       1.6469019    0.0080804895
      3960.52       1.6411225    0.0080441144
      3964.48       1.6310113    0.0079365055
      3968.45       1.6292239    0.0079760362
      3972.42       1.6207034    0.0079398601
      3976.39       1.6118113    0.0078348051
      3980.37       1.6093173    0.0077972968
      3984.35       1.6053751    0.0078365930
      3988.33       1.6024564    0.0077348176
      3992.32       1.5892522    0.0076969295
      3996.31       1.5777068    0.0076604390
      4000.31       1.5749994    0.0076992631
      4004.31       1.5741671    0.0075986195
      4008.31       1.5717741    0.0075616351
      4012.32       1.5701574    0.0075259531
      4016.33       1.5718835    0.0075020570
      4020.35       1.5695505    0.0074648161
      4024.37       1.5742594    0.0074285742
      4028.40       1.5732686    0.0073935215
      4032.42       1.5756568    0.0072966585
      4036.46       1.5722202    0.0073335087
      4040.50       1.5656614    0.0072977978
      4044.54       1.5628964    0.0072631790
      4048.58       1.5569719    0.0071678154
      4052.63       1.5516349    0.0072045967
      4056.68       1.5466543    0.0071693198
      4060.74       1.5413425    0.0070743466
      4064.80       1.5345972    0.0070410218
      4068.86       1.5281830    0.0070083551
      4072.93       1.5213344    0.0069764320
      4077.01       1.5187301    0.0070092681
      4081.08       1.5155885    0.0069165305
      4085.17       1.5113473    0.0068840473
      4089.25       1.5096117    0.0068522382
      4093.34       1.5076622    0.0068212301
      4097.43       1.5078326    0.0067946306
      4101.53       1.5060424    0.0067621004
      4105.63       1.5052455    0.0067303001
      4109.74       1.5066867    0.0066991137
      4113.85       1.5054743    0.0066129548
      4117.96       1.5061060    0.0065808975
      4122.08       1.5110108    0.0066109988
      4126.20       1.5117167    0.0065798307
      4130.33       1.5128188    0.0065490898
      4134.46       1.5171332    0.0064657456
      4138.59       1.5212736    0.0064343908
      4142.73       1.5256343    0.0064033373
      4146.88       1.5227201    0.0063728113
      4151.02       1.5222566    0.0063427531
      4155.18       1.5189470    0.0063225391
      4159.33       1.5195195    0.0062914882
      4163.49       1.5093811    0.0062609374
      4167.65       1.5033295    0.0062307998
      4171.82       1.5006047    0.0062010315
      4175.99       1.4976817    0.0061716565
      4180.17       1.4911056    0.0060923018
      4184.35       1.4859993    0.0060638327
      4188.54       1.4782054    0.0060927790
      4192.72       1.4737313    0.0060633480
      4196.92       1.4669086    0.0060342024
      4201.11       1.4576823    0.0060054969
      4205.31       1.4466199    0.0059279867
      4209.52       1.4410948    0.0059000940
      4213.73       1.4325365    0.0058723789
      4217.94       1.4241229    0.0058449435
      4222.16       1.4056558    0.0058177811
      4226.38       1.3857516    0.0057907473
      4230.61       1.3725285    0.0057640461
      4234.84       1.3539054    0.0057416045
      4239.08       1.3353825    0.0057144509
      4243.32       1.3121434    0.0056873742
      4247.56       1.2950479    0.0056606491
      4251.81       1.2785844    0.0056339833
      4256.06       1.2631276    0.0056077068
      4260.32       1.2454174    0.0055815489
      4264.58       1.2279841    0.0055555851
      4268.84       1.2127511    0.0055298347
      4273.11       1.2013932    0.0054601833
      4277.38       1.1898594    0.0054343154
      4281.66       1.1792863    0.0054084730
      4285.94       1.1748372    0.0053830811
      4290.23       1.1717662    0.0053577546
      4294.52       1.1699081    0.0053325637
      4298.81       1.1707412    0.0053075385
      4303.11       1.1690451    0.0052828243
      4307.42       1.1748835    0.0052582170
      4311.72       1.1806894    0.0052336376
      4316.04       1.1852626    0.0051682058
      4320.35       1.1927968    0.0051442215
      4324.67       1.2014188    0.0051202729
      4329.00       1.2112158    0.0050964542
      4333.33       1.2240200    0.0050729933
      4337.66       1.2360126    0.0050495193
      4342.00       1.2477076    0.0050260712
      4346.34       1.2598553    0.0050028636
      4350.69       1.2737121    0.0049798790
      4355.04       1.2868332    0.0049569758
      4359.39       1.2956890    0.0049340152
      4363.75       1.3067642    0.0049114006
      4368.12       1.3205165    0.0048887856
      4372.48       1.3329223    0.0048661979
      4376.86       1.3449470    0.0048438167
      4381.23       1.3574909    0.0048216944
      4385.61       1.3710267    0.0047995871
      4390.00       1.3855742    0.0047774404
      4394.39       1.3965823    0.0047556190
      4398.79       1.4059610    0.0047339199
      4403.18       1.4155170    0.0047122340
      4407.59       1.4233497    0.0046906620
      4412.00       1.4339957    0.0046693101
      4416.41       1.4465157    0.0046480212
      4420.82       1.4572566    0.0046266975
      4425.25       1.4676192    0.0046057000
      4429.67       1.4761508    0.0045505126
      4434.10       1.4836657    0.0045638960
      4438.54       1.4912323    0.0045432093
      4442.97       1.5006799    0.0045228205
      4447.42       1.5094420    0.0045024240
      4451.86       1.5173077    0.0044820251
      4456.32       1.5213673    0.0044230722
      4460.77       1.5269763    0.0044033216
      4465.24       1.5298208    0.0043835115
      4469.70       1.5314097    0.0043639205
      4474.17       1.5322062    0.0043446285
      4478.65       1.5316019    0.0043252890
      4483.12       1.5339357    0.0043060628
      4487.61       1.5356724    0.0042871483
      4492.09       1.5366780    0.0042684620
      4496.59       1.5382607    0.0042497166
      4501.08       1.5395576    0.0041945040
      4505.58       1.5363999    0.0041760207
      4510.09       1.5333844    0.0041574957
      4514.60       1.5298873    0.0041391045
      4519.12       1.5295697    0.0041210244
      4523.63       1.5298471    0.0041030783
      4528.16       1.5293613    0.0040851117
      4532.69       1.5242794    0.0040674655
      4537.22       1.5206852    0.0040501335
      4541.76       1.5173169    0.0039987515
      4546.30       1.5128749    0.0040118365
      4550.85       1.5081021    0.0039944187
      4555.40       1.5019882    0.0039770900
      4559.95       1.4983188    0.0039598724
      4564.51       1.4953239    0.0039429755
      4569.08       1.4920491    0.0038933045
      4573.65       1.4882536    0.0038767681
      4578.22       1.4802187    0.0038605550
      4582.80       1.4718615    0.0038446605
      4587.38       1.4602850    0.0038288731
      4591.97       1.4479118    0.0038132164
      4596.56       1.4295530    0.0037924379
      4601.16       1.4143251    0.0037766644
      4605.76       1.3970607    0.0037609697
      4610.37       1.3776986    0.0037456228
      4614.98       1.3590274    0.0037306214
      4619.59       1.3384891    0.0037156266
      4624.21       1.3202500    0.0036685941
      4628.84       1.3031447    0.0036535943
      4633.47       1.2830509    0.0036660644
      4638.10       1.2632345    0.0036512970
      4642.74       1.2446442    0.0036369169
      4647.38       1.2263853    0.0035918511
      4652.03       1.2085307    0.0035771366
      4656.68       1.1897706    0.0035627852
      4661.34       1.1734917    0.0035487958
      4666.00       1.1564558    0.0035328389
      4670.67       1.1376525    0.0035178182
      4675.33       1.1177781    0.0035037701
      4680.01       1.1002889    0.0034899682
      4684.69       1.0818018    0.0034763444
      4689.38       1.0654310    0.0034350144
      4694.07       1.0507668    0.0034467930
      4698.76       1.0350877    0.0034331412
      4703.46       1.0223222    0.0034198925
      4708.16       1.0085120    0.0033794441
      4712.87      0.99810933    0.0033668641
      4717.58      0.98942055    0.0033783538
      4722.30      0.98180376    0.0033654929
      4727.03      0.97570487    0.0033257806
      4731.75      0.97056245    0.0033135892
      4736.48      0.96337986    0.0033018204
      4741.22      0.96048001    0.0032861373
      4745.96      0.95576866    0.0032739849
      4750.71      0.95468781    0.0032622678
      4755.46      0.95481244    0.0032509872
      4760.22      0.95603217    0.0032123000
      4764.97      0.95646934    0.0032241223
      4769.74      0.96525586    0.0032129092
      4774.51      0.97468658    0.0031756040
      4779.29      0.98559632    0.0031641000
      4784.07      0.99462507    0.0031761585
      4788.85       1.0032453    0.0031653722
      4793.64       1.0162890    0.0031286285
      4798.43       1.0262888    0.0031176918
      4803.23       1.0365619    0.0031299622
      4808.03       1.0458944    0.0030942710
      4812.84       1.0530865    0.0030834786
      4817.66       1.0563348    0.0030731210
      4822.48       1.0566049    0.0030609867
      4827.30       1.0559405    0.0030503603
      4832.12       1.0525651    0.0030402262
      4836.96       1.0463795    0.0030067952
      4841.79       1.0376669    0.0030182131
      4846.63       1.0307904    0.0030082626
      4851.48       1.0220854    0.0029753669
      4856.33       1.0117930    0.0029870173
      4861.19       1.0071685    0.0029773004
      4866.05      0.99959640    0.0029449579
      4870.92      0.99392782    0.0029568033
      4875.79      0.98619574    0.0029244872
      4880.66      0.98469328    0.0029156090
      4885.55      0.98355729    0.0029071949
      4890.43      0.98303381    0.0028957755
      4895.32      0.98438346    0.0028872126
      4900.22      0.98693990    0.0028791340
      4905.12      0.99353253    0.0028679897
      4910.02      0.99754533    0.0028598073
      4914.94       1.0043196    0.0028291893
      4919.85       1.0137855    0.0028411731
      4924.77       1.0213396    0.0028334123
      4929.70       1.0291187    0.0028031116
      4934.62       1.0373780    0.0028153383
      4939.56       1.0497303    0.0027860119
      4944.50       1.0583232    0.0027779575
      4949.44       1.0671107    0.0027904708
      4954.39       1.0768332    0.0027612981
      4959.35       1.0850248    0.0027537437
      4964.31       1.0941072    0.0027451760
      4969.27       1.1021984    0.0027375891
      4974.24       1.1096075    0.0027296560
      4979.22       1.1171218    0.0027219723
      4984.20       1.1249979    0.0026946510
      4989.18       1.1300150    0.0027068804
      4994.17       1.1355828    0.0026997452
      4999.16       1.1428503    0.0026731860
      5004.16       1.1464713    0.0026851002
      5009.17       1.1506482    0.0026586533
      5014.18       1.1572320    0.0026709470
      5019.19       1.1608629    0.0026445901
      5024.21       1.1660017    0.0026387859
      5029.23       1.1720940    0.0026310265
      5034.26       1.1800659    0.0026251890
      5039.30       1.1851826    0.0026178750
      5044.34       1.1913810    0.0026120880
      5049.39       1.1971813    0.0025868114
      5054.43       1.2047966    0.0025994233
      5059.49       1.2119960    0.0025745815
      5064.55       1.2205287    0.0025871234
      5069.61       1.2264995    0.0025627017
      5074.68       1.2335546    0.0025753194
      5079.76       1.2384846    0.0025512169
      5084.84       1.2428576    0.0025457651
      5089.92       1.2483527    0.0025401264
      5095.01       1.2529361    0.0025347495
      5100.11       1.2569768    0.0025293410
      5105.21       1.2606349    0.0025241110
      5110.31       1.2665429    0.0025188926
      5115.42       1.2711861    0.0025137850
      5120.54       1.2741618    0.0025088562
      5125.66       1.2782570    0.0025039063
      5130.79       1.2826129    0.0024991179
      5135.92       1.2840853    0.0024943615
      5141.05       1.2888965    0.0024897236
      5146.20       1.2926596    0.0024851334
      5151.34       1.2977844    0.0024806910
      5156.49       1.3008000    0.0024586868
      5161.65       1.3060545    0.0024719571
      5166.81       1.3058497    0.0024503231
      5171.98       1.3044149    0.0024635590
      5177.15       1.3038616    0.0024422379
      5182.33       1.3035626    0.0024555707
      5187.51       1.3009319    0.0024345678
      5192.70       1.2978230    0.0024305381
      5197.89       1.2954402    0.0024273099
      5203.09       1.2896438    0.0024233038
      5208.29       1.2840336    0.0024203372
      5213.50       1.2787344    0.0024164471
      5218.72       1.2708803    0.0023962299
      5223.93       1.2643959    0.0024098834
      5229.16       1.2568409    0.0023898134
      5234.39       1.2502461    0.0024037360
      5239.62       1.2478908    0.0023836499
      5244.86       1.2425144    0.0023809395
      5250.11       1.2379772    0.0023779539
      5255.36       1.2317748    0.0023751680
      5260.61       1.2275390    0.0023729252
      5265.87       1.2221308    0.0023698085
      5271.14       1.2172006    0.0023675153
      5276.41       1.2131524    0.0023487836
      5281.69       1.2112915    0.0023624996
      5286.97       1.2078912    0.0023442560
      5292.26       1.2025558    0.0023579600
      5297.55       1.1996399    0.0023559485
      5302.85       1.1942071    0.0023377755
      5308.15       1.1897198    0.0023517794
      5313.46       1.1865529    0.0023340946
      5318.77       1.1804130    0.0023320494
      5324.09       1.1741553    0.0023462954
      5329.42       1.1691921    0.0023287405
      5334.75       1.1647720    0.0023270080
      5340.08       1.1592392    0.0023096315
      5345.42       1.1519928    0.0023240986
      5350.77       1.1440852    0.0023226449
      5356.12       1.1370316    0.0023054999
      5361.48       1.1307247    0.0023201118
      5366.83       1.1243990    0.0023189485
      5372.20       1.1178776    0.0023019987
      5377.58       1.1114111    0.0023168350
      5382.95       1.1060248    0.0022998498
      5388.34       1.0974674    0.0022991000
      5393.72       1.0890248    0.0022986481
      5399.12       1.0826138    0.0022973803
      5404.52       1.0744968    0.0022967837
      5409.92       1.0666621    0.0022965421
      5415.33       1.0578209    0.0022805314
      5420.75       1.0493516    0.0022950617
      5426.17       1.0416416    0.0022949127
      5431.60       1.0359254    0.0022793377
      5437.03       1.0288520    0.0022789979
      5442.47       1.0236316    0.0022939196
      5447.91       1.0177317    0.0022941536
      5453.36       1.0127632    0.0022785537
      5458.81       1.0096469    0.0022786252
      5464.27       1.0062794    0.0022937987
      5469.73       1.0030463    0.0022787048
      5475.20      0.99979153    0.0022788567
      5480.68      0.99709992    0.0022791634
      5486.16      0.99262534    0.0022641876
      5491.65      0.98662992    0.0022797451
      5497.14      0.98140844    0.0022801090
      5502.64      0.97377885    0.0022806691
      5508.14      0.96401211    0.0022659192
      5513.65      0.95206080    0.0022668030
      5519.16      0.94032134    0.0022823368
      5524.68      0.92701486    0.0022831391
      5530.20      0.91235837    0.0022684605
      5535.73      0.89473044    0.0022695512
      5541.27      0.87595746    0.0022707969
      5546.81      0.85707135    0.0022864218
      5552.36      0.83531399    0.0022719066
      5557.91      0.81427679    0.0022731281
      5563.47      0.79547606    0.0022744612
      5569.04      0.77773215    0.0022759995
      5574.60      0.76154421    0.0022619523
      5580.18      0.74874230    0.0022632746
      5585.76      0.73950047    0.0022790565
      5591.35      0.73192690    0.0022805889
      5596.94      0.73110609    0.0022671951
      5602.53      0.73249032    0.0022686355
      5608.14      0.73753965    0.0022701610
      5613.75      0.74709931    0.0022718295
      5619.36      0.75809692    0.0022735764
      5624.98      0.76968377    0.0022749600
      5630.60      0.78304508    0.0022765961
      5636.23      0.79846334    0.0022783103
      5641.87      0.81333252    0.0022800900
      5647.51      0.82944057    0.0022820005
      5653.16      0.84604168    0.0022839680
      5658.82      0.86143590    0.0022707052
      5664.47      0.87837261    0.0022728386
      5670.14      0.89486701    0.0022750076
      5675.81      0.90966080    0.0022772709
      5681.48      0.92491205    0.0022795906
      5687.17      0.94141890    0.0022959302
      5692.85      0.95696064    0.0022827487
      5698.55      0.97247206    0.0022850327
      5704.25      0.98758759    0.0022873427
      5709.95       1.0001829    0.0022897517
      5715.66       1.0125776    0.0022921824
      5721.38       1.0241128    0.0022946668
      5727.10       1.0301989    0.0022972044
      5732.83       1.0354743    0.0022997784
      5738.56       1.0421840    0.0022873366
      5744.30       1.0466789    0.0022898274
      5750.04       1.0490800    0.0022923759
      5755.79       1.0514588    0.0022949716
      5761.55       1.0546845    0.0022975995
      5767.31       1.0569011    0.0023002543
      5773.08       1.0596289    0.0023029462
      5778.85       1.0592295    0.0023057370
      5784.63       1.0597707    0.0023086615
      5790.41       1.0604399    0.0023117840
      5796.21       1.0616802    0.0023149009
      5802.00       1.0618444    0.0023026218
      5807.81       1.0583238    0.0023057477
      5813.61       1.0550741    0.0023091305
      5819.43       1.0471518    0.0023131553
      5825.25       1.0389973    0.0023179293
      5831.07       1.0319119    0.0023229256
      5836.90       1.0208456    0.0023279910
      5842.74       1.0142534    0.0023333629
      5848.58       1.0037910    0.0023389517
      5854.43      0.99222992    0.0023441055
      5860.29      0.97897174    0.0023483943
      5866.15      0.97048010    0.0023522129
      5872.01      0.96410633    0.0023557634
      5877.89      0.95719265    0.0023588995
      5883.76      0.95173852    0.0023616676
      5889.65      0.94589420    0.0023642455
      5895.54      0.94223889    0.0023529770
      5901.43      0.94148337    0.0023558137
      5907.34      0.94068527    0.0023585445
      5913.24      0.93966911    0.0023609284
      5919.16      0.93585108    0.0023631152
      5925.08      0.93215947    0.0023650374
      5931.00      0.92649613    0.0023669882
      5936.93      0.92292586    0.0023689694
      5942.87      0.92090002    0.0023706012
      5948.81      0.91686617    0.0023720800
      5954.76      0.91434394    0.0023739620
      5960.72      0.90660249    0.0023620522
      5966.68      0.90240029    0.0023642085
      5972.64      0.89683386    0.0023660462
      5978.62      0.89326434    0.0023682392
      5984.60      0.88814059    0.0023707923
      5990.58      0.88131730    0.0023735219
      5996.57      0.87516656    0.0023764090
      6002.57      0.86672862    0.0023656893
      6008.57      0.85925055    0.0023687869
      6014.58      0.85366313    0.0023870676
      6020.60      0.84448847    0.0023899901
      6026.62      0.83437378    0.0023930384
      6032.65      0.82324398    0.0023960736
      6038.68      0.81154930    0.0023854122
      6044.72      0.79955394    0.0023885891
      6050.76      0.78827213    0.0023917101
      6056.81      0.77747954    0.0023949189
      6062.87      0.76533918    0.0023981320
      6068.93      0.75470878    0.0024013583
      6075.00      0.74621018    0.0023903318
      6081.08      0.74046349    0.0024084346
      6087.16      0.73396227    0.0024115282
      6093.25      0.72946798    0.0024146360
      6099.34      0.72665695    0.0024177608
      6105.44      0.72512091    0.0024068397
      6111.54      0.72537234    0.0024096924
      6117.66      0.72729760    0.0024126375
      6123.78      0.73191857    0.0024156707
      6129.90      0.73904636    0.0024201411
      6136.03      0.74499082    0.0024229153
      6142.17      0.75278821    0.0024256390
      6148.31      0.75901071    0.0024284686
      6154.46      0.76541360    0.0024177442
      6160.61      0.77111065    0.0024206654
      6166.77      0.77827012    0.0024385394
      6172.94      0.78280193    0.0024418575
      6179.11      0.78782042    0.0024325201
      6185.29      0.79457734    0.0024354975
      6191.48      0.80064802    0.0024381015
      6197.67      0.80480744    0.0024566296
      6203.87      0.80778318    0.0024482705
      6210.07      0.81328708    0.0024546719
      6216.28      0.81627291    0.0024622505
      6222.50      0.82048323    0.0024571074
      6228.72      0.82491264    0.0024807863
      6234.95      0.82891276    0.0024884966
      6241.19      0.83338413    0.0024814890
      6247.42      0.83505932    0.0024862898
      6253.67      0.83640862    0.0025049784
      6259.93      0.83539685    0.0025063533
      6266.19      0.83251180    0.0024909127
      6272.46      0.82943835    0.0024890029
      6278.73      0.82331026    0.0024866719
      6285.01      0.81687722    0.0024846603
      6291.29      0.80729710    0.0024837815
      6297.58      0.79821766    0.0024841648
      6303.88      0.78568915    0.0024845002
      6310.19      0.77197434    0.0024836405
      6316.50      0.75729401    0.0024698093
      6322.81      0.74428809    0.0024703989
      6329.14      0.73245831    0.0024852800
      6335.47      0.71834960    0.0024720177
      6341.80      0.70970603    0.0024729628
      6348.14      0.70215510    0.0024883426
      6354.49      0.69630626    0.0024755804
      6360.85      0.69244070    0.0024769914
      6367.21      0.69237900    0.0024645040
      6373.57      0.69552361    0.0024806804
      6379.95      0.69951771    0.0024823768
      6386.33      0.70781960    0.0024698756
      6392.72      0.71559972    0.0024864790
      6399.11      0.72345805    0.0024751082
      6405.51      0.73221992    0.0024778577
      6411.92      0.74212402    0.0024828521
      6418.32      0.75124677    0.0024856911
      6424.74      0.75831919    0.0024882955
      6431.17      0.76647032    0.0024919837
      6437.60      0.77504890    0.0024940967
      6444.04      0.78190142    0.0024972030
      6450.48      0.78819214    0.0024981073
      6456.94      0.79414379    0.0024849422
      6463.39      0.80137273    0.0024992745
      6469.85      0.80779097    0.0024851644
      6476.33      0.81295376    0.0024850731
      6482.80      0.81850189    0.0024851551
      6489.28      0.82493698    0.0024853317
      6495.77      0.83044292    0.0024859900
      6502.27      0.83501685    0.0024859490
      6508.77      0.83823804    0.0024858979
      6515.28      0.83978849    0.0024850388
      6521.80      0.83993903    0.0024703281
      6528.32      0.83821728    0.0024835253
      6534.85      0.83523775    0.0024691730
      6541.38      0.83187631    0.0024680099
      6547.92      0.82794624    0.0024669188
      6554.47      0.82481178    0.0024654929
      6561.03      0.82022813    0.0024650311
      6567.59      0.81584715    0.0024640828
      6574.16      0.81169079    0.0024639375
      6580.73      0.80720465    0.0024630124
      6587.31      0.80384099    0.0024628648
      6593.90      0.79988874    0.0024618828
      6600.50      0.79695232    0.0024614982
      6607.10      0.79315084    0.0024603552
      6613.70      0.79062969    0.0024888897
      6620.32      0.78580262    0.0024899351
      6626.94      0.78269868    0.0024509773
      6633.57      0.77925526    0.0024459260
      6640.20      0.77544873    0.0024670834
      6646.84      0.77110918    0.0024993881
      6653.49      0.76712547    0.0025252114
      6660.14      0.76171376    0.0025718127
      6666.80      0.75798244    0.0025885737
      6673.47      0.75227108    0.0026225080
      6680.14      0.74324676    0.0026298350
      6686.82      0.73465392    0.0025975324
      6693.51      0.72728238    0.0025893614
      6700.20      0.71865369    0.0025376188
      6706.90      0.70964087    0.0025143870
      6713.61      0.70259312    0.0024600117
      6720.32      0.69647483    0.0024261354
      6727.05      0.69208616    0.0024031844
      6733.77      0.68581911    0.0024057910
      6740.51      0.68269004    0.0024280675
      6747.25      0.68018703    0.0024357924
      6754.00      0.67989545    0.0023957962
      6760.75      0.68082519    0.0023899997
      6767.51      0.68328879    0.0024027054
      6774.28      0.68639705    0.0023839795
      6781.05      0.68940167    0.0023837054
      6787.84      0.69245916    0.0023919673
      6794.62      0.69789853    0.0024105114
      6801.42      0.70059215    0.0024378934
      6808.22      0.70296845    0.0024567083
      6815.03      0.70684068    0.0025013021
      6821.85      0.70970624    0.0025366636
      6828.67      0.71297413    0.0025485342
      6835.50      0.71521918    0.0025794562
      6842.33      0.71706699    0.0025679633
      6849.17      0.72188558    0.0025578192
      6856.02      0.72655862    0.0025335781
      6862.88      0.72830608    0.0025060782
      6869.74      0.73122631    0.0024681138
      6876.61      0.73303615    0.0024313880
      6883.49      0.73409957    0.0023923259
      6890.37      0.73323712    0.0023861457
      6897.27      0.73343025    0.0023642184
      6904.16      0.72941605    0.0023290649
      6911.07      0.72728093    0.0023095749
      6917.98      0.72736505    0.0023080658
      6924.89      0.72463479    0.0022827811
      6931.82      0.72268741    0.0022693191
      6938.75      0.71969693    0.0022577673
      6945.69      0.71761140    0.0022370842
      6952.64      0.71535858    0.0022407453
      6959.59      0.71264804    0.0022322829
      6966.55      0.70932392    0.0022237907
      6973.52      0.70728499    0.0022035342
      6980.49      0.70692266    0.0021830865
      6987.47      0.70711530    0.0021498817
      6994.46      0.70712366    0.0021170057
      7001.46      0.70761521    0.0020961311
      7008.46      0.70772969    0.0020651040
      7015.46      0.70946862    0.0020351000
      7022.48      0.70828164    0.0020059049
      7029.51      0.70783815    0.0019788715
      7036.53      0.70903445    0.0019513814
      7043.57      0.71067350    0.0019264529
      7050.62      0.71037659    0.0019027216
      7057.66      0.71086631    0.0018879080
      7064.72      0.71138082    0.0018636912
      7071.79      0.71068205    0.0018401997
      7078.86      0.70956038    0.0018183936
      7085.94      0.70843931    0.0018084827
      7093.03      0.70556149    0.0017963244
      7100.12      0.70280167    0.0017798391
      7107.22      0.70100826    0.0017696648
      7114.33      0.69803618    0.0017575429
      7121.44      0.69446000    0.0017510665
      7128.56      0.69151475    0.0017369445
      7135.69      0.68902541    0.0017216008
      7142.83      0.68663647    0.0017044378
      7149.97      0.68315126    0.0016862405
      7157.12      0.67954457    0.0016667309
      7164.28      0.67550236    0.0016457391
      7171.44      0.67222892    0.0016300085
      7178.62      0.66847822    0.0016063871
      7185.80      0.66580689    0.0015781552
      7192.98      0.66314670    0.0015540944
      7200.17      0.65949097    0.0015296237
      7207.38      0.65601147    0.0015046521
      7214.58      0.65291125    0.0014791241
      7221.80      0.65105676    0.0014534280
      7229.02      0.64784352    0.0014279247
      7236.25      0.64584250    0.0014026463
      7243.49      0.64386449    0.0013837013
      7250.73      0.64063946    0.0013969257
      7257.98      0.63738363    0.0014132583
      7265.24      0.63480076    0.0014334129
      7272.51      0.63181260    0.0014583801
      7279.78      0.62907550    0.0014898313
      7287.06      0.62561815    0.0015303054
      7294.35      0.62200289    0.0015834967
      7301.64      0.61808877    0.0016553445
      7308.94      0.61466077    0.0017534562
      7316.25      0.61140161    0.0018860116
      7323.57      0.60825864    0.0020617720
      7330.89      0.60499663    0.0022886860
      7338.22      0.60134618    0.0025786662
      7345.56      0.59728103    0.0029482810
      7352.91      0.59333486    0.0034157988
      7360.26      0.58827613    0.0040049176
