# starting wavelength =        3422.5700
# ending wavelength =        7300.9500
# O2 telluric scale =        0
# O2 telluric shift =        0
# H2O telluric scale =        0
# H2O telluric shift =        0
      3422.74     0.093042705      0.29412205
      3426.17     0.031920133      0.24794735
      3429.59      0.11011106      0.21124842
      3433.02      0.17438090      0.18215197
      3436.45      0.23265644      0.15507412
      3439.89      0.26053539      0.13811933
      3443.33      0.29909947      0.12492182
      3446.78      0.37338851      0.11467326
      3450.22      0.40055419      0.10816304
      3453.67      0.47242705      0.10160687
      3457.13      0.49177099     0.096481528
      3460.58      0.57251475     0.092443849
      3464.04      0.57033080     0.089213348
      3467.51      0.59890363     0.085913747
      3470.98      0.59404613     0.083812862
      3474.45      0.59383143     0.082045541
      3477.92      0.60830876     0.080538578
      3481.40      0.59977043     0.078791959
      3484.88      0.55702234     0.077598854
      3488.37      0.51605336     0.077277347
      3491.86      0.50098897     0.076965133
      3495.35      0.46914904     0.077038547
      3498.84      0.36668606     0.076584432
      3502.34      0.37606292     0.076278210
      3505.84      0.36486562     0.076339764
      3509.35      0.34910664     0.076030526
      3512.86      0.33391150     0.075588641
      3516.37      0.27995290     0.075656850
      3519.89      0.25393738     0.075354332
      3523.41      0.21817113     0.075418438
      3526.93      0.18064125     0.074603772
      3530.46     0.095216745     0.074670227
      3533.99     0.086566330     0.074748671
      3537.53     0.094404768     0.074452254
      3541.06      0.16023724     0.074000836
      3544.60      0.15996998     0.074082489
      3548.15      0.24993848     0.073770536
      3551.70      0.22134107     0.073342364
      3555.25      0.24945644     0.073029298
      3558.80      0.24155563     0.073116042
      3562.36      0.29109559     0.073196304
      3565.92      0.33817984     0.072375695
      3569.49      0.35162275     0.072457221
      3573.06      0.35998251     0.072547031
      3576.64      0.35990716     0.072256573
      3580.21      0.37164739     0.071809896
      3583.79      0.32732322     0.071903419
      3587.38      0.36883008     0.071595666
      3590.96      0.35092715     0.071169203
      3594.55      0.37129747     0.071261783
      3598.15      0.35203185     0.070967909
      3601.75      0.32069296     0.071055304
      3605.35      0.32256463     0.070633670
      3608.96      0.30053542     0.070323781
      3612.56      0.28321859     0.070438003
      3616.18      0.33734662     0.070002232
      3619.79      0.36555973     0.069708846
      3623.41      0.34034134     0.069806085
      3627.04      0.27688285     0.069388747
      3630.66      0.24262666     0.069494432
      3634.29      0.20723459     0.069201189
      3637.93      0.17720993     0.069305866
      3641.57      0.18824966     0.068888429
      3645.21      0.19386463     0.068579467
      3648.86      0.24788520     0.068713380
      3652.50      0.23766471     0.068278408
      3656.16      0.23318318     0.068405977
      3659.81      0.19439804     0.068100078
      3663.47      0.18258371     0.067682753
      3667.14      0.14353037     0.067811273
      3670.80      0.11528996     0.067528428
      3674.48     0.084508269     0.067091877
      3678.15     0.076120884     0.067221310
      3681.83     0.090178237     0.067365604
      3685.51      0.13164282     0.066503238
      3689.20      0.17785970     0.066648237
      3692.88      0.18547555     0.066784140
      3696.58      0.20867805     0.066374768
      3700.27      0.21197899     0.066066227
      3703.98      0.19805162     0.066232469
      3707.68      0.22033243     0.065800197
      3711.39      0.23303768     0.065953825
      3715.10      0.21414363     0.066119782
      3718.81      0.20270403     0.065235879
      3722.53      0.19265917     0.065405512
      3726.26      0.21957815     0.064982058
      3729.98      0.21010312     0.065153272
      3733.71      0.21598472     0.064844557
      3737.45      0.23881206     0.064435039
      3741.18      0.26771797     0.064608548
      3744.93      0.26708559     0.064781133
      3748.67      0.25632826     0.064378753
      3752.42      0.24877302     0.064065077
      3756.17      0.24842279     0.064273777
      3759.93      0.23411099     0.063843018
      3763.69      0.18940876     0.064028298
      3767.45      0.17129193     0.063631171
      3771.22      0.16952175     0.063817409
      3774.99      0.15104511     0.063537751
      3778.77      0.10629491     0.063106122
      3782.54     0.076462826     0.063306638
      3786.33     0.053421033     0.063535834
      3790.11     0.020635707     0.063111556
      3793.90    -0.023635014     0.063334379
      3797.70    -0.026335203     0.062404194
      3801.50    -0.033038049     0.062612978
      3805.30    -0.031323765    -0.062867229
      3809.10    -0.033460379     0.062438364
      3812.91    -0.017501967     0.062673014
      3816.73     0.013480506     0.061736183
      3820.54     0.049406213     0.061317801
      3824.36     0.067108839     0.061549406
      3828.19     0.071267069     0.060622785
      3832.02      0.10829067     0.060213005
      3835.85     0.098616192     0.059941818
      3839.68     0.087820343     0.059523146
      3843.52     0.071782156     0.059121813
      3847.37     0.076057229     0.058849935
      3851.22     0.082642462     0.058440458
      3855.07      0.11204153     0.058044346
      3858.92      0.15140759     0.057774998
      3862.78      0.17976990     0.057371080
      3866.64      0.21479918     0.056494877
      3870.51      0.25889918     0.056120587
      3874.38      0.28164214     0.056316005
      3878.26      0.31320174     0.055454089
      3882.13      0.32361517     0.055084548
      3886.02      0.34250616     0.055276144
      3889.90      0.37727738     0.054426548
      3893.79      0.39166716     0.054059377
      3897.69      0.38476803     0.054249690
      3901.59      0.40153984     0.053412609
      3905.49      0.40084695     0.053048887
      3909.39      0.35588584     0.052695205
      3913.30      0.36260633     0.052412656
      3917.22      0.30917203     0.052050343
      3921.13      0.30760035     0.051698989
      3925.06      0.33150541     0.050913281
      3928.98      0.34551906     0.051067272
      3932.91      0.38050662     0.050716331
      3936.84      0.37941287     0.049952675
      3940.78      0.42115302     0.049597497
      3944.72      0.45606275     0.049748197
      3948.67      0.47117415     0.049008334
      3952.61      0.49606397     0.048653386
      3956.57      0.51530457     0.048308072
      3960.52      0.53728905     0.048455348
      3964.48      0.55258579     0.047727712
      3968.45      0.56591756     0.047380619
      3972.42      0.56606327     0.047043096
      3976.39      0.58458359     0.046817108
      3980.37      0.60509358     0.046472183
      3984.35      0.60746095     0.046132713
      3988.33      0.62802108     0.045801587
      3992.32      0.62982915     0.045579534
      3996.31      0.66666228     0.045241125
      4000.31      0.69520329     0.044909080
      4004.31      0.71341466     0.044584634
      4008.31      0.71758035     0.043905258
      4012.32      0.73025961     0.044038344
      4016.33      0.73883702     0.043711740
      4020.35      0.70683283     0.043391888
      4024.37      0.69417567     0.042727881
      4028.40      0.67869472     0.042421394
      4032.42      0.66804059     0.042538889
      4036.46      0.65777863     0.042223581
      4040.50      0.63320814     0.041573537
      4044.54      0.62571521     0.041270735
      4048.58      0.60453415     0.040971224
      4052.63      0.59463700     0.040677992
      4056.68      0.59690137     0.040444129
      4060.74      0.58845036     0.040144582
      4064.80      0.56400979     0.039849198
      4068.86      0.54768723     0.039558719
      4072.93      0.53432400     0.038956914
      4077.01      0.49699692     0.038663423
      4081.08      0.50587868     0.038752935
      4085.17      0.46660517     0.038464718
      4089.25      0.48416910     0.038180152
      4093.34      0.47119690     0.037601781
      4097.43      0.46224683     0.037315786
      4101.53      0.48401175     0.037033162
      4105.63      0.49657794     0.037117316
      4109.74      0.50364023     0.036838728
      4113.85      0.50605559     0.036286883
      4117.96      0.49573378     0.036006489
      4122.08      0.49235799     0.035729804
      4126.20      0.47109201     0.035456841
      4130.33      0.45365748     0.035185974
      4134.46      0.43779268     0.034918564
      4138.59      0.42447402     0.034738027
      4142.73      0.37987627     0.034467343
      4146.88      0.37153755     0.034198977
      4151.02      0.34046317     0.033934188
      4155.18      0.31666297     0.033671323
      4159.33      0.32416511     0.033411824
      4163.49      0.31904199     0.032898701
      4167.65      0.33628559     0.032645877
      4171.82      0.33550652     0.032395204
      4175.99      0.34091224     0.032147227
      4180.17      0.35943761     0.032212781
      4184.35      0.36477891     0.031960992
      4188.54      0.36620356     0.031466775
      4192.72      0.37006637     0.031221158
      4196.92      0.36108415     0.030977294
      4201.11      0.36026791     0.030735678
      4205.31      0.35221455     0.030495737
      4209.52      0.36321566     0.030258820
      4213.73      0.36459261     0.030022401
      4217.94      0.36377194     0.029788943
      4222.16      0.35516309     0.029333539
      4226.38      0.35467800     0.029101281
      4230.61      0.33233091     0.028870487
      4234.84      0.33813788     0.028641807
      4239.08      0.34683169     0.028414636
      4243.32      0.35103981     0.028189476
      4247.56      0.35034063     0.028236509
      4251.81      0.35677945     0.028012664
      4256.06      0.37879531     0.027790076
      4260.32      0.37453538     0.027569985
      4264.58      0.37416364     0.027157119
      4268.84      0.36916021     0.026939187
      4273.11      0.37403652     0.026723190
      4277.38      0.36852238     0.026508376
      4281.66      0.36553415     0.026295479
      4285.94      0.36652903     0.026083730
      4290.23      0.37218467     0.025873813
      4294.52      0.37052362     0.025665646
      4298.81      0.36169930     0.025459142
      4303.11      0.36072796     0.025253764
      4307.42      0.35124125     0.025050481
      4311.72      0.33866547     0.024848123
      4316.04      0.32808878     0.024647828
      4320.35      0.31515511     0.024448968
      4324.67      0.30040466     0.024251277
      4329.00      0.28742146     0.023878427
      4333.33      0.27511245     0.023685242
      4337.66      0.26809341     0.023493610
      4342.00      0.24694511     0.023303134
      4346.34      0.24599626     0.023114704
      4350.69      0.24358615     0.022926803
      4355.04      0.24014866     0.022740968
      4359.39      0.23904442     0.022556157
      4363.75      0.25057150     0.022164105
      4368.12      0.26021949     0.021984152
      4372.48      0.28292262     0.021805494
      4376.86      0.29397221     0.021628118
      4381.23      0.30556255     0.021452073
      4385.61      0.32029457     0.021277797
      4390.00      0.32843629     0.021104577
      4394.39      0.33245228     0.020933441
      4398.79      0.33624914     0.020762827
      4403.18      0.34134271     0.020594310
      4407.59      0.32791254     0.020426709
      4412.00      0.32874737     0.020261062
      4416.41      0.32561737     0.020096311
      4420.82      0.32570069     0.019933562
      4425.25      0.33111814     0.019771661
      4429.67      0.33537289     0.019611999
      4434.10      0.34019003     0.019264788
      4438.54      0.33827213     0.019107556
      4442.97      0.35167254     0.018951609
      4447.42      0.35828468     0.018797134
      4451.86      0.36542640     0.018644243
      4456.32      0.38546622     0.018623792
      4460.77      0.38942659     0.018472823
      4465.24      0.40965055     0.018322806
      4469.70      0.42632771     0.018174745
      4474.17      0.43848805     0.017861756
      4478.65      0.44704476     0.017715706
      4483.12      0.46112952     0.017571092
      4487.61      0.46186826     0.017428003
      4492.09      0.48681799     0.017286590
      4496.59      0.50918877     0.017146331
      4501.08      0.52861136     0.017007825
      4505.58      0.57097752     0.016870549
      4510.09      0.59358230     0.016583232
      4514.60      0.62021995     0.016450075
      4519.12      0.64786460     0.016319368
      4523.63      0.67655875     0.016299385
      4528.16      0.69756480     0.016167952
      4532.69      0.69810992     0.016037747
      4537.22      0.71643110     0.015909401
      4541.76      0.73353159     0.015639740
      4546.30      0.73692292     0.015515605
      4550.85      0.74841805     0.015393559
      4555.40      0.74132602     0.015272547
      4559.95      0.73684251     0.015153589
      4564.51      0.74500008     0.014894046
      4569.08      0.74855021     0.014878118
      4573.65      0.76316708     0.014761404
      4578.22      0.79617218     0.014646187
      4582.80      0.81245918     0.014532931
      4587.38      0.83650370     0.014421127
      4591.97      0.85431551     0.014177452
      4596.56      0.86893439     0.014067095
      4601.16      0.88534567     0.014054826
      4605.76      0.89273800     0.013946995
      4610.37      0.90063007     0.013841264
      4614.98      0.91540472     0.013611020
      4619.59      0.91979850     0.013506386
      4624.21      0.93802960     0.013403689
      4628.84      0.94229425     0.013302517
      4633.47      0.93972195     0.013177044
      4638.10      0.93447026     0.013076298
      4642.74      0.92831750     0.012977746
      4647.38      0.92967789     0.012880651
      4652.03      0.91562478     0.012674240
      4656.68      0.91109798     0.012581996
      4661.34      0.90473189     0.012572876
      4666.00      0.89847829     0.012480428
      4670.67      0.88677043     0.012282019
      4675.33      0.88096161     0.012193943
      4680.01      0.87580533     0.012107806
      4684.69      0.87497159     0.012100237
      4689.38      0.86256664     0.011909741
      4694.07      0.85137079     0.011826160
      4698.76      0.84772646     0.011744432
      4703.46      0.84111177     0.011664676
      4708.16      0.82936498     0.011557447
      4712.87      0.81447175     0.011478274
      4717.58      0.80625591     0.011401161
      4722.30      0.80424135     0.011225125
      4727.03      0.79465127     0.011224991
      4731.75      0.78534406     0.011150434
      4736.48      0.77747869     0.011077939
      4741.22      0.76624459     0.010908833
      4745.96      0.75580560     0.010911427
      4750.71      0.74854439     0.010841673
      4755.46      0.74306428     0.010680129
      4760.22      0.73259669     0.010611469
      4764.97      0.74182328     0.010617281
      4769.74      0.74232961     0.010462684
      4774.51      0.73774069     0.010396620
      4779.29      0.72558645     0.010332829
      4784.07      0.70628461     0.010255683
      4788.85      0.68768458     0.010192521
      4793.64      0.67670198     0.010131551
      4798.43      0.66435133    0.0099898782
      4803.23      0.64821660    0.0099992182
      4808.03      0.64848786    0.0099410373
      4812.84      0.64104386    0.0098043345
      4817.66      0.62497186    0.0098163274
      4822.48      0.62049372    0.0097612063
      4827.30      0.60771248    0.0096294418
      4832.12      0.58216017    0.0095792118
      4836.96      0.56765312    0.0095136502
      4841.79      0.56000300    0.0094644094
      4846.63      0.54153156    0.0094173834
      4851.48      0.52985861    0.0093558137
      4856.33      0.52486502    0.0093096196
      4861.19      0.51475517    0.0092659907
      4866.05      0.50603839    0.0092078448
      4870.92      0.50014375    0.0091650152
      4875.79      0.49805844    0.0090493127
      4880.66      0.50785613    0.0090698353
      4885.55      0.52647823    0.0090305225
      4890.43      0.54804059    0.0089181663
      4895.32      0.57623186    0.0089415658
      4900.22      0.60146386    0.0088340931
      4905.12      0.63363775    0.0087966592
      4910.02      0.67456767    0.0088231972
      4914.94      0.72395200    0.0087188009
      4919.85      0.77739694    0.0086849560
      4924.77      0.82751553    0.0086457427
      4929.70      0.88446874    0.0086128884
      4934.62      0.93919381    0.0085174989
      4939.56      0.99502162    0.0085457829
      4944.50       1.0461673    0.0084521733
      4949.44       1.0867452    0.0084834837
      4954.39       1.1268631    0.0084554455
      4959.35       1.1611718    0.0083667858
      4964.31       1.1860445    0.0083988534
      4969.27       1.1929757    0.0083119573
      4974.24       1.2112865    0.0083468122
      4979.22       1.2265570    0.0082617300
      4984.20       1.2264644    0.0082418312
      4989.18       1.2125864    0.0082158102
      4994.17       1.1932395    0.0081970702
      4999.16       1.1730181    0.0081741932
      5004.16       1.1467606    0.0081567400
      5009.17       1.1074109    0.0080792522
      5014.18       1.0826295    0.0081207277
      5019.19       1.0304670    0.0080458590
      5024.21      0.98765031    0.0080887261
      5029.23      0.94179119    0.0080163491
      5034.26      0.89913357    0.0080606801
      5039.30      0.84736181    0.0079907652
      5044.34      0.80046952    0.0079791597
      5049.39      0.77525329    0.0079690923
      5054.43      0.75400587    0.0079589430
      5059.49      0.73520624    0.0079511390
      5064.55      0.72741217    0.0079425598
      5069.61      0.74053574    0.0079368645
      5074.68      0.75468236    0.0079299375
      5079.76      0.75355281    0.0079264934
      5084.84      0.76699586    0.0079210203
      5089.92      0.79016470    0.0079195735
      5095.01      0.79933184    0.0079157758
      5100.11      0.81419765    0.0079161962
      5105.21      0.82674738    0.0078599348
      5110.31      0.84977899    0.0079163085
      5115.42      0.85384326    0.0078621010
      5120.54      0.85953020    0.0079201595
      5125.66      0.86057743    0.0078679030
      5130.79      0.85808073    0.0079273890
      5135.92      0.85328417    0.0078771189
      5141.05      0.85142333    0.0078845838
      5146.20      0.85916711    0.0078898793
      5151.34      0.85857605    0.0078989355
      5156.49      0.86187337    0.0079061649
      5161.65      0.86004467    0.0079166446
      5166.81      0.85497546    0.0078716919
      5171.98      0.85870605    0.0079377888
      5177.15      0.84559809    0.0078938229
      5182.33      0.84150159    0.0079623836
      5187.51      0.84579322    0.0079192069
      5192.70      0.85062963    0.0079373590
      5197.89      0.84937960    0.0079480251
      5203.09      0.85836273    0.0079672475
      5208.29      0.86699466    0.0080400523
      5213.50      0.86799573    0.0080004290
      5218.72      0.88066956    0.0080231142
      5223.93      0.89069915    0.0080370356
      5229.16      0.89986021    0.0080606706
      5234.39      0.91007519    0.0080259799
      5239.62      0.92202821    0.0081015176
      5244.86      0.94144272    0.0081283380
      5250.11      0.94629207    0.0080946795
      5255.36      0.96794528    0.0081733916
      5260.61      0.98397196    0.0081420951
      5265.87       1.0069798    0.0081705226
      5271.14       1.0331041    0.0082522649
      5276.41       1.0488731    0.0082220818
      5281.69       1.0662512    0.0082532457
      5286.97       1.0976252    0.0082769623
      5292.26       1.1148973    0.0083088630
      5297.55       1.1254986    0.0083425859
      5302.85       1.1556709    0.0083678806
      5308.15       1.1728345    0.0084022122
      5313.46       1.1985510    0.0083749708
      5318.77       1.2292359    0.0084123049
      5324.09       1.2547651    0.0085018801
      5329.42       1.2776468    0.0084759217
      5334.75       1.2872193    0.0085154701
      5340.08       1.2980041    0.0086077703
      5345.42       1.3086543    0.0085828536
      5350.77       1.3084627    0.0086244334
      5356.12       1.3160982    0.0086676290
      5361.48       1.3187471    0.0086955783
      5366.83       1.3135242    0.0087391150
      5372.20       1.2911576    0.0087840136
      5377.58       1.2598305    0.0087622385
      5382.95       1.2377853    0.0088593378
      5388.34       1.2131066    0.0089058190
      5393.72       1.1911228    0.0088858598
      5399.12       1.1655215    0.0089324136
      5404.52       1.1613751    0.0090332054
      5409.92       1.1630165    0.0090151613
      5415.33       1.1798755    0.0090631346
      5420.75       1.1925638    0.0091122729
      5426.17       1.2123087    0.0092163966
      5431.60       1.2460313    0.0091992284
      5437.03       1.2773681    0.0092495553
      5442.47       1.3201166    0.0093010932
      5447.91       1.3701256    0.0092840510
      5453.36       1.4222758    0.0093923915
      5458.81       1.4685414    0.0094450543
      5464.27       1.5195236    0.0094989427
      5469.73       1.5428472    0.0094822146
      5475.20       1.5499029    0.0095376571
      5480.68       1.5626856    0.0096492310
      5486.16       1.5771341    0.0097049505
      5491.65       1.5680022    0.0096885178
      5497.14       1.5525429    0.0097457092
      5502.64       1.5284036    0.0098038665
      5508.14       1.5090804    0.0098629103
      5513.65       1.4825555    0.0099025509
      5519.16       1.4406709    0.0099612982
      5524.68       1.3950151     0.010020975
      5530.20       1.3524234     0.010081514
      5535.73       1.3300857     0.010067264
      5541.27       1.3016353     0.010127301
      5546.81       1.2656002     0.010187835
      5552.36       1.2577802     0.010307185
      5557.91       1.2558876     0.010369656
      5563.47       1.2522938     0.010356604
      5569.04       1.2575846     0.010418410
      5574.60       1.2669463     0.010480953
      5580.18       1.2785804     0.010544068
      5585.76       1.3105305     0.010607855
      5591.35       1.3416935     0.010593756
      5596.94       1.3708116     0.010658182
      5602.53       1.3897736     0.010784090
      5608.14       1.3959102     0.010848794
      5613.75       1.3976435     0.010913955
      5619.36       1.3851432     0.010979652
      5624.98       1.3555527     0.010964705
      5630.60       1.3132778     0.011030944
      5636.23       1.2589958     0.011097538
      5641.87       1.1935248     0.011164686
      5647.51       1.1096420     0.011232159
      5653.16       1.0077809     0.011299934
      5658.82      0.93498719     0.011368145
      5664.47      0.84483391     0.011352648
      5670.14      0.75866345     0.011420146
      5675.81      0.67772238     0.011488017
      5681.48      0.61944901     0.011620042
      5687.17      0.57487574     0.011688984
      5692.85      0.55442007     0.011758272
      5698.55      0.54932131     0.011828010
      5704.25      0.54452814     0.011897786
      5709.95      0.57093726     0.011967846
      5715.66      0.59580255     0.011953405
      5721.38      0.64760588     0.012022972
      5727.10      0.69899043     0.012092640
      5732.83      0.75115542     0.012163205
      5738.56      0.79902681     0.012234764
      5744.30      0.85816406     0.012306639
      5750.04      0.93351049     0.012378141
      5755.79      0.98452179     0.012450092
      5761.55       1.0368504     0.012523001
      5767.31       1.0979859     0.012598664
      5773.08       1.1504710     0.012678804
      5778.85       1.2120062     0.012761379
      5784.63       1.2679837     0.012844486
      5790.41       1.3220111     0.012835556
      5796.21       1.3879395     0.012853251
      5802.00       1.4404002     0.012936872
      5807.81       1.5005758     0.013016374
      5813.61       1.5609282     0.013093429
      5819.43       1.6387305     0.013168582
      5825.25       1.6859179     0.013241549
      5831.07       1.7445149     0.013311997
      5836.90       1.7870837     0.013380815
      5842.74       1.8198156     0.013449638
      5848.58       1.8480789     0.013519542
      5854.43       1.8667004     0.013589785
      5860.29       1.8833791     0.013658246
      5866.15       1.8727465     0.013724890
      5872.01       1.8625956     0.013789935
      5877.89       1.8595849     0.013854248
      5883.76       1.8551459     0.013839915
      5889.65       1.8468770     0.013902282
      5895.54       1.8286751     0.013962188
      5901.43       1.8019976     0.014023391
      5907.34       1.7836989     0.014088013
      5913.24       1.7640065     0.014153297
      5919.16       1.7587758     0.014313659
      5925.08       1.7582496     0.014377716
      5931.00       1.7534988     0.014366952
      5936.93       1.7425842     0.014433421
      5942.87       1.7396302     0.014500244
      5948.81       1.7324815     0.014567625
      5954.76       1.7098246     0.014635608
      5960.72       1.6942747     0.014704175
      5966.68       1.6691373     0.014772491
      5972.64       1.6521442     0.014761725
      5978.62       1.6292172     0.014829655
      5984.60       1.5975405     0.014897954
      5990.58       1.5747230     0.014966438
      5996.57       1.5392733     0.015034819
      6002.57       1.5129771     0.015202009
      6008.57       1.4694117     0.015187321
      6014.58       1.4372753     0.015254251
      6020.60       1.4123918     0.015321117
      6026.62       1.3914553     0.015387892
      6032.65       1.3850900     0.015454824
      6038.68       1.3851863     0.015436188
      6044.72       1.3754285     0.015500933
      6050.76       1.3694464     0.015565623
      6056.81       1.3737867     0.015735098
      6062.87       1.3769589     0.015800425
      6068.93       1.3734453     0.015779050
      6075.00       1.3696713     0.015841681
      6081.08       1.3669191     0.015904655
      6087.16       1.3630036     0.015967770
      6093.25       1.3549052     0.016051719
      6099.34       1.3388418     0.016112285
      6105.44       1.3259345     0.016173331
      6111.54       1.3105795     0.016234868
      6117.66       1.3042154     0.016213769
      6123.78       1.2885556     0.016283307
      6129.90       1.2898564     0.016451810
      6136.03       1.2830603     0.016509202
      6142.17       1.2864410     0.016486189
      6148.31       1.3001533     0.016559285
      6154.46       1.3158458     0.016640962
      6160.61       1.3126937     0.016752517
      6166.77       1.3045806     0.016846391
      6172.94       1.3067684     0.016942768
      6179.11       1.3114395     0.016949579
      6185.29       1.3004296     0.017034844
      6191.48       1.2879799     0.017225462
      6197.67       1.2727348     0.017291641
      6203.87       1.2600750     0.017245749
      6210.07       1.2537562     0.017283290
      6216.28       1.2407314     0.017420614
      6222.50       1.2322422     0.017341461
      6228.72       1.2250555     0.017361113
      6234.95       1.2199921     0.017388135
      6241.19       1.2095037     0.017439660
      6247.42       1.2099560     0.017473076
      6253.67       1.2150335     0.017407508
      6259.93       1.2251990     0.017442126
      6266.19       1.2332316     0.017584918
      6272.46       1.2286229     0.017526706
      6278.73       1.2187531     0.017565148
      6285.01       1.2215815     0.017710474
      6291.29       1.2237304     0.017653935
      6297.58       1.2198797     0.017694363
      6303.88       1.2036066     0.017747390
      6310.19       1.2041410     0.017788275
      6316.50       1.2038311     0.017831332
      6322.81       1.2013089     0.017775159
      6329.14       1.1966001     0.017925913
      6335.47       1.1887157     0.017872987
      6341.80       1.1908057     0.017916520
      6348.14       1.1835108     0.018076085
      6354.49       1.1802011     0.018033517
      6360.85       1.1954701     0.018084921
      6367.21       1.2003725     0.018149501
      6373.57       1.2135114     0.018193690
      6379.95       1.2119658     0.018142746
      6386.33       1.2086816     0.018293765
      6392.72       1.2118122     0.018232855
      6399.11       1.2128341     0.018373613
      6405.51       1.2057117     0.018398664
      6411.92       1.1939225     0.018324982
      6418.32       1.1783989     0.018453891
      6424.74       1.1572480     0.018377848
      6431.17       1.1333329     0.018510489
      6437.60       1.0946935     0.018435508
      6444.04       1.0540090     0.018460687
      6450.48       1.0022073     0.018486889
      6456.94      0.96106001     0.018504954
      6463.39      0.92296202     0.018525152
      6469.85      0.87684359     0.018540676
      6476.33      0.85279663     0.018454479
      6482.80      0.84206988     0.018576582
      6489.28      0.82618803     0.018483861
      6495.77      0.83440112     0.018600894
      6502.27      0.83699511     0.018510456
      6508.77      0.85514808     0.018630882
      6515.28      0.89569916     0.018542029
      6521.80      0.93180254     0.018455657
      6528.32      0.96935664     0.018572402
      6534.85       1.0194895     0.018484465
      6541.38       1.0630510     0.018599103
      6547.92       1.1032425     0.018508591
      6554.47       1.1496775     0.018620707
      6561.03       1.1876141     0.018528432
      6567.59       1.2281782     0.018638501
      6574.16       1.2606175     0.018544312
      6580.73       1.3035627     0.018551083
      6587.31       1.3343370     0.018555078
      6593.90       1.3750020     0.018558616
      6600.50       1.4225333     0.018560763
      6607.10       1.4489074     0.018560807
      6613.70       1.4849682     0.018457987
      6620.32       1.5164169     0.018557822
      6626.94       1.5381596     0.018451790
      6633.57       1.5622865     0.018549725
      6640.20       1.5857225     0.018440282
      6646.84       1.6015957     0.018434029
      6653.49       1.6091830     0.018423702
      6660.14       1.6098210     0.018413574
      6666.80       1.6132064     0.018403583
      6673.47       1.6102992     0.018387756
      6680.14       1.6067944     0.018373502
      6686.82       1.5841795     0.018260070
      6693.51       1.5732610     0.018356351
      6700.20       1.5570964     0.018308315
      6706.90       1.5389413     0.018341056
      6713.61       1.5268523     0.018392050
      6720.32       1.5277572     0.018276945
      6727.05       1.5108315     0.018341575
      6733.77       1.4912233     0.018447198
      6740.51       1.4861995     0.018638841
      6747.25       1.4724275     0.018888027
      6754.00       1.4694257     0.019110512
      6760.75       1.4691400     0.019387206
      6767.51       1.4574007     0.019494970
      6774.28       1.4544242     0.019652479
      6781.05       1.4295682     0.019819256
      6787.84       1.4107125     0.019648171
      6794.62       1.3819884     0.019485777
      6801.42       1.3383046     0.019235849
      6808.22       1.2901352     0.018995509
      6815.03       1.2292315     0.018697969
      6821.85       1.1740412     0.018445745
      6828.67       1.1074263     0.018185284
      6835.50       1.0418638     0.018135159
      6842.33      0.99060384     0.017928440
      6849.17      0.94426310     0.017679480
      6856.02      0.89189540     0.017547789
      6862.88      0.86876458     0.017526222
      6869.74      0.85352440     0.017328173
      6876.61      0.85446646     0.017221112
      6883.49      0.88270834     0.017127338
      6890.37      0.91638584     0.016960908
      6897.27      0.95040221     0.016976724
      6904.16       1.0064160     0.016894416
      6911.07       1.0604225     0.016805873
      6917.98       1.1259816     0.016630268
      6924.89       1.1964518     0.016356963
      6931.82       1.2560993     0.016015031
      6938.75       1.3119377     0.015836477
      6945.69       1.3647946     0.015577640
      6952.64       1.4170829     0.015327118
      6959.59       1.4554122     0.015082684
      6966.55       1.4973809     0.014920157
      6973.52       1.5323714     0.014683568
      6980.49       1.5722898     0.014465265
      6987.47       1.6033876     0.014260474
      6994.46       1.6170441     0.014072265
      7001.46       1.6267031     0.013864659
      7008.46       1.6290083     0.013658636
      7015.46       1.6277722     0.013462167
      7022.48       1.6147376     0.013351244
      7029.51       1.6091125     0.013220600
      7036.53       1.5859704     0.013119364
      7043.57       1.5686064     0.013014531
      7050.62       1.5354267     0.012892045
      7057.66       1.5050639     0.012807808
      7064.72       1.4855791     0.012665032
      7071.79       1.4810385     0.012472768
      7078.86       1.4612274     0.012308534
      7085.94       1.4387593     0.012136214
      7093.03       1.4234987     0.011953951
      7100.12       1.4109821     0.011815908
      7107.22       1.4122870     0.011610475
      7114.33       1.4009643     0.011395610
      7121.44       1.3752973     0.011177824
      7128.56       1.3565256     0.010957369
      7135.69       1.3644872     0.010734057
      7142.83       1.3660006     0.010506853
      7149.97       1.3550402     0.010274671
      7157.12       1.3687753     0.010039537
      7164.28       1.3819141    0.0098046213
      7171.44       1.3763119    0.0095701739
      7178.62       1.3879246    0.0093359951
      7185.80       1.3935872    0.0093365173
      7192.98       1.3987674    0.0094200009
      7200.17       1.4042570    0.0095279230
      7207.38       1.4130042    0.0096661741
      7214.58       1.4193979    0.0098434761
      7221.80       1.4275411     0.010074124
      7229.02       1.4362039     0.010378508
      7236.25       1.4451225     0.010788525
      7243.49       1.4527480     0.011351948
      7250.73       1.4629820     0.012118230
      7257.98       1.4688634     0.013142003
      7265.24       1.4791667     0.014474748
      7272.51       1.4930016     0.016172789
      7279.78       1.5085306     0.018332381
      7287.06       1.5255232     0.021070583
      7294.35       1.5382904     0.024509840
