# starting wavelength =        3623.9590
# ending wavelength =        7309.8200
# O2 telluric scale =        0
# O2 telluric shift =        0
# H2O telluric scale =        0
# H2O telluric shift =        0
      3627.04      0.35875061     0.050871336
      3630.66      0.35895716     0.050945097
      3634.29      0.34610938     0.050643847
      3637.93      0.34439305     0.050416325
      3641.57      0.33592185     0.050501819
      3645.21      0.36020117     0.050190146
      3648.86      0.38251288     0.049976201
      3652.50      0.36694021     0.050053809
      3656.16      0.37978462     0.049753407
      3659.81      0.37582670     0.049835308
      3663.47      0.38710469     0.049624712
      3667.14      0.39458369     0.049311382
      3670.80      0.39313046     0.049403793
      3674.48      0.39651815     0.049182706
      3678.15      0.39087652     0.049289759
      3681.83      0.36796292     0.048974572
      3685.51      0.37864231     0.049070888
      3689.20      0.40537887     0.048455682
      3692.88      0.39438550     0.048548157
      3696.58      0.41728970     0.048655105
      3700.27      0.45892564     0.048347788
      3703.98      0.44982576     0.048458045
      3707.68      0.47586865     0.048233469
      3711.39      0.48852239     0.047935188
      3715.10      0.49027813     0.048042130
      3718.81      0.46547378     0.048155388
      3722.53      0.45179330     0.047526044
      3726.26      0.43009729     0.047633676
      3729.98      0.43532147     0.047759478
      3733.71      0.39739028     0.047452025
      3737.45      0.39322019     0.047577069
      3741.18      0.35838462     0.047354364
      3744.93      0.32173866     0.047056338
      3748.67      0.25175274     0.047186527
      3752.42      0.17417487     0.046884082
      3756.17      0.13513671     0.047019705
      3759.93     0.099378082     0.046794926
      3763.69     0.076535211     0.046498240
      3767.45     0.041219457     0.046636243
      3771.22     0.020068928     0.046772015
      3774.99     0.034693067     0.046480714
      3778.77     0.036871810     0.046623298
      3782.54     0.049958000     0.045960124
      3786.33     0.067832478     0.046109594
      3790.11     0.043193230     0.046254213
      3793.90     0.052326392     0.045962306
      3797.70     0.068899822     0.046119010
      3801.50     0.086945690     0.046280482
      3805.30     0.089674343     0.045609035
      3809.10      0.11083065     0.045759862
      3812.91      0.11891984     0.045467646
      3816.73     0.098503781     0.045641403
      3820.54     0.077922648     0.045339549
      3824.36     0.049140119     0.045136424
      3828.19     0.023131945     0.044829010
      3832.02     0.026933379     0.044534925
      3835.85     0.029585737     0.044330263
      3839.68     0.037049911     0.044028708
      3843.52     0.023943259     0.043739259
      3847.37     0.023614100     0.043534562
      3851.22     0.048768614     0.043238618
      3855.07     0.070160721     0.042585946
      3858.92      0.10163337     0.042750946
      3862.78      0.14645323     0.042460082
      3866.64      0.20204361     0.041818975
      3870.51      0.26008990     0.041979102
      3874.38      0.31009557     0.041692533
      3878.26      0.34658994     0.041060619
      3882.13      0.36909396     0.040794540
      3886.02      0.39227081     0.040934040
      3889.90      0.39645120     0.040312266
      3893.79      0.42961727     0.040048238
      3897.69      0.43809050     0.040186805
      3901.59      0.45134784     0.039573492
      3905.49      0.45886008     0.039311037
      3909.39      0.46236273     0.039057216
      3913.30      0.46055335     0.038845971
      3917.22      0.44199450     0.038585259
      3921.13      0.41785334     0.038332305
      3925.06      0.43516031     0.038128775
      3928.98      0.44577876     0.037869188
      3932.91      0.47582447     0.037616346
      3936.84      0.50440828     0.037049392
      3940.78      0.53795394     0.037163969
      3944.72      0.55651957     0.036912237
      3948.67      0.56682438     0.036361448
      3952.61      0.57320255     0.036106258
      3956.57      0.57517390     0.036218404
      3960.52      0.61749060     0.035686726
      3964.48      0.64879771     0.035431438
      3968.45      0.67651203     0.035182684
      3972.42      0.69476223     0.035291879
      3976.39      0.70628814     0.034769051
      3980.37      0.73657275     0.034521056
      3984.35      0.76272020     0.034277414
      3988.33      0.78513891     0.033761517
      3992.32      0.80552790     0.033872806
      3996.31      0.80786777     0.033629535
      4000.31      0.83196154     0.033390003
      4004.31      0.82801369     0.032886507
      4008.31      0.84039400     0.032657531
      4012.32      0.84131167     0.032756203
      4016.33      0.83222183     0.032521360
      4020.35      0.80688710     0.032029206
      4024.37      0.78052035     0.031803965
      4028.40      0.76107663     0.031584054
      4032.42      0.74365705     0.031671512
      4036.46      0.72745704     0.031189691
      4040.50      0.70565093     0.030967465
      4044.54      0.67824618     0.030750176
      4048.58      0.66072540     0.030534859
      4052.63      0.64441642     0.030368416
      4056.68      0.64842645     0.030148967
      4060.74      0.63043398     0.029934390
      4064.80      0.62142941     0.029721551
      4068.86      0.60943391     0.029513226
      4072.93      0.58258473     0.029064403
      4077.01      0.58132415     0.029138295
      4081.08      0.57646820     0.028927824
      4085.17      0.55746466     0.028721778
      4089.25      0.55985685     0.028294515
      4093.34      0.56917583     0.028086470
      4097.43      0.57270529     0.027879755
      4101.53      0.58592310     0.027677439
      4105.63      0.57866027     0.027746728
      4109.74      0.58488406     0.027339495
      4113.85      0.56579154     0.027135360
      4117.96      0.56141707     0.026935375
      4122.08      0.54157909     0.026735914
      4126.20      0.52671204     0.026540411
      4130.33      0.51639823     0.026345846
      4134.46      0.50428080     0.026216367
      4138.59      0.48300718     0.026018864
      4142.73      0.48020780     0.025825283
      4146.88      0.46964692     0.025632114
      4151.02      0.46055620     0.025442608
      4155.18      0.45444834     0.025253966
      4159.33      0.44711962     0.024873489
      4163.49      0.43119155     0.024690037
      4167.65      0.43798692     0.024509112
      4171.82      0.44809544     0.024329166
      4175.99      0.44783738     0.024386241
      4180.17      0.43752231     0.024202965
      4184.35      0.42684566     0.023836748
      4188.54      0.41566646     0.023659119
      4192.72      0.40222373     0.023483070
      4196.92      0.38825467     0.023308213
      4201.11      0.37172474     0.023135506
      4205.31      0.36514445     0.022963526
      4209.52      0.36498817     0.022793610
      4213.73      0.35568359     0.022625045
      4217.94      0.36132727     0.022285503
      4222.16      0.36023482     0.022117563
      4226.38      0.36655697     0.021951184
      4230.61      0.37319114     0.021786206
      4234.84      0.37802606     0.021829842
      4239.08      0.38307190     0.021666032
      4243.32      0.38422091     0.021503345
      4247.56      0.38857860     0.021342123
      4251.81      0.39256518     0.021182064
      4256.06      0.39145954     0.021023603
      4260.32      0.38716687     0.020714381
      4264.58      0.39456207     0.020557328
      4268.84      0.39130625     0.020401248
      4273.11      0.39238868     0.020246888
      4277.38      0.39496005     0.020093340
      4281.66      0.39477868     0.019941447
      4285.94      0.39543087     0.019790731
      4290.23      0.40126552     0.019640928
      4294.52      0.40159887     0.019492238
      4298.81      0.40462751     0.019344884
      4303.11      0.40354463     0.019198376
      4307.42      0.40238295     0.019053177
      4311.72      0.39109874     0.018909078
      4316.04      0.38038027     0.018766205
      4320.35      0.36113149     0.018486074
      4324.67      0.34386045     0.018346093
      4329.00      0.32712728     0.018207642
      4333.33      0.30432413     0.018069572
      4337.66      0.29923664     0.017933040
      4342.00      0.29411768     0.017797352
      4346.34      0.29899636     0.017662949
      4350.69      0.29353872     0.017529401
      4355.04      0.29618985     0.017397137
      4359.39      0.31474572     0.017266033
      4363.75      0.32480022     0.017135634
      4368.12      0.33617459     0.017006520
      4372.48      0.35247386     0.016878243
      4376.86      0.35852089     0.016596465
      4381.23      0.36624351     0.016471326
      4385.61      0.37048945     0.016347590
      4390.00      0.37855831     0.016224455
      4394.39      0.38782662     0.016102893
      4398.79      0.39069783     0.015981877
      4403.18      0.38522887     0.015862286
      4407.59      0.38501383     0.015743562
      4412.00      0.37846781     0.015625793
      4416.41      0.37468367     0.015509290
      4420.82      0.38225298     0.015393596
      4425.25      0.37748934     0.015279198
      4429.67      0.38253559     0.015165650
      4434.10      0.37645427     0.015053640
      4438.54      0.37765948     0.014800350
      4442.97      0.37699056     0.014690246
      4447.42      0.38095961     0.014580571
      4451.86      0.38220117     0.014472616
      4456.32      0.39126616     0.014365351
      4460.77      0.39999905     0.014259395
      4465.24      0.40969295     0.014256479
      4469.70      0.43818828     0.014151731
      4474.17      0.45914806     0.014048029
      4478.65      0.47785851     0.013819384
      4483.12      0.50038135     0.013717580
      4487.61      0.53172080     0.013616105
      4492.09      0.55836416     0.013516382
      4496.59      0.58260675     0.013417206
      4501.08      0.60673349     0.013319744
      4505.58      0.62852368     0.013223058
      4510.09      0.64707937     0.013127726
      4514.60      0.67557710     0.012917001
      4519.12      0.68257774     0.012824599
      4523.63      0.69202086     0.012733590
      4528.16      0.70645893     0.012730814
      4532.69      0.72062994     0.012639641
      4537.22      0.73295737     0.012548925
      4541.76      0.74311089     0.012349077
      4546.30      0.75531853     0.012261901
      4550.85      0.77695057     0.012176111
      4555.40      0.80171997     0.012091536
      4559.95      0.81960167     0.012008082
      4564.51      0.83029495     0.011925851
      4569.08      0.85363685     0.011734549
      4573.65      0.87318371     0.011735364
      4578.22      0.88726022     0.011654705
      4582.80      0.89578672     0.011575576
      4587.38      0.90739304     0.011497358
      4591.97      0.92963604     0.011317647
      4596.56      0.94166900     0.011240419
      4601.16      0.95097757     0.011164474
      4605.76      0.94867002     0.011168300
      4610.37      0.96680682     0.011094284
      4614.98      0.97871271     0.010924478
      4619.59      0.98138022     0.010851229
      4624.21      0.98062560     0.010779645
      4628.84      0.97400547     0.010709063
      4633.47      0.97344602     0.010715622
      4638.10      0.97354269     0.010554286
      4642.74      0.97695132     0.010485304
      4647.38      0.96746806     0.010418070
      4652.03      0.96420951     0.010352012
      4656.68      0.95916781     0.010199713
      4661.34      0.94148678     0.010206557
      4666.00      0.92489883     0.010142074
      4670.67      0.91287238     0.010079050
      4675.33      0.91157964    0.0099325255
      4680.01      0.91532697    0.0098730181
      4684.69      0.91912417    0.0098809827
      4689.38      0.91740172    0.0098210568
      4694.07      0.92254156    0.0096800852
      4698.76      0.92580961    0.0096238508
      4703.46      0.91468572    0.0095690349
      4708.16      0.90621368    0.0094969943
      4712.87      0.89342557    0.0094425154
      4717.58      0.88620686    0.0093895456
      4722.30      0.87886952    0.0093380687
      4727.03      0.87010747    0.0092057134
      4731.75      0.86454937    0.0092188418
      4736.48      0.84479926    0.0091692761
      4741.22      0.83532416    0.0090428361
      4745.96      0.80793776    0.0089937779
      4750.71      0.78861675    0.0090092183
      4755.46      0.77544424    0.0088881802
      4760.22      0.77262120    0.0088411361
      4764.97      0.76834372    0.0087955099
      4769.74      0.76560569    0.0087416228
      4774.51      0.76481435    0.0086964322
      4779.29      0.74501622    0.0086528741
      4784.07      0.72750817    0.0085417776
      4788.85      0.71202141    0.0085596301
      4793.64      0.69267493    0.0085181507
      4798.43      0.67590221    0.0084102790
      4803.23      0.65578037    0.0084304176
      4808.03      0.63476474    0.0083910700
      4812.84      0.62246531    0.0082865312
      4817.66      0.61221552    0.0082510521
      4822.48      0.60203945    0.0082712840
      4827.30      0.59060589    0.0081702876
      4832.12      0.57775462    0.0081370332
      4836.96      0.57151720    0.0081591275
      4841.79      0.57852629    0.0080616109
      4846.63      0.57699252    0.0080302755
      4851.48      0.57368328    0.0079905565
      4856.33      0.57304271    0.0079600467
      4861.19      0.56828301    0.0079310773
      4866.05      0.56432686    0.0078386693
      4870.92      0.55376906    0.0078654965
      4875.79      0.55193645    0.0078391278
      4880.66      0.54961150    0.0077493369
      4885.55      0.55860956    0.0077783180
      4890.43      0.56550960    0.0076921887
      4895.32      0.58010772    0.0077215005
      4900.22      0.60629686    0.0076387712
      4905.12      0.65029329    0.0076142745
      4910.02      0.68711920    0.0076459325
      4914.94      0.73413462    0.0075652787
      4919.85      0.77656522    0.0075430715
      4924.77      0.83709027    0.0075197562
      4929.70      0.89845824    0.0074983892
      4934.62      0.95770528    0.0074232933
      4939.56       1.0093108    0.0074572417
      4944.50       1.0542730    0.0074384093
      4949.44       1.0997577    0.0074192786
      4954.39       1.1347157    0.0074014095
      4959.35       1.1578520    0.0073309428
      4964.31       1.1748903    0.0073675347
      4969.27       1.1975964    0.0072982316
      4974.24       1.2081874    0.0072854626
      4979.22       1.2266558    0.0072687728
      4984.20       1.2274316    0.0072567329
      4989.18       1.2295650    0.0072424538
      4994.17       1.2220175    0.0072312290
      4999.16       1.1999729    0.0071674831
      5004.16       1.1670553    0.0072088991
      5009.17       1.1381635    0.0071471041
      5014.18       1.0943646    0.0071894339
      5019.19       1.0554945    0.0071822480
      5024.21       1.0065637    0.0071728143
      5029.23      0.95725743    0.0071666509
      5034.26      0.90884275    0.0071072829
      5039.30      0.86697001    0.0071027114
      5044.34      0.81984130    0.0070962033
      5049.39      0.77778621    0.0070932433
      5054.43      0.74570139    0.0070879181
      5059.49      0.73460254    0.0070866624
      5064.55      0.72833100    0.0070823379
      5069.61      0.73209689    0.0070826295
      5074.68      0.74400464    0.0070792646
      5079.76      0.75810276    0.0070810346
      5084.84      0.77032481    0.0070788422
      5089.92      0.78367598    0.0070819834
      5095.01      0.79565804    0.0070809692
      5100.11      0.81114734    0.0070343093
      5105.21      0.82182390    0.0070856564
      5110.31      0.83510643    0.0070403425
      5115.42      0.83852390    0.0070448419
      5120.54      0.84315530    0.0070489413
      5125.66      0.84675126    0.0070545676
      5130.79      0.84998162    0.0070599835
      5135.92      0.85474727    0.0070668040
      5141.05      0.84703840    0.0070736856
      5146.20      0.84915523    0.0070814913
      5151.34      0.85931683    0.0070915402
      5156.49      0.86117491    0.0070986120
      5161.65      0.86156587    0.0071096542
      5166.81      0.86897151    0.0071181884
      5171.98      0.86771560    0.0071300496
      5177.15      0.86678419    0.0070913111
      5182.33      0.86761169    0.0071528613
      5187.51      0.86313816    0.0071145742
      5192.70      0.85726330    0.0071779765
      5197.89      0.85802920    0.0071401783
      5203.09      0.86125975    0.0071574106
      5208.29      0.87184913    0.0071680954
      5213.50      0.87474873    0.0071859931
      5218.72      0.88255535    0.0072057325
      5223.93      0.89842476    0.0072168446
      5229.16      0.91645054    0.0072371446
      5234.39      0.93754817    0.0072040169
      5239.62      0.95932091    0.0072709105
      5244.86      0.97798002    0.0072395405
      5250.11       1.0110298    0.0072607975
      5255.36       1.0334419    0.0073298895
      5260.61       1.0537123    0.0072990716
      5265.87       1.0741451    0.0073224215
      5271.14       1.0878206    0.0073399129
      5276.41       1.1044562    0.0073634054
      5281.69       1.1194676    0.0073886107
      5286.97       1.1258729    0.0074069590
      5292.26       1.1360115    0.0074322445
      5297.55       1.1501956    0.0074039786
      5302.85       1.1682943    0.0074785074
      5308.15       1.1905185    0.0075055065
      5313.46       1.2040189    0.0074781762
      5318.77       1.2201307    0.0075544020
      5324.09       1.2417622    0.0075830321
      5329.42       1.2544793    0.0075563707
      5334.75       1.2723531    0.0075872740
      5340.08       1.2809931    0.0076646787
      5345.42       1.2877074    0.0076385685
      5350.77       1.2986876    0.0076706954
      5356.12       1.2915303    0.0076924596
      5361.48       1.2836219    0.0077246125
      5366.83       1.2677990    0.0077579023
      5372.20       1.2565310    0.0077345849
      5377.58       1.2443601    0.0078144213
      5382.95       1.2336415    0.0078487239
      5388.34       1.2198224    0.0078843581
      5393.72       1.2125264    0.0078607045
      5399.12       1.2009182    0.0079431709
      5404.52       1.2036104    0.0079795763
      5409.92       1.2160955    0.0079573546
      5415.33       1.2263877    0.0079932487
      5420.75       1.2419301    0.0080302167
      5426.17       1.2682802    0.0080576428
      5431.60       1.2962899    0.0080943097
      5437.03       1.3342125    0.0081319999
      5442.47       1.3624690    0.0081704553
      5447.91       1.4017037    0.0081991089
      5453.36       1.4349611    0.0082373301
      5458.81       1.4656249    0.0082763097
      5464.27       1.4975332    0.0082548375
      5469.73       1.5124493    0.0082951695
      5475.20       1.5318477    0.0083361488
      5480.68       1.5433122    0.0084259476
      5486.16       1.5461766    0.0084045189
      5491.65       1.5402224    0.0084457811
      5497.14       1.5226603    0.0084878044
      5502.64       1.4934114    0.0085304851
      5508.14       1.4709225    0.0085589066
      5513.65       1.4446098    0.0086012159
      5519.16       1.4054766    0.0086441346
      5524.68       1.3734595    0.0086875596
      5530.20       1.3471283    0.0087316197
      5535.73       1.3180275    0.0087110546
      5541.27       1.2965657    0.0087543610
      5546.81       1.2793302    0.0088490276
      5552.36       1.2892318    0.0088936835
      5557.91       1.2856508    0.0088749912
      5563.47       1.2929120    0.0089188725
      5569.04       1.3083789    0.0089632223
      5574.60       1.3274584    0.0090079823
      5580.18       1.3506938    0.0090532943
      5585.76       1.3754296    0.0090331973
      5591.35       1.3905410    0.0090788847
      5596.94       1.4033702    0.0091781065
      5602.53       1.4063580    0.0092236667
      5608.14       1.3994573    0.0092695819
      5613.75       1.3879053    0.0093158826
      5619.36       1.3603485    0.0092948984
      5624.98       1.3155006    0.0093413410
      5630.60       1.2608743    0.0093882388
      5636.23       1.1922583    0.0094353721
      5641.87       1.1159354    0.0094826862
      5647.51       1.0358529    0.0095303357
      5653.16      0.95896411    0.0095782236
      5658.82      0.88920381    0.0095562309
      5664.47      0.81159848    0.0096034286
      5670.14      0.74361172    0.0097050500
      5675.81      0.68493117    0.0097527836
      5681.48      0.64260892    0.0098008165
      5687.17      0.61061751    0.0098489444
      5692.85      0.59244938    0.0098971411
      5698.55      0.57837987    0.0099454907
      5704.25      0.58174825    0.0099249632
      5709.95      0.59916872    0.0099726032
      5715.66      0.62427529     0.010020351
      5721.38      0.65950164     0.010068424
      5727.10      0.69153152     0.010116580
      5732.83      0.73739466     0.010165100
      5738.56      0.78840425     0.010214508
      5744.30      0.83614171     0.010264227
      5750.04      0.89671792     0.010313418
      5755.79      0.96091960     0.010362706
      5761.55       1.0325719     0.010412899
      5767.31       1.0990320     0.010465349
      5773.08       1.1651140     0.010521114
      5778.85       1.2244082     0.010504252
      5784.63       1.2886325     0.010561824
      5790.41       1.3504035     0.010620310
      5796.21       1.4017127     0.010680543
      5802.00       1.4558396     0.010739809
      5807.81       1.4978729     0.010795239
      5813.61       1.5414481     0.010788316
      5819.43       1.5834903     0.010839264
      5825.25       1.6102417     0.010888290
      5831.07       1.6513525     0.010935126
      5836.90       1.6712528     0.010980517
      5842.74       1.6900407     0.011026009
      5848.58       1.7033482     0.011072189
      5854.43       1.7091223     0.011118384
      5860.29       1.7181343     0.011163164
      5866.15       1.7204493     0.011206309
      5872.01       1.7197092     0.011248043
      5877.89       1.7149238     0.011289420
      5883.76       1.7193733     0.011330971
      5889.65       1.7288866     0.011305767
      5895.54       1.7250749     0.011343201
      5901.43       1.7226225     0.011381796
      5907.34       1.7174354     0.011422964
      5913.24       1.7196678     0.011464488
      5919.16       1.7087523     0.011504060
      5925.08       1.7096448     0.011544033
      5931.00       1.7101703     0.011585736
      5936.93       1.7006058     0.011643657
      5942.87       1.7031010     0.011686081
      5948.81       1.6799507     0.011728758
      5954.76       1.6503263     0.011772014
      5960.72       1.6346525     0.011815360
      5966.68       1.6078320     0.011858678
      5972.64       1.5804373     0.011901879
      5978.62       1.5496257     0.011880038
      5984.60       1.5212350     0.011922994
      5990.58       1.4936237     0.011965988
      5996.57       1.4730136     0.012009009
      6002.57       1.4528664     0.012052009
      6008.57       1.4091509     0.012172131
      6014.58       1.3929689     0.012146749
      6020.60       1.3721834     0.012188080
      6026.62       1.3507910     0.012229405
      6032.65       1.3324090     0.012270564
      6038.68       1.3294917     0.012311753
      6044.72       1.3286511     0.012282815
      6050.76       1.3197684     0.012322099
      6056.81       1.3239094     0.012361275
      6062.87       1.3198403     0.012481921
      6068.93       1.3156346     0.012452591
      6075.00       1.3226854     0.012489892
      6081.08       1.3196634     0.012527092
      6087.16       1.3078759     0.012564505
      6093.25       1.2890554     0.012533826
      6099.34       1.2755671     0.012651795
      6105.44       1.2619933     0.012687198
      6111.54       1.2474092     0.012723193
      6117.66       1.2357674     0.012692859
      6123.78       1.2244450     0.012734862
      6129.90       1.2303420     0.012773648
      6136.03       1.2318295     0.012885813
      6142.17       1.2345850     0.012853871
      6148.31       1.2487391     0.012898398
      6154.46       1.2625913     0.012949517
      6160.61       1.2749429     0.012938332
      6166.77       1.2878479     0.013082147
      6172.94       1.2958050     0.013143971
      6179.11       1.2873913     0.013204716
      6185.29       1.2733972     0.013188288
      6191.48       1.2592176     0.013320508
      6197.67       1.2404116     0.013357787
      6203.87       1.2040774     0.013307963
      6210.07       1.1785450     0.013323228
      6216.28       1.1628123     0.013331308
      6222.50       1.1419442     0.013338726
      6228.72       1.1248112     0.013340487
      6234.95       1.1152592     0.013348348
      6241.19       1.1134070     0.013372284
      6247.42       1.1207710     0.013384117
      6253.67       1.1283121     0.013392477
      6259.93       1.1466741     0.013331955
      6266.19       1.1638030     0.013426871
      6272.46       1.1735141     0.013367142
      6278.73       1.1805972     0.013382700
      6285.01       1.1918681     0.013399809
      6291.29       1.1852669     0.013420330
      6297.58       1.1779296     0.013437120
      6303.88       1.1735750     0.013455735
      6310.19       1.1649615     0.013478146
      6316.50       1.1543642     0.013496717
      6322.81       1.1403216     0.013439523
      6329.14       1.1322873     0.013537668
      6335.47       1.1244050     0.013556678
      6341.80       1.1175760     0.013501322
      6348.14       1.1112180     0.013605388
      6354.49       1.1138143     0.013558132
      6360.85       1.1220522     0.013582101
      6367.21       1.1383907     0.013612964
      6373.57       1.1515114     0.013631183
      6379.95       1.1640096     0.013649623
      6386.33       1.1649105     0.013673155
      6392.72       1.1675796     0.013684878
      6399.11       1.1687962     0.013619598
      6405.51       1.1671593     0.013702574
      6411.92       1.1456641     0.013630338
      6418.32       1.1279617     0.013709942
      6424.74       1.1080315     0.013636012
      6431.17       1.0814695     0.013639641
      6437.60       1.0371574     0.013644453
      6444.04      0.99999796     0.013647139
      6450.48      0.95226942     0.013647737
      6456.94      0.90271016     0.013644871
      6463.39      0.86654779     0.013563296
      6469.85      0.83129322     0.013635638
      6476.33      0.80982750     0.013555115
      6482.80      0.80156327     0.013626178
      6489.28      0.79816126     0.013540644
      6495.77      0.80441625     0.013607483
      6502.27      0.81568817     0.013523607
      6508.77      0.83912394     0.013515825
      6515.28      0.87802229     0.013509631
      6521.80      0.91481960     0.013501231
      6528.32      0.95997881     0.013494009
      6534.85       1.0071359     0.013410771
      6541.38       1.0618167     0.013475257
      6547.92       1.1289112     0.013389892
      6554.47       1.1833747     0.013451837
      6561.03       1.2233350     0.013365019
      6567.59       1.2667904     0.013425010
      6574.16       1.2996529     0.013336637
      6580.73       1.3355615     0.013319686
      6587.31       1.3682373     0.013303738
      6593.90       1.3981954     0.013283933
      6600.50       1.4264213     0.013266517
      6607.10       1.4462507     0.013243797
      6613.70       1.4692463     0.013149821
      6620.32       1.4827292     0.013199102
      6626.94       1.4977871     0.013102676
      6633.57       1.5098580     0.013150181
      6640.20       1.5122324     0.013051162
      6646.84       1.5076687     0.013022673
      6653.49       1.5097320     0.012994961
      6660.14       1.5099164     0.012963289
      6666.80       1.5118725     0.012862483
      6673.47       1.5117145     0.012899440
      6680.14       1.4984823     0.012864175
      6686.82       1.4862712     0.012760765
      6693.51       1.4814965     0.012805872
      6700.20       1.4785228     0.012750292
      6706.90       1.4768644     0.012746636
      6713.61       1.4705877     0.012696926
      6720.32       1.4727463     0.012652598
      6727.05       1.4685504     0.012672632
      6733.77       1.4632146     0.012724696
      6740.51       1.4598104     0.012831155
      6747.25       1.4491311     0.012898185
      6754.00       1.4374757     0.013103791
      6760.75       1.4290607     0.013261300
      6767.51       1.4080060     0.013303467
      6774.28       1.3835094     0.013446885
      6781.05       1.3636412     0.013449769
      6787.84       1.3323685     0.013297412
      6794.62       1.2920296     0.013148516
      6801.42       1.2455409     0.012983983
      6808.22       1.1896068     0.012753126
      6815.03       1.1335548     0.012520734
      6821.85       1.0734599     0.012274824
      6828.67       1.0250818     0.012192355
      6835.50      0.96223983     0.012047291
      6842.33      0.92113635     0.011831766
      6849.17      0.87167535     0.011681290
      6856.02      0.84277338     0.011559743
      6862.88      0.82572042     0.011514188
      6869.74      0.81705748     0.011351431
      6876.61      0.82018711     0.011245903
      6883.49      0.83919324     0.011148239
      6890.37      0.87077254     0.011073415
      6897.27      0.90715965     0.010981527
      6904.16      0.96432904     0.010889123
      6911.07       1.0188660     0.010744116
      6917.98       1.0753136     0.010643003
      6924.89       1.1341200     0.010536389
      6931.82       1.1897870     0.010274838
      6938.75       1.2357442     0.010122446
      6945.69       1.2809386    0.0099137176
      6952.64       1.3237736    0.0097103773
      6959.59       1.3538463    0.0095670872
      6966.55       1.3855245    0.0093684666
      6973.52       1.4134952    0.0091747724
      6980.49       1.4334409    0.0089924910
      6987.47       1.4566410    0.0088675248
      6994.46       1.4674895    0.0086681728
      7001.46       1.4745797    0.0084954974
      7008.46       1.4764902    0.0083232096
      7015.46       1.4631180    0.0082004677
      7022.48       1.4527876    0.0080467882
      7029.51       1.4398173    0.0079197291
      7036.53       1.4265412    0.0078125028
      7043.57       1.4111445    0.0077029498
      7050.62       1.3896136    0.0076148239
      7057.66       1.3770142    0.0074808090
      7064.72       1.3681209    0.0073399814
      7071.79       1.3521542    0.0071746688
      7078.86       1.3368390    0.0070200700
      7085.94       1.3280263    0.0068601963
      7093.03       1.3198473    0.0067323088
      7100.12       1.3161549    0.0065618215
      7107.22       1.3077233    0.0063925466
      7114.33       1.2931775    0.0062210104
      7121.44       1.2810016    0.0060489796
      7128.56       1.2705974    0.0058770885
      7135.69       1.2645259    0.0057070998
      7142.83       1.2583457    0.0055402101
      7149.97       1.2588132    0.0053776855
      7157.12       1.2588916    0.0052484290
      7164.28       1.2576720    0.0051005332
      7171.44       1.2647314    0.0049632656
      7178.62       1.2673967    0.0048364269
      7185.80       1.2733248    0.0047154605
      7192.98       1.2766331    0.0046712777
      7200.17       1.2791244    0.0047038350
      7207.38       1.2817871    0.0047501441
      7214.58       1.2844046    0.0048133845
      7221.80       1.2886144    0.0048985961
      7229.02       1.2941370    0.0050135170
      7236.25       1.2996719    0.0051705878
      7243.49       1.3059648    0.0053873531
      7250.73       1.3116598    0.0056818899
      7257.98       1.3192654    0.0060750773
      7265.24       1.3267384    0.0065891197
      7272.51       1.3338078    0.0072517447
      7279.78       1.3440606    0.0081051727
      7287.06       1.3524787    0.0091978974
      7294.35       1.3588177     0.010582073
      7301.64       1.3660807     0.012322327
      7308.94       1.3726336     0.014488273
