# starting wavelength =        3416.9100
# ending wavelength =        7265.1300
# O2 telluric scale =        0
# O2 telluric shift =        0
# H2O telluric scale =        0
# H2O telluric shift =        0
      3419.32      0.83150640      0.64955654
      3422.74      0.58710448      0.56538656
      3426.17      0.55169772      0.48631539
      3429.59      0.52768936      0.42349438
      3433.02      0.53657107      0.37409995
      3436.45      0.53291810      0.32880674
      3439.89      0.49375854      0.30039709
      3443.33      0.45669137      0.27839217
      3446.78      0.42694072      0.26135210
      3450.22      0.41351303      0.24810952
      3453.67      0.38886722      0.23878120
      3457.13      0.36584217      0.22989405
      3460.58      0.37542147      0.22273903
      3464.04      0.34397359      0.21688519
      3467.51      0.40794687      0.21050868
      3470.98      0.35825091      0.20648130
      3474.45      0.38000570      0.20302693
      3477.92      0.37100558      0.20004033
      3481.40      0.31015959      0.19707569
      3484.88      0.29815965      0.19737514
      3488.37      0.25177505      0.19666782
      3491.86      0.25113415      0.19697313
      3495.35      0.28457836      0.19631772
      3498.84      0.30104684      0.19530278
      3502.34      0.34894439      0.19561152
      3505.84      0.26735501      0.19491489
      3509.35      0.33222581      0.19524550
      3512.86      0.34301562      0.19325754
      3516.37      0.17335833      0.19357992
      3519.89      0.12201441      0.19389202
      3523.41     0.075001290      0.19192212
      3526.93     0.090659691      0.19224281
      3530.46      0.20119427      0.19256936
      3533.99      0.18548465      0.19190507
      3537.53      0.26116575      0.19091833
      3541.06      0.35359227      0.19025365
      3544.60      0.34495438      0.19057006
      3548.15      0.35470519      0.19093555
      3551.70      0.27456902      0.18893105
      3555.25      0.22267736      0.18928689
      3558.80      0.16750406      0.18963903
      3562.36      0.23303008      0.18764765
      3565.92      0.24440983      0.18800110
      3569.49      0.29926856      0.18837067
      3573.06      0.25288260      0.18771980
      3576.64      0.31083084      0.18673192
      3580.21      0.40743227      0.18711546
      3583.79      0.43089864      0.18642258
      3587.38      0.33800650      0.18548425
      3590.96      0.38120027      0.18586604
      3594.55      0.43186401      0.18521129
      3598.15      0.48266874      0.18557947
      3601.75      0.50417374      0.18464719
      3605.35      0.52586664      0.18395287
      3608.96      0.67904273      0.18439518
      3612.56      0.62146072      0.18342246
      3616.18      0.65689433      0.18385866
      3619.79      0.74422042      0.18316301
      3623.41      0.82580992      0.18223250
      3627.04      0.83094482      0.18265968
      3630.66      0.89834712      0.18201674
      3634.29      0.97702582      0.18104007
      3637.93      0.99227032      0.18148901
      3641.57       1.0253714      0.18195189
      3645.21      0.98272823      0.18131434
      3648.86       1.0649345      0.18032966
      3652.50       1.0489624      0.18080172
      3656.16       1.0271074      0.18130133
      3659.81       1.0710188      0.17917675
      3663.47       1.2647859      0.17968614
      3667.14       1.3118656      0.18016904
      3670.80       1.3114632      0.17925613
      3674.48       1.2560218      0.17855054
      3678.15       1.3845400      0.17911077
      3681.83       1.3247161      0.17813862
      3685.51       1.2301277      0.17867752
      3689.20       1.2081847      0.17653350
      3692.88       1.2018903      0.17705270
      3696.58       1.0467774      0.17761689
      3700.27      0.87804419      0.17666992
      3703.98      0.84968499      0.17601287
      3707.68      0.69793119      0.17654134
      3711.39      0.63037559      0.17562636
      3715.10      0.70095111      0.17620628
      3718.81      0.56788809      0.17679994
      3722.53      0.49705067      0.17460047
      3726.26      0.48535854      0.17517963
      3729.98      0.37873663      0.17583799
      3733.71      0.34871108      0.17487371
      3737.45      0.38549430      0.17551729
      3741.18      0.44246718      0.17326915
      3744.93      0.41271563      0.17388412
      3748.67      0.53296260      0.17458141
      3752.42      0.74146888      0.17361906
      3756.17      0.74234089      0.17430174
      3759.93      0.83955350      0.17501498
      3763.69      0.83305106      0.17266718
      3767.45      0.76031391      0.17341096
      3771.22      0.69609398      0.17244333
      3774.99      0.57542445      0.17316238
      3778.77      0.40691358      0.17393294
      3782.54      0.39171649      0.17297828
      3786.33      0.42048933      0.17233877
      3790.11      0.43691614      0.17136135
      3793.90      0.49083726      0.17210808
      3797.70      0.58799915      0.17296146
      3801.50      0.63617355      0.17198891
      3805.30      0.69468322      0.17280522
      3809.10      0.65172350      0.17038600
      3812.91      0.71531158      0.16943363
      3816.73      0.80302537      0.16881165
      3820.54      0.80927390      0.16784143
      3824.36      0.81693982      0.16690596
      3828.19      0.86870977      0.16628054
      3832.02      0.84553407      0.16532682
      3835.85      0.78371476      0.16440589
      3839.68      0.65973472      0.16378256
      3843.52      0.52075999      0.16284337
      3847.37      0.53909755      0.16051906
      3851.22      0.49426105      0.15965629
      3855.07      0.53444858      0.16039016
      3858.92      0.58034896      0.15809784
      3862.78      0.61799581      0.15724255
      3866.64      0.74097597      0.15796792
      3870.51      0.80250606      0.15570396
      3874.38      0.74577620      0.15485324
      3878.26      0.79489250      0.15403903
      3882.13      0.84269935      0.15333647
      3886.02      0.91676978      0.15248836
      3889.90      0.96678809      0.15167473
      3893.79      0.97131997      0.15099648
      3897.69      0.98489403      0.15014980
      3901.59       1.0634729      0.14933290
      3905.49       1.0632568      0.14723169
      3909.39       1.0862212      0.14784090
      3913.30       1.1311911      0.14702493
      3917.22       1.2183437      0.14497985
      3921.13       1.3502778      0.14414630
      3925.06       1.3497358      0.14474789
      3928.98       1.4368953      0.14394822
      3932.91       1.4874199      0.14192618
      3936.84       1.4969555      0.14110748
      3940.78       1.5262822      0.14169848
      3944.72       1.4801110      0.13974074
      3948.67       1.4467399      0.13891887
      3952.61       1.5121485      0.13811896
      3956.57       1.5340415      0.13759353
      3960.52       1.5658346      0.13676853
      3964.48       1.5273781      0.13596425
      3968.45       1.4030486      0.13518259
      3972.42       1.2713483      0.13465992
      3976.39       1.2185060      0.13385352
      3980.37       1.1995586      0.13306605
      3984.35       1.2263086      0.13229074
      3988.33       1.2534343      0.13044023
      3992.32       1.3113444      0.13099553
      3996.31       1.2682832      0.13021391
      4000.31       1.2785317      0.12945445
      4004.31       1.3904722      0.12763231
      4008.31       1.3195184      0.12690226
      4012.32       1.2752434      0.12741858
      4016.33       1.3257454      0.12666106
      4020.35       1.3230271      0.12486926
      4024.37       1.3759779      0.12415032
      4028.40       1.3578227      0.12343695
      4032.42       1.3589116      0.12273898
      4036.46       1.2841255      0.12216186
      4040.50       1.1184313      0.12144317
      4044.54       1.0415994      0.12073868
      4048.58       1.0553009      0.12004369
      4052.63       1.0548042      0.11837409
      4056.68       1.0610819      0.11766983
      4060.74       1.0108463      0.11809582
      4064.80      0.99781994      0.11740114
      4068.86       1.0147334      0.11671889
      4072.93       1.0893035      0.11510513
      4077.01       1.1697785      0.11441188
      4081.08       1.2163832      0.11372899
      4085.17       1.1603856      0.11413855
      4089.25       1.1576282      0.11346495
      4093.34       1.1782042      0.11191726
      4097.43       1.1517009      0.11123490
      4101.53       1.1352542      0.11056267
      4105.63       1.0898707      0.10989655
      4109.74       1.0333360      0.10923914
      4113.85      0.97262939      0.10858873
      4117.96      0.96799591      0.10814678
      4122.08       1.0284708      0.10748271
      4126.20      0.94133277      0.10682586
      4130.33      0.86594560      0.10617642
      4134.46      0.80129089      0.10553559
      4138.59      0.77215111      0.10490057
      4142.73      0.80178606      0.10343763
      4146.88      0.82758903      0.10281788
      4151.02      0.84423860      0.10220321
      4155.18      0.83212474      0.10159397
      4159.33      0.75221257      0.10194598
      4163.49      0.76955688      0.10132331
      4167.65      0.76494667     0.099904256
      4171.82      0.74556643     0.099297123
      4175.99      0.77096553     0.098694829
      4180.17      0.72888705     0.098098368
      4184.35      0.74825538     0.097505278
      4188.54      0.78461677     0.096916034
      4192.72      0.81103166     0.096332543
      4196.92      0.82095301     0.095752765
      4201.11      0.77878613     0.094430097
      4205.31      0.70331816     0.093848325
      4209.52      0.72706218     0.093272718
      4213.73      0.70970401     0.092700394
      4217.94      0.68129350     0.092132868
      4222.16      0.63839131     0.091570956
      4226.38      0.59371840     0.091861738
      4230.61      0.58829813     0.091300617
      4234.84      0.68047046     0.090742988
      4239.08      0.69685421     0.090188691
      4243.32      0.80520120     0.088974101
      4247.56      0.81090034     0.088423364
      4251.81      0.82637968     0.087874546
      4256.06      0.85303965     0.087330919
      4260.32      0.80360250     0.086788845
      4264.58      0.84488633     0.086253481
      4268.84      0.86177701     0.085720587
      4273.11      0.80881115     0.085189115
      4277.38      0.77931386     0.084664431
      4281.66      0.74814639     0.084141108
      4285.94      0.72194268     0.083621799
      4290.23      0.73350966     0.083104992
      4294.52      0.75220065     0.082590304
      4298.81      0.74374033     0.082080215
      4303.11      0.73192693     0.081573168
      4307.42      0.78472804     0.080447107
      4311.72      0.85184827     0.079950086
      4316.04      0.92889362     0.079454545
      4320.35      0.94063861     0.078962595
      4324.67      0.98482302     0.078474139
      4329.00       1.0026308     0.077986149
      4333.33       1.0067643     0.077505461
      4337.66      0.96391489     0.077024615
      4342.00      0.92548628     0.076547789
      4346.34      0.90484400     0.075389981
      4350.69      0.88187454     0.074921130
      4355.04      0.82327712     0.074458867
      4359.39      0.83761235     0.073996915
      4363.75      0.78514588     0.073537951
      4368.12      0.79234317     0.073084140
      4372.48      0.80842041     0.072630135
      4376.86      0.81414060     0.072181128
      4381.23      0.76626764     0.071735694
      4385.61      0.75297428     0.071290315
      4390.00      0.76662189     0.070851586
      4394.39      0.76888190     0.070412361
      4398.79      0.80190001     0.069978431
      4403.18      0.82447252     0.069549510
      4407.59      0.82001026     0.069120298
      4412.00      0.79118517     0.068059605
      4416.41      0.72786532     0.067635036
      4420.82      0.68869731     0.067215156
      4425.25      0.66047234     0.066799751
      4429.67      0.66026678     0.066383969
      4434.10      0.63910252     0.065974280
      4438.54      0.66452015     0.066052597
      4442.97      0.71884462     0.065644544
      4447.42      0.69050916     0.065241871
      4451.86      0.71865670     0.064839076
      4456.32      0.72202250     0.063867118
      4460.77      0.72941252     0.063468240
      4465.24      0.74225105     0.063073260
      4469.70      0.78267373     0.062684228
      4474.17      0.84034264     0.062294645
      4478.65      0.85256049     0.061911347
      4483.12      0.91484345     0.061530414
      4487.61      0.90139969     0.060617842
      4492.09      0.90496987     0.060249579
      4496.59      0.87695948     0.059881066
      4501.08      0.86135491     0.059944516
      4505.58      0.89931361     0.059571950
      4510.09      0.88964014     0.059203795
      4514.60      0.95446723     0.058841799
      4519.12      0.97473948     0.057969297
      4523.63       1.0162998     0.057617663
      4528.16       1.0796373     0.057269250
      4532.69       1.0799368     0.056924625
      4537.22       1.1161387     0.056586237
      4541.76       1.1397722     0.056248210
      4546.30       1.2125087     0.055797541
      4550.85       1.2683847     0.055458695
      4555.40       1.3199048     0.055124343
      4559.95       1.3369790     0.054796436
      4564.51       1.3460431     0.054469445
      4569.08       1.3693238     0.053663386
      4573.65       1.3889473     0.053337531
      4578.22       1.4124206     0.053016828
      4582.80       1.4088504     0.053080082
      4587.38       1.4073198     0.052765680
      4591.97       1.4375992     0.051996222
      4596.56       1.4198845     0.051681366
      4601.16       1.4512457     0.051372501
      4605.76       1.4386188     0.051069021
      4610.37       1.4634450     0.050699294
      4614.98       1.5042131     0.050393484
      4619.59       1.5372442     0.050090430
      4624.21       1.5013126     0.049793620
      4628.84       1.4817379     0.049501794
      4633.47       1.4885697     0.048798629
      4638.10       1.4535821     0.048852834
      4642.74       1.4278616     0.048563302
      4647.38       1.3846231     0.048280198
      4652.03       1.3404639     0.047596871
      4656.68       1.3226740     0.047326536
      4661.34       1.2817772     0.047378340
      4666.00       1.3003498     0.046704847
      4670.67       1.2501965     0.046438605
      4675.33       1.2198292     0.046176668
      4680.01       1.1897284     0.045920845
      4684.69       1.1600412     0.045578617
      4689.38       1.1606221     0.045320499
      4694.07       1.1442848     0.045068842
      4698.76       1.1655799     0.044822883
      4703.46       1.1733422     0.044493513
      4708.16       1.1593332     0.044245771
      4712.87       1.1317648     0.044004097
      4717.58       1.1162812     0.043388650
      4722.30       1.1296266     0.043146781
      4727.03       1.1022463     0.043212172
      4731.75       1.1032123     0.042616937
      4736.48       1.0817492     0.042379770
      4741.22       1.0382017     0.042148612
      4745.96       1.0062530     0.041868568
      4750.71      0.96601227     0.041635682
      4755.46      0.96699357     0.041410033
      4760.22      0.98335353     0.040855304
      4764.97      0.94579133     0.040916167
      4769.74      0.94083749     0.040695869
      4774.51      0.95264720     0.040152961
      4779.29      0.94468021     0.040218597
      4784.07      0.90439696     0.040004005
      4788.85      0.88506177     0.039473215
      4793.64      0.85736260     0.039274529
      4798.43      0.83479791     0.039334040
      4803.23      0.81882325     0.038815345
      4808.03      0.78516322     0.038622001
      4812.84      0.77766658     0.038685047
      4817.66      0.74741589     0.038178594
      4822.48      0.73645612     0.037993391
      4827.30      0.69455662     0.037750761
      4832.12      0.66915688     0.037564840
      4836.96      0.64441386     0.037386803
      4841.79      0.64061871     0.037151265
      4846.63      0.64346591     0.036972724
      4851.48      0.66831900     0.036499503
      4856.33      0.68051359     0.036572435
      4861.19      0.70232557     0.036401194
      4866.05      0.73431121     0.035936866
      4870.92      0.76632510     0.036014482
      4875.79      0.75929454     0.035563952
      4880.66      0.74122259     0.035395694
      4885.55      0.73166048     0.035477796
      4890.43      0.67500916     0.035035579
      4895.32      0.63677992     0.034875152
      4900.22      0.62446120     0.034686793
      4905.12      0.60830174     0.034527407
      4910.02      0.58892108     0.034108643
      4914.94      0.59950494     0.034190121
      4919.85      0.63242042     0.034039506
      4924.77      0.65834084     0.033863486
      4929.70      0.69198400     0.033713939
      4934.62      0.75921274     0.033314249
      4939.56      0.83977405     0.033399206
      4944.50      0.93874151     0.033003676
      4949.44       1.0320702     0.032875744
      4954.39       1.1348926     0.032703499
      4959.35       1.2386074     0.032577156
      4964.31       1.3300899     0.032412642
      4969.27       1.4012565     0.032288457
      4974.24       1.4481631     0.032131382
      4979.22       1.4854172     0.032008885
      4984.20       1.4950532     0.031643420
      4989.18       1.5289539     0.031738651
      4994.17       1.5349246     0.031627953
      4999.16       1.5082441     0.031477451
      5004.16       1.4723386     0.031128089
      5009.17       1.4199437     0.031013028
      5014.18       1.3338332     0.030883011
      5019.19       1.2290081     0.030771443
      5024.21       1.1603962     0.030646554
      5029.23       1.0790709     0.030538221
      5034.26      0.96906764     0.030418023
      5039.30      0.90302051     0.030313373
      5044.34      0.83642390     0.030197422
      5049.39      0.75738210     0.030096222
      5054.43      0.70676368     0.029984682
      5059.49      0.68179570     0.029886854
      5064.55      0.67567230     0.029780038
      5069.61      0.67756595     0.029685780
      5074.68      0.69390516     0.029384819
      5079.76      0.69079430     0.029492886
      5084.84      0.71086630     0.029198451
      5089.92      0.73336216     0.029094522
      5095.01      0.74627362     0.029020190
      5100.11      0.76409831     0.028919341
      5105.21      0.79014906     0.028849173
      5110.31      0.81110072     0.028751810
      5115.42      0.84446349     0.028686197
      5120.54      0.88556412     0.028592696
      5125.66      0.91107872     0.028507786
      5130.79      0.91831748     0.028441134
      5135.92      0.95439584     0.028358749
      5141.05      0.95568746     0.028297878
      5146.20      0.95812113     0.028217868
      5151.34      0.97265296     0.027954559
      5156.49      0.97784308     0.028084739
      5161.65      0.97286672     0.027823760
      5166.81      0.99026464     0.027959390
      5171.98      0.98344511     0.027701057
      5177.15      0.95727222     0.027640752
      5182.33      0.94320386     0.027585991
      5187.51      0.95585645     0.027527494
      5192.70      0.96611411     0.027475794
      5197.89      0.98606093     0.027422253
      5203.09      0.99954502     0.027371809
      5208.29      0.99996176     0.027135836
      5213.50       1.0222696     0.027275385
      5218.72       1.0378246     0.027046959
      5223.93       1.0687581     0.027000008
      5229.16       1.0695804     0.027146314
      5234.39       1.0706008     0.026921266
      5239.62       1.0641897     0.027067126
      5244.86       1.0947514     0.026850554
      5250.11       1.1261920     0.026811508
      5255.36       1.1198421     0.026777701
      5260.61       1.1297915     0.026750134
      5265.87       1.1692660     0.026717155
      5271.14       1.1791323     0.026507395
      5276.41       1.2064974     0.026665039
      5281.69       1.2154466     0.026637953
      5286.97       1.2396619     0.026433732
      5292.26       1.2327624     0.026595104
      5297.55       1.1943685     0.026573281
      5302.85       1.1973892     0.026373805
      5308.15       1.2046718     0.026361054
      5313.46       1.2397715     0.026523141
      5318.77       1.2636319     0.026328264
      5324.09       1.3033741     0.026319946
      5329.42       1.3283359     0.026304382
      5334.75       1.3360189     0.026296300
      5340.08       1.3916452     0.026292251
      5345.42       1.4709109     0.026110441
      5350.77       1.5107271     0.026277577
      5356.12       1.5138413     0.026277144
      5361.48       1.4804747     0.026101869
      5366.83       1.5364679     0.026101333
      5372.20       1.5703216     0.026275199
      5377.58       1.6063103     0.026281869
      5382.95       1.5988755     0.026110238
      5388.34       1.5574466     0.026116550
      5393.72       1.4920907     0.026296579
      5399.12       1.4456060     0.026132459
      5404.52       1.4172590     0.026142041
      5409.92       1.3847127     0.026154344
      5415.33       1.3353451     0.025991395
      5420.75       1.3036068     0.026180193
      5426.17       1.2672488     0.026195729
      5431.60       1.2279543     0.026213692
      5437.03       1.1912069     0.026055081
      5442.47       1.2088561     0.026078113
      5447.91       1.2244354     0.026271300
      5453.36       1.2301374     0.026294409
      5458.81       1.2829251     0.026139132
      5464.27       1.3231473     0.026166790
      5469.73       1.4383613     0.026197355
      5475.20       1.5315332     0.026229790
      5480.68       1.5925782     0.026242481
      5486.16       1.6493558     0.026274298
      5491.65       1.6903762     0.026308547
      5497.14       1.7218701     0.026344952
      5502.64       1.7572672     0.026202875
      5508.14       1.7691517     0.026238887
      5513.65       1.7929433     0.026276696
      5519.16       1.7658103     0.026479641
      5524.68       1.7241136     0.026521264
      5530.20       1.6663427     0.026385693
      5535.73       1.6007307     0.026426377
      5541.27       1.5083949     0.026469205
      5546.81       1.4518877     0.026513493
      5552.36       1.4192808     0.026559855
      5557.91       1.3603044     0.026426202
      5563.47       1.3122144     0.026641553
      5569.04       1.2462057     0.026688383
      5574.60       1.1774568     0.026737747
      5580.18       1.1479547     0.026787654
      5585.76       1.1143683     0.026840061
      5591.35       1.0946055     0.026708997
      5596.94       1.0986788     0.026763185
      5602.53       1.1072416     0.026818157
      5608.14       1.1180328     0.026874950
      5613.75       1.1333799     0.026932351
      5619.36       1.1645500     0.026991572
      5624.98       1.1573525     0.026865229
      5630.60       1.1441510     0.027084178
      5636.23       1.1315345     0.027143243
      5641.87       1.1049081     0.027204535
      5647.51       1.0577607     0.027265749
      5653.16       1.0485000     0.027328848
      5658.82       1.0288424     0.027391955
      5664.47      0.95649854     0.027456628
      5670.14      0.89443802     0.027521575
      5675.81      0.81836943     0.027404101
      5681.48      0.73522920     0.027468651
      5687.17      0.67949653     0.027534883
      5692.85      0.60820741     0.027601157
      5698.55      0.54701325     0.027669320
      5704.25      0.50027183     0.027738319
      5709.95      0.45131059     0.027810388
      5715.66      0.42352745     0.027883639
      5721.38      0.39616638     0.027956651
      5727.10      0.34928994     0.028029615
      5732.83      0.31673693     0.028105476
      5738.56      0.30236629     0.028187077
      5744.30      0.29630474     0.028086699
      5750.04      0.30804953     0.028183453
      5755.79      0.34219042     0.028282103
      5761.55      0.38690081     0.028382723
      5767.31      0.42323553     0.028488548
      5773.08      0.46527008     0.028593403
      5778.85      0.51277293     0.028689280
      5784.63      0.56114981     0.028777531
      5790.41      0.59823741     0.028861704
      5796.21      0.64272987     0.028776919
      5802.00      0.68632759     0.028851709
      5807.81      0.74679491     0.028922984
      5813.61      0.80561480     0.028994146
      5819.43      0.87256223     0.029067950
      5825.25      0.93365233     0.029142534
      5831.07      0.98490064     0.029214694
      5836.90      0.99581028     0.029282646
      5842.74       1.0616227     0.029347791
      5848.58       1.1198449     0.029411418
      5854.43       1.1497852     0.029476507
      5860.29       1.1778180     0.029539793
      5866.15       1.2275103     0.029423865
      5872.01       1.2639944     0.029482617
      5877.89       1.2941824     0.029548612
      5883.76       1.3333755     0.029617723
      5889.65       1.3520248     0.029682422
      5895.54       1.3637906     0.029747321
      5901.43       1.3680300     0.029817192
      5907.34       1.3626369     0.029891128
      5913.24       1.3639337     0.029997499
      5919.16       1.3497849     0.030072269
      5925.08       1.3581258     0.030149003
      5931.00       1.3356298     0.030226984
      5936.93       1.3129809     0.030305066
      5942.87       1.2867586     0.030383464
      5948.81       1.2430214     0.030462579
      5954.76       1.2169896     0.030371823
      5960.72       1.1753078     0.030451916
      5966.68       1.1325641     0.030531965
      5972.64       1.1145676     0.030612887
      5978.62       1.1252643     0.030693792
      5984.60       1.1085999     0.030794709
      5990.58       1.0946022     0.030872868
      5996.57       1.1139070     0.030951853
      6002.57       1.1145765     0.031030851
      6008.57       1.1137071     0.031110795
      6014.58       1.1188004     0.031013675
      6020.60       1.1046214     0.031089565
      6026.62       1.0882598     0.031165952
      6032.65       1.0752073     0.031444932
      6038.68       1.0531375     0.031523068
      6044.72       1.0093506     0.031423671
      6050.76      0.98454676     0.031498044
      6056.81      0.95642193     0.031572296
      6062.87      0.95129056     0.031647885
      6068.93      0.93835844     0.031549888
      6075.00      0.93608613     0.031825047
      6081.08      0.94615280     0.031897528
      6087.16      0.96961888     0.031974521
      6093.25      0.96103960     0.031890971
      6099.34      0.96028370     0.031975689
      6105.44      0.98373758     0.032242909
      6111.54       1.0140813     0.032144352
      6117.66       1.0315915     0.032240080
      6123.78       1.0304926     0.032352405
      6129.90       1.0334240     0.032481495
      6136.03       1.0331575     0.032656935
      6142.17       1.0400681     0.032800805
      6148.31       1.0473092     0.032942403
      6154.46       1.0439554     0.032896638
      6160.61       1.0848920     0.033005064
      6166.77       1.1204673     0.033306787
      6172.94       1.1747899     0.033180996
      6179.11       1.2553968     0.033214407
      6185.29       1.3136843     0.033230180
      6191.48       1.3582610     0.033245412
      6197.67       1.3777396     0.033243094
      6203.87       1.4197217     0.033253547
      6210.07       1.4404094     0.033102368
      6216.28       1.4785370     0.033336504
      6222.50       1.5246289     0.033353999
      6228.72       1.5494829     0.033197546
      6234.95       1.5791107     0.033235123
      6241.19       1.5580069     0.033467052
      6247.42       1.5778099     0.033320382
      6253.67       1.5823062     0.033361974
      6259.93       1.5755606     0.033599899
      6266.19       1.5758670     0.033458677
      6272.46       1.5674109     0.033504807
      6278.73       1.5738019     0.033565851
      6285.01       1.5639130     0.033613470
      6291.29       1.5530114     0.033664405
      6297.58       1.5153737     0.033522203
      6303.88       1.4637577     0.033775308
      6310.19       1.3921896     0.033644706
      6316.50       1.3402097     0.033703297
      6322.81       1.3075829     0.033799242
      6329.14       1.2643794     0.033864980
      6335.47       1.2419179     0.034134965
      6341.80       1.2145155     0.034007830
      6348.14       1.1884285     0.034061778
      6354.49       1.1856615     0.034135670
      6360.85       1.1764200     0.034174554
      6367.21       1.1975182     0.034023456
      6373.57       1.1830304     0.034246353
      6379.95       1.1730356     0.034078180
      6386.33       1.1729457     0.034096695
      6392.72       1.1682339     0.034120528
      6399.11       1.1669704     0.034141027
      6405.51       1.1757928     0.034172280
      6411.92       1.1996416     0.034192491
      6418.32       1.2062820     0.034211909
      6424.74       1.2235991     0.034223874
      6431.17       1.2434410     0.034040418
      6437.60       1.2717826     0.034238543
      6444.04       1.2992301     0.034057205
      6450.48       1.3196914     0.034255620
      6456.94       1.3474202     0.034064252
      6463.39       1.3519345     0.034056390
      6469.85       1.3771442     0.034064377
      6476.33       1.3875982     0.034062842
      6482.80       1.3873752     0.034075962
      6489.28       1.3817646     0.034074494
      6495.77       1.3558762     0.034086017
      6502.27       1.3277927     0.034082884
      6508.77       1.2959535     0.034090961
      6515.28       1.2525815     0.034084397
      6521.80       1.2126141     0.034087281
      6528.32       1.1815900     0.033893859
      6534.85       1.1459236     0.033889634
      6541.38       1.1197308     0.033881050
      6547.92       1.0916675     0.033873981
      6554.47       1.0633628     0.033859968
      6561.03       1.0570134     0.033660023
      6567.59       1.0257883     0.033830678
      6574.16       1.0034552     0.033626037
      6580.73      0.97416305     0.033792646
      6587.31      0.96764322     0.033768617
      6593.90      0.94709782     0.033559937
      6600.50      0.94031784     0.033716371
      6607.10      0.92864162     0.033502216
      6613.70      0.93685354     0.033655493
      6620.32      0.94532639     0.033436018
      6626.94      0.93206730     0.033400952
      6633.57      0.91953924     0.033360884
      6640.20      0.88056518     0.033318767
      6646.84      0.87781893     0.033095985
      6653.49      0.87775325     0.033229574
      6660.14      0.87434710     0.033205398
      6666.80      0.86599163     0.033090316
      6673.47      0.85994320     0.033307114
      6680.14      0.85241690     0.033071875
      6686.82      0.85891111     0.032994504
      6693.51      0.84131785     0.033049881
      6700.20      0.84088834     0.033243708
      6706.90      0.82510322     0.033563004
      6713.61      0.82930485     0.033895171
      6720.32      0.81295964     0.034369383
      6727.05      0.79664583     0.034629562
      6733.77      0.78763059     0.035046469
      6740.51      0.79173355     0.035508313
      6747.25      0.76421660     0.035406122
      6754.00      0.73651668     0.035323200
      6760.75      0.70343330     0.035285588
      6767.51      0.65307445     0.034670142
      6774.28      0.64590101     0.034138391
      6781.05      0.62957692     0.033588338
      6787.84      0.61746665     0.033183429
      6794.62      0.61537344     0.032816224
      6801.42      0.62362591     0.032517199
      6808.22      0.60200581     0.032004644
      6815.03      0.60106801     0.031855269
      6821.85      0.61918583     0.031600014
      6828.67      0.58031195     0.031216204
      6835.50      0.59455952     0.030987294
      6842.33      0.62144476     0.030781083
      6849.17      0.63350741     0.030632497
      6856.02      0.62986364     0.030461008
      6862.88      0.64588984     0.030300356
      6869.74      0.66227851     0.030141820
      6876.61      0.64239842     0.029830118
      6883.49      0.65208175     0.029649819
      6890.37      0.64064543     0.029018208
      6897.27      0.63216762     0.028686710
      6904.16      0.64303637     0.028197795
      6911.07      0.64001558     0.027724701
      6917.98      0.63810819     0.027415669
      6924.89      0.64306372     0.026961590
      6931.82      0.65130871     0.026516572
      6938.75      0.67025898     0.026083904
      6945.69      0.67037147     0.025713428
      6952.64      0.66760817     0.025335875
      6959.59      0.66305013     0.024961542
      6966.55      0.64753097     0.024583341
      6973.52      0.64449477     0.024319158
      6980.49      0.63836875     0.023956627
      6987.47      0.66452990     0.023632541
      6994.46      0.66695827     0.023383904
      7001.46      0.67899902     0.023271924
      7008.46      0.68211635     0.023081295
      7015.46      0.68018553     0.022858982
      7022.48      0.68742806     0.022532263
      7029.51      0.68684062     0.022271442
      7036.53      0.68450115     0.021998563
      7043.57      0.69139100     0.021794511
      7050.62      0.68905965     0.021479111
      7057.66      0.67577715     0.021146831
      7064.72      0.67283538     0.020797140
      7071.79      0.68764677     0.020425063
      7078.86      0.68733152     0.020035348
      7085.94      0.71147426     0.019640300
      7093.03      0.73551501     0.019240576
      7100.12      0.73102533     0.018926816
      7107.22      0.74220609     0.018514705
      7114.33      0.75126146     0.018065006
      7121.44      0.76322318     0.017640304
      7128.56      0.76439381     0.017214844
      7135.69      0.75724460     0.016790236
      7142.83      0.74511557     0.016366375
      7149.97      0.74084826     0.016297125
      7157.12      0.75124943     0.016434661
      7164.28      0.76304894     0.016614238
      7171.44      0.77549420     0.016845689
      7178.62      0.79944130     0.017144094
      7185.80      0.82004376     0.017533244
      7192.98      0.83845300     0.018044964
      7200.17      0.85496289     0.018735839
      7207.38      0.87784108     0.019684191
      7214.58      0.90968191     0.020981179
      7221.80      0.94161650     0.022716707
      7229.02      0.97257728     0.024982924
      7236.25       1.0090953     0.027881175
      7243.49       1.0521752     0.031561549
      7250.73       1.1034694     0.036232430
      7257.98       1.1636518     0.042114223
