# starting wavelength =        3511.3280
# ending wavelength =        7372.2100
# O2 telluric scale =        0
# O2 telluric shift =        0
# H2O telluric scale =        0
# H2O telluric shift =        0
      3512.86      0.46451026     0.022620389
      3516.37      0.46409605     0.022079688
      3519.89      0.47226759     0.021746455
      3523.41      0.46914093     0.021560293
      3526.93      0.48030520     0.021486361
      3530.46      0.47453195     0.021385062
      3533.99      0.48157080     0.021310753
      3537.53      0.48226950     0.021346167
      3541.06      0.49180743     0.021381531
      3544.60      0.50171526     0.021170497
      3548.15      0.49860929     0.021206439
      3551.70      0.49847144     0.021132873
      3555.25      0.48013569     0.021171532
      3558.80      0.46921012     0.021067331
      3562.36      0.46338842     0.020995924
      3565.92      0.46335338     0.021032945
      3569.49      0.46628068     0.020960318
      3573.06      0.45646304     0.020859498
      3576.64      0.45199754     0.020897583
      3580.21      0.45132196     0.020827599
      3583.79      0.46065121     0.020864877
      3587.38      0.45016747     0.020766112
      3590.96      0.45093070     0.020691759
      3594.55      0.45240953     0.020733972
      3598.15      0.45701182     0.020775420
      3601.75      0.45833506     0.020561013
      3605.35      0.44396231     0.020602330
      3608.96      0.44332236     0.020530287
      3612.56      0.43693158     0.020430699
      3616.18      0.42898251     0.020473237
      3619.79      0.41838457     0.020404883
      3623.41      0.40618606     0.020445938
      3627.04      0.41373067     0.020346927
      3630.66      0.42019192     0.020274039
      3634.29      0.41240045     0.020322918
      3637.93      0.42030350     0.020220177
      3641.57      0.42342802     0.020269122
      3645.21      0.42551385     0.020195417
      3648.86      0.42759128     0.020246924
      3652.50      0.43784200     0.020144858
      3656.16      0.44316219     0.020075880
      3659.81      0.43276507     0.020122893
      3663.47      0.42123400     0.020025942
      3667.14      0.40922250     0.019952384
      3670.80      0.41485068     0.020006885
      3674.48      0.41028265     0.019905023
      3678.15      0.40725090     0.019959665
      3681.83      0.40798240     0.019886033
      3685.51      0.39690607     0.019789058
      3689.20      0.40413353     0.019842368
      3692.88      0.40534732     0.019775121
      3696.58      0.40115329     0.019672783
      3700.27      0.40327630     0.019728854
      3703.98      0.39974187     0.019786519
      3707.68      0.39007662     0.019559245
      3711.39      0.37695033     0.019617218
      3715.10      0.37896439     0.019675195
      3718.81      0.37865377     0.019581385
      3722.53      0.37270673     0.019505670
      3726.26      0.37959250     0.019569515
      3729.98      0.38101253     0.019469284
      3733.71      0.37940148     0.019533462
      3737.45      0.37894369     0.019460109
      3741.18      0.38880990     0.019363634
      3744.93      0.39353966     0.019427886
      3748.67      0.39719049     0.019494128
      3752.42      0.39940367     0.019260577
      3756.17      0.39093342     0.019324257
      3759.93      0.38995712     0.019396966
      3763.69      0.38596783     0.019296453
      3767.45      0.37494270     0.019368198
      3771.22      0.36614359     0.019295153
      3774.99      0.36297088     0.019197932
      3778.77      0.36454512     0.019272813
      3782.54      0.37553008     0.019174004
      3786.33      0.38474056     0.019250464
      3790.11      0.39467726     0.019175820
      3793.90      0.39912836     0.019080147
      3797.70      0.39967124     0.019158580
      3801.50      0.40841797     0.019235427
      3805.30      0.41057466     0.019142363
      3809.10      0.40192254     0.019222845
      3812.91      0.40251792     0.018971348
      3816.73      0.39971851     0.019055457
      3820.54      0.40166782     0.019136682
      3824.36      0.40348611     0.019043085
      3828.19      0.41681626     0.019129748
      3832.02      0.41675639     0.019219260
      3835.85      0.42616524     0.018962747
      3839.68      0.43152453     0.019048064
      3843.52      0.43859696     0.018953254
      3847.37      0.43035270     0.019047954
      3851.22      0.44659112     0.018950193
      3855.07      0.47412548     0.018882677
      3858.92      0.50681725     0.018781985
      3862.78      0.52571391     0.018686827
      3866.64      0.54973355     0.018618464
      3870.51      0.56518289     0.018519657
      3874.38      0.58192128     0.018263701
      3878.26      0.60086363     0.018356929
      3882.13      0.60866143     0.018260042
      3886.02      0.61402271     0.018007679
      3889.90      0.62819361     0.018098881
      3893.79      0.63908079     0.018003800
      3897.69      0.64840097     0.017754993
      3901.59      0.65250786     0.017844479
      3905.49      0.65701194     0.017750502
      3909.39      0.65908630     0.017505438
      3913.30      0.66446540     0.017593645
      3917.22      0.66791955     0.017500911
      3921.13      0.67275398     0.017258511
      3925.06      0.69512319     0.017173612
      3928.98      0.71498010     0.017102164
      3932.91      0.72035673     0.017013970
      3936.84      0.71041323     0.016929106
      3940.78      0.70232070     0.016860190
      3944.72      0.70485156     0.016772575
      3948.67      0.70516778     0.016687848
      3952.61      0.71896570     0.016460950
      3956.57      0.72162533     0.016534604
      3960.52      0.72305768     0.016450141
      3964.48      0.72902921     0.016368604
      3968.45      0.73417814     0.016141860
      3972.42      0.73857877     0.016215495
      3976.39      0.74058026     0.016133488
      3980.37      0.75071664     0.015912853
      3984.35      0.76731402     0.015828893
      3988.33      0.77600813     0.015901658
      3992.32      0.79415769     0.015687613
      3996.31      0.81444926     0.015603629
      4000.31      0.82926936     0.015521381
      4004.31      0.83982310     0.015593499
      4008.31      0.82522649     0.015382646
      4012.32      0.81234431     0.015300131
      4016.33      0.80560024     0.015220108
      4020.35      0.80064814     0.015166110
      4024.37      0.79804548     0.015082955
      4028.40      0.78838779     0.015002198
      4032.42      0.77221959     0.014922992
      4036.46      0.75463986     0.014721041
      4040.50      0.74055991     0.014789127
      4044.54      0.72698287     0.014709248
      4048.58      0.71310803     0.014508797
      4052.63      0.70331436     0.014433260
      4056.68      0.69385051     0.014359548
      4060.74      0.68701462     0.014422892
      4064.80      0.67604681     0.014225083
      4068.86      0.67002348     0.014150817
      4072.93      0.66101785     0.014077479
      4077.01      0.65341501     0.014005770
      4081.08      0.64794661     0.014065732
      4085.17      0.63607367     0.013873054
      4089.25      0.63252971     0.013800656
      4093.34      0.63334671     0.013729429
      4097.43      0.62110863     0.013659367
      4101.53      0.61784851     0.013474423
      4105.63      0.61005261     0.013529778
      4109.74      0.60980475     0.013459066
      4113.85      0.60825648     0.013389634
      4117.96      0.61124367     0.013320716
      4122.08      0.60883611     0.013141101
      4126.20      0.60620629     0.013070689
      4130.33      0.61344796     0.013125121
      4134.46      0.62908594     0.013056884
      4138.59      0.64023005     0.012885391
      4142.73      0.64312920     0.012815928
      4146.88      0.65289476     0.012747056
      4151.02      0.65869003     0.012679316
      4155.18      0.66572339     0.012612920
      4159.33      0.66716812     0.012665773
      4163.49      0.67541215     0.012500502
      4167.65      0.67463016     0.012432956
      4171.82      0.66703881     0.012366152
      4175.99      0.65763808     0.012300616
      4180.17      0.65765178     0.012235140
      4184.35      0.65696704     0.012072500
      4188.54      0.65677330     0.012009149
      4192.72      0.65811826     0.011946641
      4196.92      0.65416980     0.011997940
      4201.11      0.64912767     0.011933326
      4205.31      0.64998932     0.011870076
      4209.52      0.65553892     0.011807354
      4213.73      0.66619670     0.011649942
      4217.94      0.66408869     0.011589215
      4222.16      0.65572023     0.011528248
      4226.38      0.65276955     0.011468459
      4230.61      0.65586381     0.011408863
      4234.84      0.65914308     0.011349764
      4239.08      0.65931753     0.011291573
      4243.32      0.66133834     0.011243496
      4247.56      0.65801667     0.011184362
      4251.81      0.65316288     0.011125741
      4256.06      0.65570633     0.011067336
      4260.32      0.65586298     0.011009907
      4264.58      0.65805409     0.010952213
      4268.84      0.65505702     0.010895515
      4273.11      0.64892581     0.010838919
      4277.38      0.63810196     0.010699470
      4281.66      0.63224861     0.010643181
      4285.94      0.63073597     0.010586914
      4290.23      0.62574047     0.010531524
      4294.52      0.61989383     0.010476400
      4298.81      0.60528606     0.010421626
      4303.11      0.59654606     0.010367495
      4307.42      0.59235988     0.010313327
      4311.72      0.58942681     0.010259988
      4316.04      0.58460638     0.010206580
      4320.35      0.57960421     0.010153817
      4324.67      0.58314606     0.010101312
      4329.00      0.59468388    0.0099706232
      4333.33      0.60002173    0.0099192606
      4337.66      0.60185985    0.0098682116
      4342.00      0.61198345    0.0098175900
      4346.34      0.62049044    0.0097671752
      4350.69      0.61896370    0.0097170882
      4355.04      0.62178243    0.0096673151
      4359.39      0.62031000    0.0096178784
      4363.75      0.63016625    0.0095689043
      4368.12      0.62905758    0.0095199442
      4372.48      0.62610408    0.0094713440
      4376.86      0.62205593    0.0094230258
      4381.23      0.62069467    0.0093750623
      4385.61      0.61604825    0.0093273700
      4390.00      0.61336348    0.0092799965
      4394.39      0.61747514    0.0092329852
      4398.79      0.61431912    0.0091861859
      4403.18      0.62072308    0.0091397032
      4407.59      0.62227216    0.0090935147
      4412.00      0.63264809    0.0090476761
      4416.41      0.63915461    0.0090023186
      4420.82      0.63953345    0.0089569940
      4425.25      0.64740686    0.0089120709
      4429.67      0.65246617    0.0088674605
      4434.10      0.65065327    0.0088230032
      4438.54      0.66356500    0.0087790053
      4442.97      0.67058211    0.0087351639
      4447.42      0.68045525    0.0086154542
      4451.86      0.69312638    0.0085727732
      4456.32      0.71086720    0.0085303744
      4460.77      0.71751662    0.0084883182
      4465.24      0.73209765    0.0084466107
      4469.70      0.74568730    0.0084052512
      4474.17      0.76812477    0.0083642450
      4478.65      0.78884642    0.0083236504
      4483.12      0.80718344    0.0082833131
      4487.61      0.83011191    0.0082433394
      4492.09      0.84681307    0.0082037264
      4496.59      0.87402267    0.0080923294
      4501.08      0.89194980    0.0080529713
      4505.58      0.90181230    0.0080140369
      4510.09      0.92038755    0.0079754018
      4514.60      0.93328689    0.0079369907
      4519.12      0.94326704    0.0078991138
      4523.63      0.95906637    0.0078614296
      4528.16      0.96701744    0.0078243054
      4532.69      0.97825113    0.0077874376
      4537.22      0.99127905    0.0077436838
      4541.76      0.99775869    0.0077066895
      4546.30      0.99613274    0.0076699708
      4550.85       1.0073719    0.0076337934
      4555.40       1.0169880    0.0075978688
      4559.95       1.0223160    0.0075625354
      4564.51       1.0271689    0.0075275065
      4569.08       1.0317652    0.0074294924
      4573.65       1.0329989    0.0073956067
      4578.22       1.0384657    0.0073622224
      4582.80       1.0383017    0.0073293927
      4587.38       1.0439996    0.0073491650
      4591.97       1.0450835    0.0073157196
      4596.56       1.0536604    0.0072209545
      4601.16       1.0488763    0.0071887773
      4605.76       1.0496790    0.0071568667
      4610.37       1.0479925    0.0071254999
      4614.98       1.0422844    0.0070947321
      4619.59       1.0357500    0.0070025104
      4624.21       1.0279845    0.0069716007
      4628.84       1.0186045    0.0069924968
      4633.47       1.0077935    0.0069624168
      4638.10      0.99878577    0.0069325829
      4642.74      0.98719911    0.0068448038
      4647.38      0.96880038    0.0068149300
      4652.03      0.95830943    0.0067855027
      4656.68      0.94301387    0.0067568285
      4661.34      0.93408021    0.0067786194
      4666.00      0.92792663    0.0066943087
      4670.67      0.91546727    0.0066653954
      4675.33      0.91033986    0.0066373762
      4680.01      0.89851128    0.0066096503
      4684.69      0.89169051    0.0065290120
      4689.38      0.87849691    0.0065502162
      4694.07      0.86661254    0.0065227870
      4698.76      0.85651409    0.0064961641
      4703.46      0.84771022    0.0064172002
      4708.16      0.84378440    0.0063920881
      4712.87      0.84249674    0.0064131164
      4717.58      0.83749134    0.0063872464
      4722.30      0.83321063    0.0063100648
      4727.03      0.82587855    0.0062857217
      4731.75      0.82150445    0.0062618941
      4736.48      0.81654273    0.0062825707
      4741.22      0.81456703    0.0062074434
      4745.96      0.80888971    0.0061839514
      4750.71      0.81067573    0.0061613981
      4755.46      0.80361588    0.0061392297
      4760.22      0.79291141    0.0061094646
      4764.97      0.77857029    0.0060868531
      4769.74      0.77023267    0.0060652398
      4774.51      0.76085161    0.0059937139
      4779.29      0.74875197    0.0060154715
      4784.07      0.74346632    0.0059940547
      4788.85      0.74165211    0.0059250561
      4793.64      0.74691717    0.0059035903
      4798.43      0.75625027    0.0058826941
      4803.23      0.76547197    0.0059058746
      4808.03      0.77497510    0.0058378760
      4812.84      0.78174397    0.0058176423
      4817.66      0.78578848    0.0057980440
      4822.48      0.79385306    0.0057748696
      4827.30      0.79485668    0.0057549134
      4832.12      0.79336056    0.0057359260
      4836.96      0.78716057    0.0057140770
      4841.79      0.78470282    0.0056947578
      4846.63      0.78339627    0.0056763481
      4851.48      0.77786124    0.0056147305
      4856.33      0.77271196    0.0056369437
      4861.19      0.78252908    0.0055753985
      4866.05      0.78550346    0.0055586903
      4870.92      0.78859927    0.0055812629
      4875.79      0.79728873    0.0055210335
      4880.66      0.80773695    0.0055049282
      4885.55      0.82138234    0.0054898713
      4890.43      0.84087531    0.0054688962
      4895.32      0.85619895    0.0054536406
      4900.22      0.86893597    0.0054393405
      4905.12      0.88545878    0.0054191540
      4910.02      0.89492626    0.0054047094
      4914.94      0.89714589    0.0053476877
      4919.85      0.90268267    0.0053716256
      4924.77      0.91100651    0.0053579122
      4929.70      0.91081781    0.0053016397
      4934.62      0.91724908    0.0053262168
      4939.56      0.92663140    0.0052716954
      4944.50      0.92576728    0.0052579142
      4949.44      0.92663652    0.0052431985
      4954.39      0.93221847    0.0052293067
      4959.35      0.92045351    0.0052165165
      4964.31      0.91087605    0.0052019492
      4969.27      0.90109310    0.0051890947
      4974.24      0.88664541    0.0051758557
      4979.22      0.87115767    0.0051629515
      4984.20      0.85619322    0.0051130580
      4989.18      0.83842415    0.0051380046
      4994.17      0.82427514    0.0051262530
      4999.16      0.81229807    0.0050778074
      5004.16      0.80135598    0.0051023451
      5009.17      0.78949329    0.0050542648
      5014.18      0.78953447    0.0050796461
      5019.19      0.78855018    0.0050318479
      5024.21      0.78520816    0.0050227054
      5029.23      0.79501559    0.0050104915
      5034.26      0.80205406    0.0050015191
      5039.30      0.80737042    0.0049901744
      5044.34      0.81406941    0.0049813002
      5049.39      0.82573439    0.0049355758
      5054.43      0.82926596    0.0049621062
      5059.49      0.83490096    0.0049172384
      5064.55      0.83848310    0.0049438816
      5069.61      0.84147277    0.0048998100
      5074.68      0.84272552    0.0049265828
      5079.76      0.84546948    0.0048832224
      5084.84      0.84646207    0.0048752831
      5089.92      0.84689659    0.0048676144
      5095.01      0.85014056    0.0048599033
      5100.11      0.85559509    0.0048528093
      5105.21      0.85553072    0.0048453984
      5110.31      0.85708179    0.0048388369
      5115.42      0.86281175    0.0048317337
      5120.54      0.87143490    0.0048256476
      5125.66      0.87625568    0.0048189001
      5130.79      0.88123946    0.0048132416
      5135.92      0.88786334    0.0048069419
      5141.05      0.89080773    0.0048017256
      5146.20      0.89563947    0.0047958307
      5151.34      0.89865135    0.0047909754
      5156.49      0.90722819    0.0047520343
      5161.65      0.91636361    0.0047810012
      5166.81      0.92809129    0.0047426798
      5171.98      0.93424983    0.0047718060
      5177.15      0.95201674    0.0047341219
      5182.33      0.96554275    0.0047633724
      5187.51      0.98156709    0.0047264246
      5192.70       1.0001242    0.0047226955
      5197.89       1.0165211    0.0047195903
      5203.09       1.0339116    0.0047160478
      5208.29       1.0516329    0.0047135821
      5213.50       1.0729623    0.0047102021
      5218.72       1.0904924    0.0046748372
      5223.93       1.0991469    0.0047051853
      5229.16       1.1075066    0.0046699171
      5234.39       1.1107066    0.0047009932
      5239.62       1.1131413    0.0046657891
      5244.86       1.1195501    0.0046648978
      5250.11       1.1297733    0.0046626598
      5255.36       1.1393874    0.0046617128
      5260.61       1.1449563    0.0046620302
      5265.87       1.1509862    0.0046593654
      5271.14       1.1582085    0.0046596655
      5276.41       1.1697656    0.0046578757
      5281.69       1.1774477    0.0046581452
      5286.97       1.1807710    0.0046261710
      5292.26       1.1891983    0.0046574935
      5297.55       1.1928299    0.0046584989
      5302.85       1.1964009    0.0046268146
      5308.15       1.2020683    0.0046587576
      5313.46       1.2114296    0.0046281548
      5318.77       1.2187975    0.0046289706
      5324.09       1.2197058    0.0046617603
      5329.42       1.2283814    0.0046311850
      5334.75       1.2366322    0.0046328822
      5340.08       1.2494899    0.0046344492
      5345.42       1.2655715    0.0046359655
      5350.77       1.2799050    0.0046380971
      5356.12       1.2872134    0.0046084625
      5361.48       1.2920475    0.0046421420
      5366.83       1.2930458    0.0046449707
      5372.20       1.2936751    0.0046156372
      5377.58       1.2936935    0.0046500100
      5382.95       1.2856561    0.0046203809
      5388.34       1.2720748    0.0046242743
      5393.72       1.2618753    0.0046286541
      5399.12       1.2504152    0.0046298690
      5404.52       1.2403054    0.0046340785
      5409.92       1.2333063    0.0046389489
      5415.33       1.2274554    0.0046110748
      5420.75       1.2195239    0.0046453417
      5426.17       1.2128114    0.0046504421
      5431.60       1.2122382    0.0046233175
      5437.03       1.2108842    0.0046578343
      5442.47       1.2117548    0.0046632841
      5447.91       1.2110154    0.0046369472
      5453.36       1.2104568    0.0046420689
      5458.81       1.2114149    0.0046476439
      5464.27       1.2136269    0.0046834657
      5469.73       1.2136684    0.0046572863
      5475.20       1.2192588    0.0046630143
      5480.68       1.2225457    0.0046691754
      5486.16       1.2213614    0.0046739055
      5491.65       1.2253538    0.0046798430
      5497.14       1.2294973    0.0046861720
      5502.64       1.2292502    0.0046929084
      5508.14       1.2229842    0.0046673738
      5513.65       1.2167282    0.0047045869
      5519.16       1.2024172    0.0047114022
      5524.68       1.1881592    0.0046857580
      5530.20       1.1684364    0.0046932234
      5535.73       1.1503656    0.0047010075
      5541.27       1.1274253    0.0047090990
      5546.81       1.1044723    0.0047130321
      5552.36       1.0793906    0.0047208659
      5557.91       1.0541667    0.0047289517
      5563.47       1.0323034    0.0047373814
      5569.04       1.0111057    0.0047460744
      5574.60      0.99176769    0.0047213784
      5580.18      0.97685539    0.0047588766
      5585.76      0.95573387    0.0047675049
      5591.35      0.94262166    0.0047763562
      5596.94      0.92730924    0.0047527520
      5602.53      0.91026545    0.0047613088
      5608.14      0.89437014    0.0047700111
      5613.75      0.87980312    0.0047790393
      5619.36      0.86257102    0.0047881831
      5624.98      0.84889755    0.0047949214
      5630.60      0.83748089    0.0048038013
      5636.23      0.82683605    0.0048129700
      5641.87      0.82296036    0.0048222309
      5647.51      0.81945680    0.0048317778
      5653.16      0.82083679    0.0048414182
      5658.82      0.82377510    0.0048180518
      5664.47      0.83168640    0.0048279681
      5670.14      0.84575251    0.0048380033
      5675.81      0.86213513    0.0048482597
      5681.48      0.88007615    0.0048876985
      5687.17      0.89879130    0.0048977784
      5692.85      0.91895156    0.0048742628
      5698.55      0.94430042    0.0048845408
      5704.25      0.96691774    0.0048947892
      5709.95      0.99064462    0.0049053145
      5715.66       1.0096034    0.0049158025
      5721.38       1.0275373    0.0049265288
      5727.10       1.0466873    0.0049372491
      5732.83       1.0649547    0.0049148401
      5738.56       1.0812408    0.0049253165
      5744.30       1.0988138    0.0049359171
      5750.04       1.1161892    0.0049466322
      5755.79       1.1350946    0.0049573519
      5761.55       1.1514296    0.0049682922
      5767.31       1.1711921    0.0049791134
      5773.08       1.1900667    0.0049901927
      5778.85       1.2096101    0.0050012384
      5784.63       1.2280235    0.0050126022
      5790.41       1.2439485    0.0049905568
      5796.21       1.2600297    0.0050023505
      5802.00       1.2777086    0.0050139064
      5807.81       1.2890296    0.0050255560
      5813.61       1.2961464    0.0050377545
      5819.43       1.2968698    0.0050510250
      5825.25       1.2942662    0.0050660625
      5831.07       1.3007944    0.0050817723
      5836.90       1.2975028    0.0050977649
      5842.74       1.2928064    0.0051141335
      5848.58       1.2833928    0.0051312926
      5854.43       1.2723325    0.0051478559
      5860.29       1.2612964    0.0051625841
      5866.15       1.2512901    0.0051761357
      5872.01       1.2424471    0.0051888150
      5877.89       1.2421471    0.0052008826
      5883.76       1.2367799    0.0052118154
      5889.65       1.2365513    0.0052223253
      5895.54       1.2364715    0.0052327856
      5901.43       1.2382554    0.0052437944
      5907.34       1.2402109    0.0052241680
      5913.24       1.2445338    0.0052342694
      5919.16       1.2400459    0.0052438273
      5925.08       1.2373442    0.0052526737
      5931.00       1.2345142    0.0052614779
      5936.93       1.2314158    0.0052702894
      5942.87       1.2330353    0.0052786845
      5948.81       1.2221419    0.0052862709
      5954.76       1.2177710    0.0052944720
      5960.72       1.2052895    0.0053039294
      5966.68       1.1941462    0.0052825293
      5972.64       1.1830777    0.0052910015
      5978.62       1.1746951    0.0052997949
      5984.60       1.1690069    0.0053095020
      5990.58       1.1673830    0.0053196785
      5996.57       1.1621216    0.0053301755
      6002.57       1.1609131    0.0053408189
      6008.57       1.1609937    0.0053215616
      6014.58       1.1631111    0.0053326518
      6020.60       1.1617845    0.0053437810
      6026.62       1.1653560    0.0053892431
      6032.65       1.1598996    0.0054000031
      6038.68       1.1579557    0.0054109373
      6044.72       1.1541644    0.0054218945
      6050.76       1.1444171    0.0054022158
      6056.81       1.1385550    0.0054131742
      6062.87       1.1269479    0.0054242261
      6068.93       1.1157059    0.0054352893
      6075.00       1.1017688    0.0054464495
      6081.08       1.0901979    0.0054256148
      6087.16       1.0751840    0.0054709473
      6093.25       1.0605036    0.0054815736
      6099.34       1.0512032    0.0054922611
      6105.44       1.0457463    0.0055030714
      6111.54       1.0382258    0.0054821606
      6117.66       1.0302703    0.0054923021
      6123.78       1.0234506    0.0055025043
      6129.90       1.0159837    0.0055127356
      6136.03       1.0057217    0.0055273544
      6142.17      0.99750531    0.0055369451
      6148.31      0.98574376    0.0055466583
      6154.46      0.97808258    0.0055564570
      6160.61      0.96506080    0.0055356226
      6166.77      0.95374318    0.0055458855
      6172.94      0.94315370    0.0055910488
      6179.11      0.93133952    0.0056031594
      6185.29      0.92090530    0.0055837033
      6191.48      0.91002653    0.0055925381
      6197.67      0.90384793    0.0056036118
      6203.87      0.89134002    0.0056519287
      6210.07      0.88533127    0.0056384207
      6216.28      0.88898828    0.0056579416
      6222.50      0.89451636    0.0056796630
      6228.72      0.89999851    0.0056712545
      6234.95      0.90791272    0.0057286381
      6241.19      0.91691518    0.0057480421
      6247.42      0.92940866    0.0057321199
      6253.67      0.94026298    0.0057432765
      6259.93      0.95249027    0.0057865443
      6266.19      0.96685419    0.0057558725
      6272.46      0.98236070    0.0057547131
      6278.73      0.99469999    0.0057518631
      6285.01       1.0077029    0.0057508982
      6291.29       1.0170079    0.0057502297
      6297.58       1.0264452    0.0057530892
      6303.88       1.0315772    0.0057238913
      6310.19       1.0353772    0.0057584998
      6316.50       1.0385202    0.0057606713
      6322.81       1.0410501    0.0057320517
      6329.14       1.0431701    0.0057359789
      6335.47       1.0460177    0.0057734436
      6341.80       1.0496205    0.0057455658
      6348.14       1.0507723    0.0057504738
      6354.49       1.0541794    0.0057569864
      6360.85       1.0579688    0.0057621425
      6367.21       1.0609970    0.0057681897
      6373.57       1.0620701    0.0057758641
      6379.95       1.0617214    0.0057817399
      6386.33       1.0596710    0.0057555009
      6392.72       1.0590064    0.0057960198
      6399.11       1.0572179    0.0058033103
      6405.51       1.0546538    0.0057797685
      6411.92       1.0543685    0.0058243166
      6418.32       1.0577881    0.0058029548
      6424.74       1.0574571    0.0058108382
      6431.17       1.0608183    0.0058226290
      6437.60       1.0632843    0.0058291129
      6444.04       1.0651552    0.0058356182
      6450.48       1.0664172    0.0058435989
      6456.94       1.0680044    0.0058465941
      6463.39       1.0698208    0.0058172198
      6469.85       1.0767116    0.0058517160
      6476.33       1.0828053    0.0058207165
      6482.80       1.0905186    0.0058554791
      6489.28       1.0930760    0.0058247915
      6495.77       1.1035618    0.0058273659
      6502.27       1.0990996    0.0058300850
      6508.77       1.1017696    0.0058311693
      6515.28       1.1096331    0.0058318310
      6521.80       1.1085038    0.0058312625
      6528.32       1.1135243    0.0057980614
      6534.85       1.1214903    0.0058313776
      6541.38       1.1279679    0.0057982808
      6547.92       1.1352476    0.0058292872
      6554.47       1.1457205    0.0057951804
      6561.03       1.1533902    0.0058270394
      6567.59       1.1648146    0.0057943111
      6574.16       1.1741030    0.0057937128
      6580.73       1.1864317    0.0057943301
      6587.31       1.1958495    0.0057936227
      6593.90       1.2092953    0.0057940431
      6600.50       1.2192574    0.0057616436
      6607.10       1.2310055    0.0057927521
      6613.70       1.2380165    0.0057599624
      6620.32       1.2436395    0.0057905260
      6626.94       1.2355023    0.0057575116
      6633.57       1.2361622    0.0057875547
      6640.20       1.2285131    0.0057540905
      6646.84       1.2170031    0.0057519085
      6653.49       1.2038713    0.0057495739
      6660.14       1.1882616    0.0057466643
      6666.80       1.1682849    0.0057440647
      6673.47       1.1523463    0.0057402741
      6680.14       1.1366109    0.0057052941
      6686.82       1.1202767    0.0057328451
      6693.51       1.1091381    0.0056970263
      6700.20       1.0954600    0.0056931387
      6706.90       1.0876570    0.0056877881
      6713.61       1.0777216    0.0056829550
      6720.32       1.0738875    0.0056775135
      6727.05       1.0698377    0.0056716601
      6733.77       1.0650800    0.0056660476
      6740.51       1.0617078    0.0056593203
      6747.25       1.0586492    0.0056530822
      6754.00       1.0587462    0.0056221131
      6760.75       1.0569507    0.0056609187
      6767.51       1.0597303    0.0056442903
      6774.28       1.0583350    0.0056294970
      6781.05       1.0519098    0.0056506451
      6787.84       1.0526475    0.0056375311
      6794.62       1.0495555    0.0056770501
      6801.42       1.0505321    0.0057238920
      6808.22       1.0493770    0.0057979521
      6815.03       1.0508623    0.0058832966
      6821.85       1.0508964    0.0059294052
      6828.67       1.0512138    0.0060267596
      6835.50       1.0490575    0.0060389177
      6842.33       1.0500825    0.0060584301
      6849.17       1.0495553    0.0060823705
      6856.02       1.0498625    0.0060018856
      6862.88       1.0482366    0.0059283917
      6869.74       1.0498414    0.0058401018
      6876.61       1.0511130    0.0057663294
      6883.49       1.0515327    0.0056874469
      6890.37       1.0537555    0.0056339721
      6897.27       1.0594574    0.0055601454
      6904.16       1.0636043    0.0055336605
      6911.07       1.0689739    0.0054821699
      6917.98       1.0778491    0.0054189237
      6924.89       1.0792120    0.0053828970
      6931.82       1.0872813    0.0053495899
      6938.75       1.0912618    0.0053256859
      6945.69       1.0943994    0.0052992900
      6952.64       1.0944623    0.0052763163
      6959.59       1.0976017    0.0052551473
      6966.55       1.0976610    0.0052084663
      6973.52       1.0982530    0.0052152203
      6980.49       1.0936009    0.0051899627
      6987.47       1.0897815    0.0051087220
      6994.46       1.0891404    0.0050052248
      7001.46       1.0828057    0.0049550442
      7008.46       1.0802678    0.0048787849
      7015.46       1.0769559    0.0048052646
      7022.48       1.0718866    0.0047582530
      7029.51       1.0735675    0.0046875344
      7036.53       1.0745219    0.0046190453
      7043.57       1.0749419    0.0045558448
      7050.62       1.0785322    0.0045184510
      7057.66       1.0799578    0.0044419785
      7064.72       1.0830294    0.0043833810
      7071.79       1.0807135    0.0043254747
      7078.86       1.0847209    0.0042903743
      7085.94       1.0862444    0.0042413370
      7093.03       1.0842073    0.0042059083
      7100.12       1.0836789    0.0041810045
      7107.22       1.0828501    0.0041564200
      7114.33       1.0823042    0.0041431833
      7121.44       1.0804859    0.0041098127
      7128.56       1.0790335    0.0040739316
      7135.69       1.0760983    0.0040358960
      7142.83       1.0765948    0.0039785127
      7149.97       1.0785370    0.0039503945
      7157.12       1.0808393    0.0039025255
      7164.28       1.0819758    0.0038515496
      7171.44       1.0830897    0.0037966711
      7178.62       1.0840679    0.0037386815
      7185.80       1.0841891    0.0036797099
      7192.98       1.0828058    0.0036199302
      7200.17       1.0814128    0.0035594241
      7207.38       1.0794335    0.0034979175
      7214.58       1.0761866    0.0034508812
      7221.80       1.0752349    0.0033871750
      7229.02       1.0757913    0.0033237320
      7236.25       1.0769075    0.0032608328
      7243.49       1.0793053    0.0031980759
      7250.73       1.0828154    0.0031350436
      7257.98       1.0815782    0.0031615405
      7265.24       1.0804704    0.0031883376
      7272.51       1.0788600    0.0032292217
      7279.78       1.0767516    0.0032804095
      7287.06       1.0756872    0.0033455156
      7294.35       1.0729339    0.0034302267
      7301.64       1.0691257    0.0035436867
      7308.94       1.0655216    0.0036986454
      7316.25       1.0603882    0.0039095580
      7323.57       1.0574517    0.0041927730
      7330.89       1.0528577    0.0045637113
      7338.22       1.0478028    0.0050424306
      7345.56       1.0424157    0.0056603165
      7352.91       1.0370873    0.0064519001
      7360.26       1.0309826    0.0074570298
      7367.62       1.0232172    0.0087212430
