# starting wavelength =        3463.5200
# ending wavelength =        7365.7000
# O2 telluric scale =        0
# O2 telluric shift =        0
# H2O telluric scale =        0
# H2O telluric shift =        0
      3464.04     0.086759892      0.37360681
      3467.51      0.14695162      0.31500376
      3470.98      0.18719328      0.25937372
      3474.45      0.23583368      0.22467587
      3477.92      0.27708929      0.19736016
      3481.40      0.29418452      0.17599394
      3484.88      0.38266565      0.16255347
      3488.37      0.37290954      0.14898287
      3491.86      0.40059541      0.13843975
      3495.35      0.42420191      0.13026613
      3498.84      0.38782841      0.12387172
      3502.34      0.36994238      0.11774744
      3505.84      0.44058351      0.11385154
      3509.35      0.44697124      0.11067981
      3512.86      0.46461399      0.10805157
      3516.37      0.49308046      0.10544386
      3519.89      0.53060072      0.10344853
      3523.41      0.51226368      0.10173126
      3526.93      0.54389771      0.10024028
      3530.46      0.54825985     0.099204792
      3533.99      0.57302023     0.099305332
      3537.53      0.52967642     0.098914370
      3541.06      0.49654789     0.099023702
      3544.60      0.50517305     0.099125355
      3548.15      0.50861714     0.098087957
      3551.70      0.46731151     0.098192363
      3555.25      0.41755474     0.097806697
      3558.80      0.40933183     0.097930379
      3562.36      0.35554456     0.097373456
      3565.92      0.40673676     0.096997478
      3569.49      0.39575221     0.097104455
      3573.06      0.40266343     0.096074964
      3576.64      0.38024350     0.096183679
      3580.21      0.40578499     0.096301816
      3583.79      0.38548449     0.095935494
      3587.38      0.37527285     0.095382434
      3590.96      0.38122276     0.095510699
      3594.55      0.43455833     0.095123640
      3598.15      0.39231188     0.095261434
      3601.75      0.34514259     0.094716011
      3605.35      0.34752201     0.094345196
      3608.96      0.33172752     0.094469864
      3612.56      0.24445269     0.093950819
      3616.18      0.30506792     0.093558834
      3619.79      0.27483685     0.093699363
      3623.41      0.29860097     0.093839602
      3627.04      0.34674777     0.092791703
      3630.66      0.32784865     0.092930634
      3634.29      0.33913038     0.093079398
      3637.93      0.32327629     0.092026403
      3641.57      0.34344064     0.092172561
      3645.21      0.35557420     0.092326336
      3648.86      0.35030274     0.091947275
      3652.50      0.32743986     0.091422186
      3656.16      0.27347834     0.091579851
      3659.81      0.29667729     0.091225440
      3663.47      0.31694796     0.090681119
      3667.14      0.29219866     0.090843232
      3670.80      0.29890981     0.090467464
      3674.48      0.31293074     0.089948643
      3678.15      0.36160341     0.090117496
      3681.83      0.36102663     0.090290316
      3685.51      0.38789000     0.089225003
      3689.20      0.38631447     0.089396079
      3692.88      0.41122551     0.089582658
      3696.58      0.49214763     0.089057153
      3700.27      0.53239401     0.088691027
      3703.98      0.54265434     0.088870333
      3707.68      0.45768524     0.088366558
      3711.39      0.44953561     0.087981850
      3715.10      0.43209619     0.088188911
      3718.81      0.43095215     0.087660348
      3722.53      0.42624497     0.087864132
      3726.26      0.37378983     0.087486662
      3729.98      0.39053046     0.086974853
      3733.71      0.36211001     0.087183462
      3737.45      0.36159311     0.087393057
      3741.18      0.39181571     0.086898323
      3744.93      0.32069346     0.086508462
      3748.67      0.27635048     0.086745478
      3752.42      0.25580958     0.086218285
      3756.17      0.23902439     0.086452434
      3759.93      0.23832469     0.086076663
      3763.69      0.17528429     0.085567797
      3767.45      0.13252166     0.085810173
      3771.22      0.13081892     0.086046844
      3774.99      0.18281585     0.085551776
      3778.77      0.16734243     0.085166132
      3782.54      0.19657401     0.085449499
      3786.33      0.20569555     0.084915552
      3790.11      0.25296071     0.085174620
      3793.90      0.24525039     0.084683361
      3797.70      0.19574646     0.084941608
      3801.50      0.16190880     0.084593630
      3805.30      0.15828539     0.084065250
      3809.10      0.15860128     0.084339656
      3812.91      0.15928583     0.084652959
      3816.73      0.18070361     0.084128644
      3820.54      0.24155323     0.083786231
      3824.36      0.26438847     0.083255179
      3828.19      0.26453428     0.083546291
      3832.02      0.25984379     0.083887283
      3835.85      0.31018310     0.083359694
      3839.68      0.30354779     0.083681498
      3843.52      0.29551119     0.083199575
      3847.37      0.30509789     0.082796784
      3851.22      0.37112347     0.083172919
      3855.07      0.40321999     0.082638985
      3858.92      0.37509343     0.082131544
      3862.78      0.37547366     0.081786438
      3866.64      0.41607497     0.081260807
      3870.51      0.41805554     0.080760864
      3874.38      0.39715817     0.080411746
      3878.26      0.40888674     0.079904547
      3882.13      0.39746449     0.078725064
      3886.02      0.40558600     0.079059868
      3889.90      0.42538702     0.078558825
      3893.79      0.39683672     0.077403407
      3897.69      0.42231350     0.077728030
      3901.59      0.40927330     0.077231847
      3905.49      0.35862853     0.076094443
      3909.39      0.36746209     0.076419132
      3913.30      0.39170782     0.075926041
      3917.22      0.39287448     0.074803363
      3921.13      0.41073566     0.074353245
      3925.06      0.44767681     0.074640664
      3928.98      0.47996466     0.073530357
      3932.91      0.49139697     0.073080387
      3936.84      0.51621382     0.073366025
      3940.78      0.55081133     0.072274809
      3944.72      0.56713777     0.071825418
      3948.67      0.65542694     0.071392611
      3952.61      0.67958713     0.071033421
      3956.57      0.66358536     0.070590712
      3960.52      0.66515983     0.070156647
      3964.48      0.69463647     0.069121731
      3968.45      0.65723514     0.069370179
      3972.42      0.60449032     0.068940062
      3976.39      0.57508620     0.067932122
      3980.37      0.51730539     0.067493144
      3984.35      0.55108137     0.067738029
      3988.33      0.53013072     0.066763475
      3992.32      0.51373209     0.066323485
      3996.31      0.49704501     0.065896431
      4000.31      0.51292352     0.066136479
      4004.31      0.56911059     0.065177748
      4008.31      0.59965733     0.064748686
      4012.32      0.62556808     0.064331671
      4016.33      0.65049301     0.064053173
      4020.35      0.70524512     0.063624099
      4024.37      0.75536548     0.063204581
      4028.40      0.74098090     0.062796035
      4032.42      0.70098265     0.061881746
      4036.46      0.71384892     0.062103337
      4040.50      0.73100627     0.061691508
      4044.54      0.67303413     0.061289768
      4048.58      0.64667804     0.060394468
      4052.63      0.63219507     0.060614464
      4056.68      0.62604008     0.060209489
      4060.74      0.60876146     0.059322169
      4064.80      0.59051303     0.058935959
      4068.86      0.57857302     0.058556193
      4072.93      0.56203936     0.058183523
      4077.01      0.59085470     0.058369169
      4081.08      0.60323263     0.057508381
      4085.17      0.62899851     0.057133233
      4089.25      0.66394175     0.056764557
      4093.34      0.68727779     0.056403298
      4097.43      0.69800720     0.056113842
      4101.53      0.69783839     0.055741458
      4105.63      0.68713115     0.055375962
      4109.74      0.64787793     0.055016268
      4113.85      0.61720166     0.054223141
      4117.96      0.61968729     0.053858829
      4122.08      0.59753613     0.054020744
      4126.20      0.58949822     0.053664345
      4130.33      0.55835353     0.053312162
      4134.46      0.54947912     0.052549662
      4138.59      0.53455354     0.052195055
      4142.73      0.53987703     0.051843598
      4146.88      0.50819229     0.051497367
      4151.02      0.51948326     0.051155810
      4155.18      0.54626701     0.050927136
      4159.33      0.59886314     0.050578838
      4163.49      0.65271433     0.050235506
      4167.65      0.66404563     0.049896389
      4171.82      0.68071920     0.049561034
      4175.99      0.68482929     0.049229611
      4180.17      0.65863553     0.048516530
      4184.35      0.63541914     0.048194834
      4188.54      0.60323586     0.048345783
      4192.72      0.57173240     0.048017036
      4196.92      0.53472743     0.047691513
      4201.11      0.52103782     0.047370296
      4205.31      0.50613653     0.046680599
      4209.52      0.45026863     0.046368098
      4213.73      0.42387093     0.046057901
      4217.94      0.40789521     0.045750666
      4222.16      0.42821262     0.045446304
      4226.38      0.43455848     0.045143890
      4230.61      0.48682511     0.044844893
      4234.84      0.50120023     0.044609866
      4239.08      0.50891099     0.044308691
      4243.32      0.50602527     0.044009047
      4247.56      0.50845737     0.043712958
      4251.81      0.53593640     0.043418047
      4256.06      0.51066976     0.043126990
      4260.32      0.49887272     0.042837756
      4264.58      0.51078118     0.042550775
      4268.84      0.49250988     0.042266176
      4273.11      0.47628404     0.041661527
      4277.38      0.44793559     0.041378437
      4281.66      0.44896409     0.041096271
      4285.94      0.45027501     0.040818373
      4290.23      0.44876622     0.040541891
      4294.52      0.45413562     0.040267223
      4298.81      0.46703807     0.039994579
      4303.11      0.50272396     0.039725129
      4307.42      0.49644226     0.039457362
      4311.72      0.49456505     0.039190550
      4316.04      0.45233571     0.038632329
      4320.35      0.42535269     0.038372225
      4324.67      0.40685362     0.038113204
      4329.00      0.41489583     0.037855920
      4333.33      0.40929309     0.037602113
      4337.66      0.39499560     0.037349085
      4342.00      0.38699205     0.037097005
      4346.34      0.40266655     0.036847507
      4350.69      0.39529011     0.036600592
      4355.04      0.39891772     0.036354894
      4359.39      0.40749522     0.036109624
      4363.75      0.44908203     0.035867683
      4368.12      0.48113822     0.035626724
      4372.48      0.51113564     0.035386543
      4376.86      0.54307954     0.035148846
      4381.23      0.55844545     0.034913704
      4385.61      0.58678083     0.034679616
      4390.00      0.59656904     0.034445968
      4394.39      0.60497754     0.034215475
      4398.79      0.60216457     0.033986707
      4403.18      0.60924529     0.033758844
      4407.59      0.60922501     0.033532505
      4412.00      0.62590530     0.033308673
      4416.41      0.61247817     0.033086100
      4420.82      0.59866973     0.032864014
      4425.25      0.57685349     0.032645078
      4429.67      0.60148855     0.032196263
      4434.10      0.59223266     0.032211036
      4438.54      0.58573956     0.031996702
      4442.97      0.60561685     0.031785287
      4447.42      0.63210208     0.031574672
      4451.86      0.63620240     0.031364765
      4456.32      0.66621127     0.030875224
      4460.77      0.67461538     0.030672162
      4465.24      0.68119848     0.030469458
      4469.70      0.70753184     0.030269066
      4474.17      0.68543629     0.030071530
      4478.65      0.70561342     0.029874496
      4483.12      0.72561326     0.029679000
      4487.61      0.73188143     0.029486443
      4492.09      0.73726996     0.029296249
      4496.59      0.73339638     0.029106415
      4501.08      0.73264998     0.028657848
      4505.58      0.72410015     0.028471988
      4510.09      0.73169469     0.028286640
      4514.60      0.73440444     0.028102956
      4519.12      0.73555083     0.027922165
      4523.63      0.75167129     0.027743094
      4528.16      0.76801231     0.027564618
      4532.69      0.77648824     0.027389099
      4537.22      0.79836005     0.027216454
      4541.76      0.82537965     0.026806881
      4546.30      0.81731553     0.026830956
      4550.85      0.83160977     0.026660262
      4555.40      0.82463055     0.026490881
      4559.95      0.82585249     0.026323103
      4564.51      0.85123705     0.026158189
      4569.08      0.86094273     0.025768280
      4573.65      0.85889992     0.025607785
      4578.22      0.85332612     0.025450195
      4582.80      0.85426628     0.025295449
      4587.38      0.84696897     0.025142147
      4591.97      0.85182635     0.024990443
      4596.56      0.82047501     0.024789954
      4601.16      0.83975058     0.024639188
      4605.76      0.84820546     0.024489695
      4610.37      0.86925609     0.024343218
      4614.98      0.87557740     0.024199706
      4619.59      0.89454537     0.024056992
      4624.21      0.91581113     0.023700353
      4628.84      0.93511165     0.023559570
      4633.47      0.93763721     0.023589155
      4638.10      0.95344540     0.023451079
      4642.74      0.94759380     0.023316173
      4647.38      0.94422169     0.022978601
      4652.03      0.94073357     0.022843447
      4656.68      0.93992561     0.022711358
      4661.34      0.92684517     0.022582297
      4666.00      0.89706319     0.022424670
      4670.67      0.87878969     0.022294455
      4675.33      0.87020840     0.022167362
      4680.01      0.86555143     0.022042536
      4684.69      0.85046735     0.021919543
      4689.38      0.84622150     0.021616823
      4694.07      0.83294563     0.021649375
      4698.76      0.82717971     0.021528547
      4703.46      0.80994787     0.021410955
      4708.16      0.81094165     0.021118425
      4712.87      0.79388356     0.021006747
      4717.58      0.79248502     0.021040357
      4722.30      0.76672753     0.020928174
      4727.03      0.74294897     0.020644748
      4731.75      0.70693254     0.020538445
      4736.48      0.69489957     0.020435443
      4741.22      0.68549642     0.020299169
      4745.96      0.66776579     0.020195343
      4750.71      0.65319455     0.020094873
      4755.46      0.61893809     0.019997764
      4760.22      0.61218506     0.019728487
      4764.97      0.60948939     0.019770359
      4769.74      0.59672232     0.019675849
      4774.51      0.56795659     0.019418276
      4779.29      0.54502183     0.019323591
      4784.07      0.54401411     0.019369317
      4788.85      0.52616166     0.019280207
      4793.64      0.51120707     0.019030154
      4798.43      0.50462217     0.018941718
      4803.23      0.49285552     0.018991161
      4808.03      0.48077099     0.018750544
      4812.84      0.46813287     0.018665091
      4817.66      0.46399929     0.018582890
      4822.48      0.46744308     0.018484393
      4827.30      0.48963898     0.018402023
      4832.12      0.48888180     0.018323246
      4836.96      0.49987381     0.018102087
      4841.79      0.52224736     0.018151657
      4846.63      0.54058122     0.018076029
      4851.48      0.59287264     0.017860853
      4856.33      0.62609638     0.017913766
      4861.19      0.64994879     0.017841559
      4866.05      0.68105306     0.017632386
      4870.92      0.72177673     0.017688426
      4875.79      0.76825122     0.017481248
      4880.66      0.79535815     0.017416807
      4885.55      0.82197565     0.017355731
      4890.43      0.87347329     0.017273994
      4895.32      0.91174167     0.017213363
      4900.22      0.92774904     0.017156200
      4905.12      0.96536876     0.017078640
      4910.02       1.0061700     0.017022174
      4914.94       1.0402851     0.016831763
      4919.85       1.0561523     0.016895331
      4924.77       1.0632639     0.016843238
      4929.70       1.0926452     0.016657025
      4934.62       1.1234031     0.016724029
      4939.56       1.1253674     0.016544710
      4944.50       1.1253228     0.016493797
      4949.44       1.1165968     0.016564542
      4954.39       1.0857360     0.016388769
      4959.35       1.0585797     0.016342154
      4964.31       1.0198550     0.016289772
      4969.27      0.98062246     0.016244183
      4974.24      0.94717385     0.016197178
      4979.22      0.90969315     0.016152222
      4984.20      0.89631826     0.015991622
      4989.18      0.85366493     0.016066157
      4994.17      0.81365594     0.016026142
      4999.16      0.80842474     0.015871974
      5004.16      0.79148758     0.015946633
      5009.17      0.76919040     0.015794436
      5014.18      0.76294424     0.015872735
      5019.19      0.75609751     0.015722289
      5024.21      0.76319783     0.015693509
      5029.23      0.76026402     0.015655743
      5034.26      0.77650645     0.015627855
      5039.30      0.79161829     0.015594227
      5044.34      0.80091284     0.015567729
      5049.39      0.81333774     0.015427080
      5054.43      0.83592173     0.015512681
      5059.49      0.85086725     0.015375725
      5064.55      0.86726806     0.015462299
      5069.61      0.86036617     0.015328887
      5074.68      0.87916101     0.015417301
      5079.76      0.89872341     0.015286805
      5084.84      0.91321188     0.015266305
      5089.92      0.92974904     0.015249431
      5095.01      0.94365139     0.015230366
      5100.11      0.92700501     0.015216193
      5105.21      0.91708078     0.015198985
      5110.31      0.90162265     0.015187239
      5115.42      0.89550364     0.015171706
      5120.54      0.87428278     0.015162998
      5125.66      0.86622897     0.015149333
      5130.79      0.87643501     0.015142734
      5135.92      0.87541502     0.015131150
      5141.05      0.87847634     0.015126679
      5146.20      0.87430243     0.015116998
      5151.34      0.86674200     0.015114913
      5156.49      0.86224918     0.015003200
      5161.65      0.85604353     0.015107018
      5166.81      0.85520665     0.014998236
      5171.98      0.88734778     0.015103161
      5177.15      0.90689089     0.014996938
      5182.33      0.92899728     0.015103778
      5187.51      0.93815287     0.015000115
      5192.70      0.95046806     0.015004960
      5197.89      0.96046159     0.015007718
      5203.09      0.96422506     0.015013762
      5208.29      0.96305580     0.015018927
      5213.50      0.95816977     0.015026719
      5218.72      0.94331060     0.014929379
      5223.93      0.95065443     0.015043234
      5229.16      0.94887435     0.014947288
      5234.39      0.94860408     0.015064126
      5239.62      0.94742727     0.014968456
      5244.86      0.93477714     0.014986420
      5250.11      0.94961434     0.014994202
      5255.36      0.96938744     0.015012625
      5260.61      0.98177333     0.015035016
      5265.87      0.99321029     0.015043011
      5271.14       1.0175524     0.015065965
      5276.41       1.0350739     0.014979825
      5281.69       1.0532948     0.015100887
      5286.97       1.0765895     0.015018172
      5292.26       1.1116492     0.015140355
      5297.55       1.1249469     0.015167280
      5302.85       1.1329044     0.015085349
      5308.15       1.1483459     0.015211318
      5313.46       1.1503225     0.015132755
      5318.77       1.1664775     0.015160804
      5324.09       1.1688304     0.015290158
      5329.42       1.1494359     0.015212659
      5334.75       1.1783613     0.015243900
      5340.08       1.2028482     0.015167458
      5345.42       1.2046569     0.015300327
      5350.77       1.2237690     0.015334480
      5356.12       1.2309464     0.015259692
      5361.48       1.2254359     0.015395401
      5366.83       1.2136342     0.015432354
      5372.20       1.2047405     0.015358880
      5377.58       1.1831162     0.015497649
      5382.95       1.1768773     0.015423882
      5388.34       1.1913798     0.015464708
      5393.72       1.2026107     0.015507871
      5399.12       1.2125743     0.015534182
      5404.52       1.2319421     0.015576946
      5409.92       1.2611941     0.015622144
      5415.33       1.2800150     0.015554683
      5420.75       1.2943242     0.015695507
      5426.17       1.3102017     0.015742430
      5431.60       1.3317982     0.015677455
      5437.03       1.3852786     0.015723255
      5442.47       1.4030946     0.015868867
      5447.91       1.4124332     0.015919473
      5453.36       1.4288393     0.015853923
      5458.81       1.4369998     0.015903514
      5464.27       1.4258508     0.016052930
      5469.73       1.4102267     0.015990553
      5475.20       1.3820384     0.016041321
      5480.68       1.3451778     0.016093414
      5486.16       1.3432977     0.016031178
      5491.65       1.3318552     0.016185337
      5497.14       1.3143840     0.016238382
      5502.64       1.3074528     0.016292979
      5508.14       1.2922622     0.016231700
      5513.65       1.2909557     0.016288631
      5519.16       1.2726627     0.016444952
      5524.68       1.2598708     0.016501933
      5530.20       1.2621509     0.016440378
      5535.73       1.2506059     0.016499366
      5541.27       1.2400147     0.016559654
      5546.81       1.2283047     0.016718822
      5552.36       1.2125231     0.016657564
      5557.91       1.2027153     0.016718020
      5563.47       1.1785622     0.016779377
      5569.04       1.1356261     0.016842368
      5574.60       1.0745222     0.016783238
      5580.18       1.0099301     0.016844442
      5585.76      0.94796405     0.017007330
      5591.35      0.87754874     0.017070620
      5596.94      0.80964507     0.017015315
      5602.53      0.75525102     0.017077699
      5608.14      0.68832517     0.017140762
      5613.75      0.62824044     0.017204937
      5619.36      0.56636742     0.017269787
      5624.98      0.52363702     0.017318982
      5630.60      0.50865950     0.017383010
      5636.23      0.51065542     0.017447687
      5641.87      0.51013754     0.017512845
      5647.51      0.50547827     0.017579034
      5653.16      0.53020462     0.017645676
      5658.82      0.53943837     0.017587796
      5664.47      0.57776727     0.017655382
      5670.14      0.61687892     0.017723215
      5675.81      0.64292066     0.017791749
      5681.48      0.67562030     0.017860775
      5687.17      0.73475478     0.018033578
      5692.85      0.78749121     0.017974255
      5698.55      0.83185763     0.018042867
      5704.25      0.91094830     0.018111590
      5709.95      0.96078880     0.018181056
      5715.66       1.0092879     0.018250650
      5721.38       1.0844717     0.018320574
      5727.10       1.1471712     0.018390891
      5732.83       1.2131761     0.018461395
      5738.56       1.2845808     0.018404601
      5744.30       1.3547896     0.018473982
      5750.04       1.4029065     0.018543696
      5755.79       1.4450414     0.018613697
      5761.55       1.4862656     0.018683870
      5767.31       1.5199347     0.018754110
      5773.08       1.5581114     0.018824565
      5778.85       1.5826332     0.018895677
      5784.63       1.5933516     0.018967701
      5790.41       1.6387430     0.019041198
      5796.21       1.6691173     0.019114483
      5802.00       1.6987586     0.019054239
      5807.81       1.7144965     0.019127155
      5813.61       1.7547582     0.019201999
      5819.43       1.7541858     0.019281967
      5825.25       1.7696346     0.019367975
      5831.07       1.7979130     0.019455810
      5836.90       1.8124298     0.019544321
      5842.74       1.8007205     0.019635288
      5848.58       1.8044115     0.019727976
      5854.43       1.7964504     0.019817081
      5860.29       1.7888607     0.019898910
      5866.15       1.7761337     0.019976600
      5872.01       1.7528735     0.020051707
      5877.89       1.7000168     0.020122939
      5883.76       1.7017196     0.020190779
      5889.65       1.7085826     0.020256703
      5895.54       1.7162245     0.020208756
      5901.43       1.7379539     0.020276240
      5907.34       1.7259382     0.020342554
      5913.24       1.7175080     0.020405588
      5919.16       1.7011017     0.020466572
      5925.08       1.6883317     0.020524901
      5931.00       1.6505743     0.020583235
      5936.93       1.6274663     0.020641544
      5942.87       1.6137299     0.020696409
      5948.81       1.5787495     0.020749511
      5954.76       1.5255634     0.020805866
      5960.72       1.4899383     0.020745700
      5966.68       1.4554075     0.020803575
      5972.64       1.4172838     0.020858195
      5978.62       1.3710113     0.020915630
      5984.60       1.3263300     0.020975963
      5990.58       1.2603992     0.021037574
      5996.57       1.2916315     0.021100247
      6002.57       1.2877014     0.021045952
      6008.57       1.2783064     0.021109631
      6014.58       1.2750263     0.021313148
      6020.60       1.2592127     0.021374793
      6026.62       1.2678857     0.021437231
      6032.65       1.2691938     0.021499202
      6038.68       1.2626420     0.021441853
      6044.72       1.2646215     0.021504193
      6050.76       1.2575088     0.021565678
      6056.81       1.2571396     0.021627610
      6062.87       1.2508780     0.021689221
      6068.93       1.2559166     0.021750597
      6075.00       1.2445063     0.021686119
      6081.08       1.2398922     0.021885707
      6087.16       1.2254571     0.021944688
      6093.25       1.2081070     0.022003418
      6099.34       1.2006120     0.022061926
      6105.44       1.1852067     0.021995231
      6111.54       1.1914760     0.022050249
      6117.66       1.1939177     0.022105720
      6123.78       1.1877150     0.022161609
      6129.90       1.2022360     0.022237153
      6136.03       1.2145117     0.022289771
      6142.17       1.2281565     0.022341504
      6148.31       1.2136727     0.022393794
      6154.46       1.2100989     0.022323599
      6160.61       1.2009185     0.022375692
      6166.77       1.1807500     0.022568908
      6172.94       1.1697496     0.022623797
      6179.11       1.1572446     0.022563518
      6185.29       1.1308835     0.022614325
      6191.48       1.1086164     0.022661372
      6197.67       1.0939453     0.022858862
      6203.87       1.0732841     0.022805238
      6210.07       1.0605285     0.022885956
      6216.28       1.0383385     0.022977289
      6222.50       1.0422887     0.022951849
      6228.72       1.0434489     0.023195562
      6234.95       1.0501749     0.023287223
      6241.19       1.0494916     0.023242984
      6247.42       1.0539723     0.023306608
      6253.67       1.0631294     0.023502446
      6259.93       1.0744488     0.023532998
      6266.19       1.0768655     0.023406893
      6272.46       1.0898187     0.023405122
      6278.73       1.0947993     0.023398739
      6285.01       1.0832213     0.023398398
      6291.29       1.0802569     0.023404461
      6297.58       1.0702696     0.023421972
      6303.88       1.0643970     0.023441590
      6310.19       1.0773839     0.023445968
      6316.50       1.0865041     0.023328698
      6322.81       1.0843141     0.023345477
      6329.14       1.0870390     0.023498569
      6335.47       1.0873562     0.023384530
      6341.80       1.1023278     0.023403105
      6348.14       1.1017456     0.023559010
      6354.49       1.0896545     0.023447574
      6360.85       1.0746201     0.023468805
      6367.21       1.0520549     0.023358521
      6373.57       1.0457801     0.023519452
      6379.95       1.0367317     0.023541617
      6386.33       1.0082530     0.023429100
      6392.72      0.98321320     0.023592188
      6399.11      0.94857121     0.023488916
      6405.51      0.90312547     0.023518612
      6411.92      0.87025195     0.023569732
      6418.32      0.83874871     0.023598977
      6424.74      0.81955781     0.023625460
      6431.17      0.81274174     0.023661837
      6437.60      0.81445060     0.023682335
      6444.04      0.82583062     0.023711530
      6450.48      0.83689335     0.023719211
      6456.94      0.84864508     0.023592354
      6463.39      0.86325369     0.023726029
      6469.85      0.88882550     0.023588696
      6476.33      0.91869323     0.023584283
      6482.80      0.95210057     0.023579754
      6489.28      0.98878550     0.023576491
      6495.77       1.0366924     0.023575669
      6502.27       1.0707393     0.023568939
      6508.77       1.0978822     0.023561483
      6515.28       1.1446550     0.023543755
      6521.80       1.1862491     0.023394820
      6528.32       1.2207368     0.023509618
      6534.85       1.2622998     0.023362542
      6541.38       1.2977167     0.023341032
      6547.92       1.3337412     0.023316711
      6554.47       1.3673797     0.023291309
      6561.03       1.3989379     0.023271074
      6567.59       1.4186304     0.023248694
      6574.16       1.4280266     0.023229556
      6580.73       1.4354094     0.023205883
      6587.31       1.4413935     0.023184818
      6593.90       1.4390917     0.023159079
      6600.50       1.4175926     0.023133856
      6607.10       1.3987472     0.023105030
      6613.70       1.3887043     0.022950991
      6620.32       1.3862903     0.022916473
      6626.94       1.3694164     0.022888473
      6633.57       1.3571559     0.022849956
      6640.20       1.3535058     0.022819175
      6646.84       1.3667302     0.022775884
      6653.49       1.3673444     0.022610945
      6660.14       1.3685662     0.022694634
      6666.80       1.3672666     0.022525554
      6673.47       1.3704011     0.022606078
      6680.14       1.3630867     0.022553682
      6686.82       1.3595733     0.022381543
      6693.51       1.3480376     0.022452599
      6700.20       1.3407286     0.022276062
      6706.90       1.3285074     0.022344163
      6713.61       1.3080364     0.022163012
      6720.32       1.2829411     0.022100940
      6727.05       1.2515481     0.022042838
      6733.77       1.2264143     0.021974980
      6740.51       1.1900054     0.021791939
      6747.25       1.1651157     0.021845024
      6754.00       1.1188660     0.021806928
      6760.75       1.0869105     0.021714687
      6767.51       1.0614101     0.021787508
      6774.28       1.0427190     0.021570761
      6781.05      0.99597826     0.021517498
      6787.84      0.96484962     0.021552242
      6794.62      0.94739537     0.021668456
      6801.42      0.91576428     0.021861290
      6808.22      0.90834038     0.021979017
      6815.03      0.90453705     0.022323491
      6821.85      0.91732291     0.022572840
      6828.67      0.94003500     0.022613743
      6835.50      0.96866358     0.022819357
      6842.33       1.0056799     0.022645784
      6849.17       1.0633698     0.022475853
      6856.02       1.1131228     0.022183794
      6862.88       1.1585790     0.021881888
      6869.74       1.2101355     0.021476824
      6876.61       1.2677710     0.021084633
      6883.49       1.3145740     0.020677510
      6890.37       1.3607746     0.020551302
      6897.27       1.3901544     0.020283464
      6904.16       1.4109809     0.019913458
      6911.07       1.4027418     0.019668753
      6917.98       1.4142042     0.019583401
      6924.89       1.3987716     0.019294870
      6931.82       1.4087701     0.019098620
      6938.75       1.4107848     0.018916888
      6945.69       1.4250257     0.018664890
      6952.64       1.4265578     0.018615468
      6959.59       1.4252299     0.018452873
      6966.55       1.4141012     0.018288210
      6973.52       1.4167329     0.018034666
      6980.49       1.4204697     0.017779308
      6987.47       1.4169175     0.017409805
      6994.46       1.4093966     0.017043713
      7001.46       1.4010285     0.016784960
      7008.46       1.3774283     0.016433671
      7015.46       1.3614322     0.016090653
      7022.48       1.3446003     0.015846343
      7029.51       1.3332113     0.015511466
      7036.53       1.3151685     0.015135687
      7043.57       1.3138101     0.014836354
      7050.62       1.2951937     0.014627853
      7057.66       1.2713376     0.014335724
      7064.72       1.2717354     0.014039964
      7071.79       1.2576148     0.013749321
      7078.86       1.2550019     0.013541984
      7085.94       1.2564072     0.013293866
      7093.03       1.2526327     0.013089969
      7100.12       1.2610118     0.012907001
      7107.22       1.2578004     0.012707801
      7114.33       1.2596887     0.012509994
      7121.44       1.2679345     0.012276302
      7128.56       1.2792744     0.012034728
      7135.69       1.2913871     0.011781943
      7142.83       1.3086023     0.011513726
      7149.97       1.3089415     0.011237906
      7157.12       1.3165324     0.010952264
      7164.28       1.3354418     0.010727136
      7171.44       1.3474392     0.010439175
      7178.62       1.3576240     0.010148304
      7185.80       1.3628681    0.0098568664
      7192.98       1.3635972    0.0095670166
      7200.17       1.3545301    0.0092811058
      7207.38       1.3630577    0.0089893444
      7214.58       1.3545882    0.0087189077
      7221.80       1.3550056    0.0084616623
      7229.02       1.3468043    0.0082212721
      7236.25       1.3399165    0.0079987123
      7243.49       1.3378917    0.0078347704
      7250.73       1.3264501    0.0078321240
      7257.98       1.3150549    0.0078911730
      7265.24       1.3070725    0.0079756964
      7272.51       1.2930610    0.0080909468
      7279.78       1.2750314    0.0082464954
      7287.06       1.2573835    0.0084553114
      7294.35       1.2405945    0.0087373933
      7301.64       1.2194013    0.0091240801
      7308.94       1.1995404    0.0096552399
      7316.25       1.1765356     0.010373264
      7323.57       1.1534446     0.011323512
      7330.89       1.1277767     0.012547072
      7338.22       1.1047471     0.014106507
      7345.56       1.0805196     0.016088084
      7352.91       1.0534874     0.018586444
      7360.26       1.0302377     0.021724535
