# starting wavelength =        3463.5200
# ending wavelength =        7365.7000
# O2 telluric scale =        0
# O2 telluric shift =        0
# H2O telluric scale =        0
# H2O telluric shift =        0
      3464.04      0.10727122     -0.92193739
      3467.51     0.024266802     -0.77732231
      3470.98     0.086002905     -0.64004416
      3474.45      0.11352805     -0.55442036
      3477.92     0.046286495     -0.48701352
      3481.40    -0.055040858     -0.43428823
      3484.88     -0.22063454     -0.40111970
      3488.37     -0.23079418     -0.36763168
      3491.86     -0.25672333     -0.34161434
      3495.35     -0.32435101     -0.32144418
      3498.84     -0.37369794      0.30566445
      3502.34     -0.39612661      0.29055096
      3505.84     -0.39838887      0.28093653
      3509.35     -0.32066605      0.27310909
      3512.86     -0.33611681      0.26662275
      3516.37     -0.28497028      0.26018656
      3519.89     -0.17581029      0.25526205
      3523.41     -0.15565333      0.25102364
      3526.93     -0.12712362      0.24734362
      3530.46     0.080038101      0.24478625
      3533.99      0.13507397      0.24503204
      3537.53      0.17599795      0.24406545
      3541.06      0.27528590      0.24433277
      3544.60      0.26357683      0.24458113
      3548.15      0.39534354      0.24201880
      3551.70      0.52086651      0.24227379
      3555.25      0.61280780      0.24132003
      3558.80      0.69977422      0.24162241
      3562.36      0.91640277      0.24024485
      3565.92      0.98509388      0.23931486
      3569.49      0.90549918      0.23957579
      3573.06      0.78904848      0.23703268
      3576.64      0.72496379      0.23729777
      3580.21      0.74947099      0.23758603
      3583.79      0.69260877      0.23667960
      3587.38      0.73298949      0.23531106
      3590.96      0.64157958      0.23562408
      3594.55      0.47452922      0.23466633
      3598.15      0.36954794      0.23500268
      3601.75      0.31674984      0.23365267
      3605.35      0.26736580      0.23273489
      3608.96      0.24912764      0.23303858
      3612.56      0.27122942      0.23175342
      3616.18      0.17106628      0.23078324
      3619.79     0.061701117      0.23112582
      3623.41     0.028435023      0.23146758
      3627.04     -0.12320046      0.22887844
      3630.66    -0.090293792      0.22921680
      3634.29    -0.079376613      0.22957933
      3637.93     -0.16915138      0.22697750
      3641.57     -0.20341829      0.22733343
      3645.21    -0.068662118      0.22770802
      3648.86     0.050446850      0.22676929
      3652.50    -0.029398876      0.22546839
      3656.16     0.034632911      0.22585230
      3659.81      0.12239600      0.22497418
      3663.47      0.29409716      0.22362563
      3667.14      0.26372238      0.22402020
      3670.80      0.32347222      0.22308926
      3674.48      0.33139241      0.22180338
      3678.15      0.23423271      0.22221430
      3681.83     0.064056730      0.22263486
      3685.51     0.043517782      0.22000222
      3689.20      0.11111498      0.22041832
      3692.88      0.20621742      0.22087250
      3696.58      0.24318319      0.21956958
      3700.27      0.24984768      0.21866205
      3703.98      0.37786600      0.21909793
      3707.68      0.32700342      0.21784833
      3711.39      0.37905292      0.21689482
      3715.10      0.40327014      0.21739884
      3718.81      0.24752621      0.21608789
      3722.53      0.20566046      0.21658359
      3726.26      0.13339880      0.21564764
      3729.98     0.042375520      0.21437779
      3733.71      0.24046222      0.21488503
      3737.45      0.25958518      0.21539451
      3741.18      0.34551193      0.21416642
      3744.93      0.54616129      0.21319968
      3748.67      0.54150297      0.21377637
      3752.42      0.62867344      0.21246804
      3756.17      0.64062696      0.21303739
      3759.93      0.67942599      0.21210514
      3763.69      0.55154672      0.21084172
      3767.45      0.44030138      0.21143094
      3771.22      0.48046429      0.21200594
      3774.99      0.53405036      0.21077617
      3778.77      0.47973194      0.20981931
      3782.54      0.62751408      0.21050893
      3786.33      0.69970752     -0.20918312
      3790.11      0.66976842      0.20981257
      3793.90      0.61086263      0.20859170
      3797.70      0.51146571     -0.20921879
      3801.50      0.49934336     -0.20835432
      3805.30      0.38129975     -0.20704175
      3809.10      0.19980844     -0.20770820
      3812.91     0.083001524     -0.20847022
      3816.73     0.024316889     -0.20716729
      3820.54     0.026783942     -0.20631629
      3824.36    0.0056973291     -0.20499666
      3828.19     -0.10962389     -0.20570332
      3832.02     -0.18690937      0.20653266
      3835.85     -0.21409901      0.20522118
      3839.68     -0.29184473      0.20600287
      3843.52     -0.19429692      0.20480357
      3847.37     -0.19013573      0.20380336
      3851.22     0.021562562      0.20471830
      3855.07     0.046642627      0.20339068
      3858.92      0.19630089      0.20212819
      3862.78      0.45994621      0.20126976
      3866.64      0.58131696      0.19996243
      3870.51      0.63217197      0.19871826
      3874.38      0.67422651      0.19784985
      3878.26      0.75604497      0.19658772
      3882.13      0.59068464      0.19367389
      3886.02      0.58826229      0.19448561
      3889.90      0.60235375      0.19323852
      3893.79      0.63171734      0.19038408
      3897.69      0.61378938      0.19117034
      3901.59      0.67439270      0.18993502
      3905.49      0.59186265      0.18712521
      3909.39      0.69424075      0.18791110
      3913.30      0.67111696      0.18668325
      3917.22      0.75314329      0.18390990
      3921.13      0.70072851      0.18278774
      3925.06      0.58602937      0.18348133
      3928.98      0.51201627      0.18073869
      3932.91      0.56211153      0.17961676
      3936.84      0.54015575      0.18030545
      3940.78      0.45489729      0.17761004
      3944.72      0.41259963      0.17648941
      3948.67      0.41075841      0.17540948
      3952.61      0.36462328      0.17451591
      3956.57      0.29421663      0.17341155
      3960.52      0.36611214      0.17232839
      3964.48      0.44228472      0.16977212
      3968.45      0.46022267      0.17036825
      3972.42      0.40181708      0.16929465
      3976.39      0.34570318      0.16680497
      3980.37      0.31691374      0.16570970
      3984.35      0.34325924      0.16629638
      3988.33      0.28606081      0.16388899
      3992.32      0.28997885      0.16279118
      3996.31      0.21717107      0.16172506
      4000.31      0.20362361      0.16229916
      4004.31      0.33705479      0.15993110
      4008.31      0.41392260      0.15885997
      4012.32      0.47580033      0.15781836
      4016.33      0.57253308      0.15712276
      4020.35      0.53556774      0.15605150
      4024.37      0.56252059      0.15500368
      4028.40      0.52590577      0.15398274
      4032.42      0.56880178      0.15172480
      4036.46      0.55563818      0.15225219
      4040.50      0.59755227      0.15122312
      4044.54      0.52869296      0.15021877
      4048.58      0.45942282      0.14800795
      4052.63      0.47206024      0.14853073
      4056.68      0.48707956      0.14751838
      4060.74      0.48528199      0.14532757
      4064.80      0.46643891      0.14436133
      4068.86      0.51711315      0.14341088
      4072.93      0.53768642      0.14247777
      4077.01      0.64607288      0.14291531
      4081.08      0.69378622      0.14079027
      4085.17      0.67106511      0.13985105
      4089.25      0.70695055      0.13892767
      4093.34      0.65767880      0.13802241
      4097.43      0.58565422      0.13729991
      4101.53      0.68532087      0.13636742
      4105.63      0.66221579      0.13545176
      4109.74      0.65488368      0.13455028
      4113.85      0.64970225      0.13259236
      4117.96      0.64652124      0.13167977
      4122.08      0.60069358      0.13205743
      4126.20      0.55169954      0.13116397
      4130.33      0.58018055      0.13028081
      4134.46      0.59239368      0.12839869
      4138.59      0.62236152      0.12750979
      4142.73      0.60027383      0.12662858
      4146.88      0.60738307      0.12576016
      4151.02      0.63870991      0.12490316
      4155.18      0.57801353      0.12432947
      4159.33      0.52019418      0.12345597
      4163.49      0.44098336      0.12259465
      4167.65      0.45781094      0.12174363
      4171.82      0.45865560      0.12090179
      4175.99      0.50532198      0.12006952
      4180.17      0.58568337      0.11831037
      4184.35      0.47554452      0.11750211
      4188.54      0.47420667      0.11785017
      4192.72      0.48749078      0.11702450
      4196.92      0.46949379      0.11620670
      4201.11      0.44188689      0.11539942
      4205.31      0.34632337      0.11369855
      4209.52      0.36294972      0.11291273
      4213.73      0.36514900      0.11213256
      4217.94      0.31183318      0.11135960
      4222.16      0.26240530      0.11059364
      4226.38      0.26128177      0.10983246
      4230.61      0.28746150      0.10907962
      4234.84      0.27779032      0.10849090
      4239.08      0.32158254      0.10773279
      4243.32      0.35794736      0.10697846
      4247.56      0.41333543      0.10623280
      4251.81      0.41796225      0.10549001
      4256.06      0.45747004      0.10475662
      4260.32      0.50649666      0.10402769
      4264.58      0.46007043      0.10330426
      4268.84      0.53024983      0.10258662
      4273.11      0.51983662      0.10109667
      4277.38      0.48609647      0.10038302
      4281.66      0.44760643     0.099671642
      4285.94      0.41102251     0.098970653
      4290.23      0.37316397     0.098273173
      4294.52      0.42583270     0.097580117
      4298.81      0.44941177     0.096892002
      4303.11      0.48515519     0.096211676
      4307.42      0.52125394     0.095535492
      4311.72      0.58709071     0.094861631
      4316.04      0.54937346     0.093487062
      4320.35      0.59418280     0.092829801
      4324.67      0.57391397     0.092175205
      4329.00      0.59152448     0.091524850
      4333.33      0.56804799     0.090882968
      4337.66      0.57040569     0.090243051
      4342.00      0.53464095     0.089605451
      4346.34      0.46528815     0.088974143
      4350.69      0.43353473     0.088349147
      4355.04      0.40395973     0.087727159
      4359.39      0.40111882     0.087106233
      4363.75      0.40481722     0.086493430
      4368.12      0.43274163     0.085883033
      4372.48      0.47975555     0.085274647
      4376.86      0.52443583     0.084672278
      4381.23      0.50995906     0.084076128
      4385.61      0.45828105     0.083482643
      4390.00      0.45401114     0.082890230
      4394.39      0.46097554     0.082305504
      4398.79      0.45132056     0.081725031
      4403.18      0.46794211     0.081146800
      4407.59      0.52411632     0.080572302
      4412.00      0.55529975     0.080003924
      4416.41      0.57920437     0.079438681
      4420.82      0.55880306     0.078874657
      4425.25      0.51041867     0.078318310
      4429.67      0.50889529     0.077215664
      4434.10      0.50813000     0.077215078
      4438.54      0.55906099     0.076670043
      4442.97      0.59858940     0.076132103
      4447.42      0.58716257     0.075596187
      4451.86      0.58717445     0.075062052
      4456.32      0.58998039     0.073853560
      4460.77      0.52510293     0.073336297
      4465.24      0.53053487     0.072819980
      4469.70      0.52337408     0.072309294
      4474.17      0.57610065     0.071805539
      4478.65      0.59164640     0.071303117
      4483.12      0.61139403     0.070804451
      4487.61      0.65716647     0.070312929
      4492.09      0.73025748     0.069827147
      4496.59      0.75074451     0.069342345
      4501.08      0.74272020     0.068235869
      4505.58      0.70546406     0.067761040
      4510.09      0.69540026     0.067287555
      4514.60      0.71500484     0.066818154
      4519.12      0.71789547     0.066355761
      4523.63      0.77106883     0.065897583
      4528.16      0.76135230     0.065440963
      4532.69      0.77895831     0.064991482
      4537.22      0.79054789     0.064548947
      4541.76      0.89119141     0.063539185
      4546.30      0.87768797     0.063558000
      4550.85      0.87660983     0.063120532
      4555.40      0.86250692     0.062686452
      4559.95      0.87154320     0.062256046
      4564.51      0.84982689     0.061832698
      4569.08      0.86650806     0.060872136
      4573.65      0.84702940     0.060459797
      4578.22      0.85489668     0.060054493
      4582.80      0.82954800     0.059656025
      4587.38      0.79761091     0.059261114
      4591.97      0.80678983     0.058870123
      4596.56      0.80542528     0.058353241
      4601.16      0.80052065     0.057964806
      4605.76      0.85755481     0.057579529
      4610.37      0.93102056     0.057201517
      4614.98      0.96821502     0.056830630
      4619.59      0.98427813     0.056461743
      4624.21       1.0160909     0.055585428
      4628.84       1.0590344     0.055221740
      4633.47       1.0515667     0.055251924
      4638.10       1.0429211     0.054894668
      4642.74       1.0573108     0.054545002
      4647.38       1.0702704     0.053715805
      4652.03       1.0549079     0.053366209
      4656.68       1.0477837     0.053023973
      4661.34       1.0149868     0.052688982
      4666.00       1.0026131     0.052276306
      4670.67      0.93551587     0.051939036
      4675.33      0.90712015     0.051609239
      4680.01      0.88740732     0.051284898
      4684.69      0.82543159     0.050965024
      4689.38      0.77715304     0.050221930
      4694.07      0.76630714     0.050258477
      4698.76      0.72440000     0.049944265
      4703.46      0.69696214     0.049637787
      4708.16      0.66843560     0.048920414
      4712.87      0.68976800     0.048628303
      4717.58      0.66290788     0.048667126
      4722.30      0.62063963     0.048374044
      4727.03      0.60780152     0.047679836
      4731.75      0.65156451     0.047401042
      4736.48      0.67737824     0.047130078
      4741.22      0.75005078     0.046771528
      4745.96      0.78235042     0.046499155
      4750.71      0.82844356     0.046234714
      4755.46      0.88047579     0.045978207
      4760.22      0.88664527     0.045320651
      4764.97      0.93649512     0.045378643
      4769.74      0.94913643     0.045128823
      4774.51      0.93300892     0.044499830
      4779.29      0.90231211     0.044250344
      4784.07      0.89829364     0.044317149
      4788.85      0.85887034     0.044080636
      4793.64      0.84580070     0.043471101
      4798.43      0.80786301     0.043236900
      4803.23      0.76055208     0.043312194
      4808.03      0.69998521     0.042725919
      4812.84      0.68031569     0.042499303
      4817.66      0.64781122     0.042280310
      4822.48      0.66520878     0.042013927
      4827.30      0.63848593     0.041795118
      4832.12      0.62170888     0.041584716
      4836.96      0.57538410     0.041046282
      4841.79      0.56870703     0.041122391
      4846.63      0.56829273     0.040919928
      4851.48      0.55528789     0.040396754
      4856.33      0.55269912     0.040480576
      4861.19      0.55513166     0.040286690
      4866.05      0.55466132     0.039778797
      4870.92      0.54827506     0.039869835
      4875.79      0.60536414     0.039367680
      4880.66      0.59577689     0.039192619
      4885.55      0.59819142     0.039025395
      4890.43      0.61615189     0.038802154
      4895.32      0.64811726     0.038636496
      4900.22      0.71287095     0.038478892
      4905.12      0.76375000     0.038266151
      4910.02      0.76333595     0.038110699
      4914.94      0.82816137     0.037650979
      4919.85      0.83514368     0.037759961
      4924.77      0.86340436     0.037615168
      4929.70      0.87744916     0.037166528
      4934.62      0.95264264     0.037283469
      4939.56      0.95317615     0.036851444
      4944.50      0.97801186     0.036710626
      4949.44      0.98310215     0.036836208
      4954.39       1.0226059     0.036413791
      4959.35       1.0580842     0.036283419
      4964.31       1.0984239     0.036131718
      4969.27       1.0781620     0.036004278
      4974.24       1.0411667     0.035865277
      4979.22      0.97766708     0.035739851
      4984.20      0.95247705     0.035354760
      4989.18      0.90397719     0.035489908
      4994.17      0.88435214     0.035376325
      4999.16      0.80117854     0.035007095
      5004.16      0.75871154     0.035142949
      5009.17      0.73816191     0.034779187
      5014.18      0.70641223     0.034923387
      5019.19      0.69184047     0.034564619
      5024.21      0.66958407     0.034477798
      5029.23      0.66102681     0.034363815
      5034.26      0.64665856     0.034279581
      5039.30      0.64658133     0.034175487
      5044.34      0.67614889     0.034094946
      5049.39      0.73309206     0.033761174
      5054.43      0.78231469     0.033922902
      5059.49      0.79261454     0.033598311
      5064.55      0.79126838     0.033762513
      5069.61      0.81171092     0.033446765
      5074.68      0.83007779     0.033615355
      5079.76      0.90735762     0.033307045
      5084.84      0.90230266     0.033242245
      5089.92      0.89286221     0.033179039
      5095.01      0.86379623     0.033118006
      5100.11      0.88605187     0.033061482
      5105.21      0.86751623     0.033005125
      5110.31      0.86739948     0.032954702
      5115.42      0.85330534     0.032902608
      5120.54      0.85048561     0.032859589
      5125.66      0.84345680     0.032812183
      5130.79      0.84659099     0.032774543
      5135.92      0.82158292     0.032732275
      5141.05      0.87406171     0.032700078
      5146.20      0.86446384     0.032662544
      5151.34      0.86672597     0.032636310
      5156.49      0.90958057     0.032376657
      5161.65      0.93943965     0.032582341
      5166.81      0.95620804     0.032329990
      5171.98       1.0165281     0.032538529
      5177.15       1.0299839     0.032292663
      5182.33      0.98890272     0.032505780
      5187.51      0.98105484     0.032266370
      5192.70      0.95081929     0.032258502
      5197.89      0.95246428     0.032251007
      5203.09      0.92405774     0.032246518
      5208.29      0.93711859     0.032244793
      5213.50      0.94910825     0.032244852
      5218.72      0.95285772     0.032021940
      5223.93      0.96441404     0.032252200
      5229.16      0.96995281     0.032033176
      5234.39      0.98618673     0.032270334
      5239.62       1.0316289     0.032052755
      5244.86       1.0223702     0.032077121
      5250.11       1.0625700     0.032083502
      5255.36       1.0998379     0.032109611
      5260.61       1.0771058     0.032144645
      5265.87       1.0818783     0.032152387
      5271.14       1.0761342     0.032189364
      5276.41       1.0715683     0.031995287
      5281.69       1.1107326     0.032243936
      5286.97       1.1117252     0.032057935
      5292.26       1.1025235     0.032309490
      5297.55       1.1195808     0.032356865
      5302.85       1.1270027     0.032173756
      5308.15       1.1642987     0.032434212
      5313.46       1.1812677     0.032259030
      5318.77       1.2019439     0.032310371
      5324.09       1.2082370     0.032578872
      5329.42       1.1772837     0.032407104
      5334.75       1.1806891     0.032466363
      5340.08       1.1681370     0.032297636
      5345.42       1.1411658     0.032574768
      5350.77       1.1217731     0.032641325
      5356.12       1.1058177     0.032477189
      5361.48       1.0832065     0.032761200
      5366.83       1.0738009     0.032834789
      5372.20       1.0632138     0.032674470
      5377.58       1.0746037     0.032965837
      5382.95       1.1335929     0.032805537
      5388.34       1.1077203     0.032888777
      5393.72       1.1128564     0.032977365
      5399.12       1.1379623     0.033031148
      5404.52       1.1469143     0.033119530
      5409.92       1.1627952     0.033213451
      5415.33       1.1973577     0.033068502
      5420.75       1.2178551     0.033366487
      5426.17       1.2245876     0.033465062
      5431.60       1.2315164     0.033326261
      5437.03       1.2704948     0.033423105
      5442.47       1.2759750     0.033732419
      5447.91       1.3073827     0.033840133
      5453.36       1.3260745     0.033701238
      5458.81       1.3767200     0.033807424
      5464.27       1.4005143     0.034125954
      5469.73       1.4063909     0.033994590
      5475.20       1.4088988     0.034104187
      5480.68       1.4082715     0.034216925
      5486.16       1.3801296     0.034086634
      5491.65       1.3559044     0.034416608
      5497.14       1.3196029     0.034532246
      5502.64       1.2816289     0.034651494
      5508.14       1.2207481     0.034524193
      5513.65       1.1898896     0.034648960
      5519.16       1.1925366     0.034984926
      5524.68       1.1790611     0.035110388
      5530.20       1.1988458     0.034983374
      5535.73       1.2039497     0.035113636
      5541.27       1.2274354     0.035246954
      5546.81       1.2494546     0.035590332
      5552.36       1.2779092     0.035464769
      5557.91       1.2884525     0.035599225
      5563.47       1.2984524     0.035735870
      5569.04       1.3048110     0.035876273
      5574.60       1.2909277     0.035755959
      5580.18       1.2648750     0.035893016
      5585.76       1.2598975     0.036246155
      5591.35       1.2177174     0.036388188
      5596.94       1.2040755     0.036276716
      5602.53       1.1156852     0.036417254
      5608.14      0.98718157     0.036559482
      5613.75      0.85751786     0.036704334
      5619.36      0.77537367     0.036850875
      5624.98      0.71741625     0.036962122
      5630.60      0.63597038     0.037107322
      5636.23      0.56905714     0.037254145
      5641.87      0.48892514     0.037402219
      5647.51      0.45870567     0.037552725
      5653.16      0.42051771     0.037704430
      5658.82      0.39575498     0.037589026
      5664.47      0.37995722     0.037743098
      5670.14      0.36604009     0.037897909
      5675.81      0.42732839     0.038054430
      5681.48      0.45430162     0.038212225
      5687.17      0.50230668     0.038590987
      5692.85      0.54780236     0.038473169
      5698.55      0.56838238     0.038630629
      5704.25      0.61004592     0.038788514
      5709.95      0.63192572     0.038948186
      5715.66      0.61446650     0.039108332
      5721.38      0.63733183     0.039269365
      5727.10      0.67581374     0.039431429
      5732.83      0.71347604     0.039594073
      5738.56      0.74253152     0.039482321
      5744.30      0.80252155     0.039642817
      5750.04      0.82492589     0.039804191
      5755.79      0.86997611     0.039966348
      5761.55      0.89172070     0.040129049
      5767.31      0.90428135     0.040292044
      5773.08      0.90376371     0.040455668
      5778.85      0.91167434     0.040620856
      5784.63      0.94278471     0.040788141
      5790.41      0.94241396     0.040958747
      5796.21      0.95951686     0.041129033
      5802.00      0.97618624     0.041010477
      5807.81       1.0329986     0.041180187
      5813.61       1.1047838     0.041354169
      5819.43       1.1513105     0.041539329
      5825.25       1.1510361     0.041737608
      5831.07       1.2010706     0.041939998
      5836.90       1.2653683     0.042144048
      5842.74       1.2795946     0.042353542
      5848.58       1.3111810     0.042566893
      5854.43       1.3659534     0.042772720
      5860.29       1.3994947     0.042963026
      5866.15       1.3857817     0.043144538
      5872.01       1.3867419     0.043320539
      5877.89       1.3942080     0.043488258
      5883.76       1.3557492     0.043648737
      5889.65       1.3811909     0.043805152
      5895.54       1.3429339     0.043717048
      5901.43       1.3406406     0.043877007
      5907.34       1.3141132     0.044034514
      5913.24       1.3038345     0.044185020
      5919.16       1.3212239     0.044331124
      5925.08       1.3106944     0.044471529
      5931.00       1.2741344     0.044612049
      5936.93       1.3008517     0.044752581
      5942.87       1.2978082     0.044885686
      5948.81       1.2655506     0.045014981
      5954.76       1.2387258     0.045151422
      5960.72       1.2371617     0.045036748
      5966.68       1.2503883     0.045176528
      5972.64       1.2314283     0.045309245
      5978.62       1.2224937     0.045448135
      5984.60       1.2018097     0.045593382
      5990.58       1.2002750     0.045741478
      5996.57       1.1531760     0.045891929
      6002.57       1.1106916     0.045789673
      6008.57       1.0348960     0.045942332
      6014.58      0.96540027     0.046401325
      6020.60      0.90340806     0.046549749
      6026.62      0.88733743     0.046699956
      6032.65      0.86507304     0.046849173
      6038.68      0.80703530     0.046740074
      6044.72      0.78073556     0.046890110
      6050.76      0.80163283     0.047038311
      6056.81      0.79190036     0.047187530
      6062.87      0.84366233     0.047336066
      6068.93      0.91190288     0.047484128
      6075.00      0.90809590     0.047359093
      6081.08      0.95005507     0.047810833
      6087.16      0.99001777     0.047953752
      6093.25       1.0156044     0.048096125
      6099.34       1.0380124     0.048238036
      6105.44       1.0720045     0.048107834
      6111.54       1.0957745     0.048242059
      6117.66       1.1021758     0.048377284
      6123.78       1.1100616     0.048513427
      6129.90       1.1097229     0.048696083
      6136.03       1.1425056     0.048825080
      6142.17       1.1435485     0.048952144
      6148.31       1.1554386     0.049080421
      6154.46       1.1620697     0.048941835
      6160.61       1.1608975     0.049069595
      6166.77       1.2693906     0.049508639
      6172.94       1.3622288     0.049642527
      6179.11       1.4541275     0.049525170
      6185.29       1.4992934     0.049650138
      6191.48       1.5071494     0.049766784
      6197.67       1.5531127     0.050215570
      6203.87       1.6020011     0.050112536
      6210.07       1.6167336     0.050303022
      6216.28       1.6671146     0.050516879
      6222.50       1.6941208     0.050475600
      6228.72       1.7226892     0.051026461
      6234.95       1.6937211     0.051241359
      6241.19       1.6925400     0.051158873
      6247.42       1.6630549     0.051312161
      6253.67       1.6411128     0.051758295
      6259.93       1.6132334     0.051838775
      6266.19       1.6255350     0.051575533
      6272.46       1.6324734     0.051584398
      6278.73       1.6138188     0.051582952
      6285.01       1.6350661     0.051597799
      6291.29       1.6304527     0.051623622
      6297.58       1.6074062     0.051674692
      6303.88       1.5985462     0.051733291
      6310.19       1.5658320     0.051755031
      6316.50       1.5610611     0.051509626
      6322.81       1.5455492     0.051558918
      6329.14       1.5310237     0.051910113
      6335.47       1.5321064     0.051671403
      6341.80       1.5452852     0.051724130
      6348.14       1.5334887     0.052081843
      6354.49       1.5232310     0.051848425
      6360.85       1.5277897     0.051906794
      6367.21       1.4997778     0.051675516
      6373.57       1.4893145     0.052044283
      6379.95       1.4743002     0.052104469
      6386.33       1.4894297     0.051867817
      6392.72       1.5049000     0.052241277
      6399.11       1.4713351     0.052024780
      6405.51       1.4261222     0.052101300
      6411.92       1.3863130     0.052227867
      6418.32       1.3606419     0.052303345
      6424.74       1.3443421     0.052372564
      6431.17       1.2911354     0.052466335
      6437.60       1.2574047     0.052522195
      6444.04       1.2551513     0.052599817
      6450.48       1.2445613     0.052627064
      6456.94       1.2384523     0.052356890
      6463.39       1.1959105     0.052664788
      6469.85       1.1764833     0.052370942
      6476.33       1.1816989     0.052370820
      6482.80       1.1762133     0.052372736
      6489.28       1.1794075     0.052374958
      6495.77       1.2159455     0.052384842
      6502.27       1.1915664     0.052379125
      6508.77       1.1613542     0.052371688
      6515.28       1.1487154     0.052343532
      6521.80       1.1060816     0.052022334
      6528.32       1.0347729     0.052287509
      6534.85       1.0401411     0.051970078
      6541.38       1.0299217     0.051930720
      6547.92       1.0357699     0.051887015
      6554.47       1.0081519     0.051838693
      6561.03       1.0236307     0.051803778
      6567.59       1.0436438     0.051761931
      6574.16       1.0371347     0.051729141
      6580.73       1.0387670     0.051684142
      6587.31       1.0381803     0.051646723
      6593.90       1.0821446     0.051596857
      6600.50       1.1007822     0.051549842
      6607.10       1.1075360     0.051492824
      6613.70       1.1246913     0.051157437
      6620.32       1.1315119     0.051089124
      6626.94       1.1035394     0.051033469
      6633.57       1.0684663     0.050955898
      6640.20       1.0680443     0.050893746
      6646.84       1.0536750     0.050805158
      6653.49       1.0267789     0.050444156
      6660.14       1.0450639     0.050637705
      6666.80       1.0311814     0.050267060
      6673.47       1.0024609     0.050453272
      6680.14      0.96539034     0.050343353
      6686.82      0.95974177     0.049965209
      6693.51      0.95021414     0.050129840
      6700.20      0.95625418     0.049741442
      6706.90      0.96716347     0.049899157
      6713.61      0.97556256     0.049500016
      6720.32      0.97579291     0.049367223
      6727.05      0.98093944     0.049241924
      6733.77      0.97434753     0.049095769
      6740.51      0.98251153     0.048691462
      6747.25      0.98314517     0.048814585
      6754.00      0.95019174     0.048734115
      6760.75      0.94802229     0.048531731
      6767.51      0.96367099     0.048698345
      6774.28      0.95751503     0.048217735
      6781.05      0.97151553     0.048102609
      6787.84      0.97121983     0.048183141
      6794.62      0.94909076     0.048446301
      6801.42      0.91147837     0.048880587
      6808.22      0.88324176     0.049146455
      6815.03      0.87780084     0.049919341
      6821.85      0.86450914     0.050479679
      6828.67      0.86992955     0.050573446
      6835.50      0.85209445     0.051035506
      6842.33      0.84202320     0.050649227
      6849.17      0.83612380     0.050270984
      6856.02      0.85387240     0.049619160
      6862.88      0.87767883     0.048944699
      6869.74      0.88027773     0.048039336
      6876.61      0.87920811     0.047162382
      6883.49      0.90761105     0.046251666
      6890.37      0.92497025     0.045968928
      6897.27      0.93546094     0.045369424
      6904.16      0.96063708     0.044540970
      6911.07       1.0064200     0.043992471
      6917.98       1.0220655     0.043800283
      6924.89       1.0348248     0.043153320
      6931.82       1.0233407     0.042712356
      6938.75       1.0262061     0.042303529
      6945.69       1.0281466     0.041737446
      6952.64       1.0316749     0.041624209
      6959.59       1.0344018     0.041257160
      6966.55       1.0204831     0.040885138
      6973.52       1.0352749     0.040314440
      6980.49       1.0695413     0.039739442
      6987.47       1.1038332     0.038908513
      6994.46       1.1825024     0.038084954
      7001.46       1.1849229     0.037501633
      7008.46       1.2035688     0.036710611
      7015.46       1.2306358     0.035937788
      7022.48       1.2525741     0.035386146
      7029.51       1.2996035     0.034630850
      7036.53       1.3346588     0.033784852
      7043.57       1.3670942     0.033108808
      7050.62       1.4012944     0.032636164
      7057.66       1.4175932     0.031975651
      7064.72       1.4284112     0.031306691
      7071.79       1.4420521     0.030648883
      7078.86       1.4236051     0.030177652
      7085.94       1.4094914     0.029614186
      7093.03       1.4196497     0.029149137
      7100.12       1.4319279     0.028730177
      7107.22       1.4430334     0.028273913
      7114.33       1.4503877     0.027822413
      7121.44       1.4505680     0.027287642
      7128.56       1.4616476     0.026734801
      7135.69       1.4591893     0.026156452
      7142.83       1.4814331     0.025543192
      7149.97       1.5002652     0.024912633
      7157.12       1.5276604     0.024259829
      7164.28       1.5691669     0.023725330
      7171.44       1.5836621     0.023019500
      7178.62       1.6047119     0.022301526
      7185.80       1.6551438     0.021617304
      7192.98       1.6585383     0.020948698
      7200.17       1.6674019     0.020278080
      7207.38       1.6915546     0.019580062
      7214.58       1.7242574     0.018905519
      7221.80       1.7323635     0.018243811
      7229.02       1.7285242     0.017607599
      7236.25       1.7158732     0.017003375
      7243.49       1.7232253     0.016541351
      7250.73       1.7306245     0.016477070
      7257.98       1.7290811     0.016561577
      7265.24       1.7256857     0.016699337
      7272.51       1.7214344     0.016901378
      7279.78       1.7099075     0.017187417
      7287.06       1.6934061     0.017583996
      7294.35       1.6760134     0.018132168
      7301.64       1.6637860     0.018896006
      7308.94       1.6453234     0.019957372
      7316.25       1.6287383     0.021402551
      7323.57       1.6037035     0.023322818
      7330.89       1.5799616     0.025798349
      7338.22       1.5461480     0.028952958
      7345.56       1.5175181     0.032958082
      7352.91       1.4949392     0.038000529
      7360.26       1.4700182     0.044324940
