# starting wavelength =        3460.8000
# ending wavelength =        7359.8000
# O2 telluric scale =        0
# O2 telluric shift =        0
# H2O telluric scale =        0
# H2O telluric shift =        0
      3464.04      0.79504070     0.030304942
      3467.51      0.79359324     0.025817558
      3470.98      0.78984811     0.022251990
      3474.45      0.78204785     0.018920222
      3477.92      0.77178806     0.016841484
      3481.40      0.76414905     0.015221794
      3484.88      0.75450687     0.013968135
      3488.37      0.74964771     0.013185086
      3491.86      0.74477477     0.012380942
      3495.35      0.74449982     0.011756666
      3498.84      0.74806638     0.011267336
      3502.34      0.74757705     0.010879046
      3505.84      0.74267848     0.010487195
      3509.35      0.73836383     0.010238048
      3512.86      0.73426459     0.010030686
      3516.37      0.73191404    0.0098554113
      3519.89      0.72805307    0.0096567860
      3523.41      0.72300123    0.0095198301
      3526.93      0.71928764    0.0094997011
      3530.46      0.71760737    0.0094807698
      3533.99      0.72068728    0.0094561906
      3537.53      0.72250831    0.0094369013
      3541.06      0.72139989    0.0094696348
      3544.60      0.72367213    0.0095020016
      3548.15      0.72891987    0.0094253954
      3551.70      0.73840148    0.0094581339
      3555.25      0.75399794    0.0094390370
      3558.80      0.76442492    0.0094736155
      3562.36      0.79241038    0.0094471730
      3565.92      0.80309306    0.0094291327
      3569.49      0.81892952    0.0094623101
      3573.06      0.83508939    0.0094974567
      3576.64      0.84879544    0.0094183502
      3580.21      0.85335823    0.0094530126
      3583.79      0.85952624    0.0094357451
      3587.38      0.86178574    0.0094087437
      3590.96      0.86051139    0.0094442148
      3594.55      0.85633339    0.0094247215
      3598.15      0.85889866    0.0094617028
      3601.75      0.85530924    0.0094353519
      3605.35      0.85585236    0.0094171452
      3608.96      0.85226288    0.0094527328
      3612.56      0.85105200    0.0094909286
      3616.18      0.84055214    0.0094083737
      3619.79      0.83443388    0.0094461950
      3623.41      0.82105814    0.0094834942
      3627.04      0.80647449    0.0094016009
      3630.66      0.79622334    0.0094388649
      3634.29      0.78951603    0.0094781631
      3637.93      0.78321129    0.0093943504
      3641.57      0.77654545    0.0094333802
      3645.21      0.77902328    0.0094724162
      3648.86      0.78561057    0.0094531358
      3652.50      0.79506448    0.0094275908
      3656.16      0.81132461    0.0094681852
      3659.81      0.83457153    0.0095089969
      3663.47      0.85747159    0.0094233369
      3667.14      0.88212385    0.0094638641
      3670.80      0.90856334    0.0095064979
      3674.48      0.92669602    0.0094188208
      3678.15      0.94268020    0.0094614679
      3681.83      0.95791851    0.0095033269
      3685.51      0.96067222    0.0094792658
      3689.20      0.95785375    0.0094580174
      3692.88      0.95427716    0.0095032002
      3696.58      0.94147869    0.0094764169
      3700.27      0.92430568    0.0095217723
      3703.98      0.90539820    0.0095009532
      3707.68      0.87219823    0.0094758231
      3711.39      0.83985953    0.0095212916
      3715.10      0.80080037    0.0095679393
      3718.81      0.75649892    0.0094758523
      3722.53      0.71122829    0.0095217922
      3726.26      0.66484135    0.0095705456
      3729.98      0.61445705    0.0095438879
      3733.71      0.57508432    0.0095249713
      3737.45      0.53076377    0.0095720766
      3741.18      0.49230555    0.0095471259
      3744.93      0.45887180    0.0095968382
      3748.67      0.43158563    0.0095793772
      3752.42      0.40687086    0.0095507189
      3756.17      0.38837276    0.0096008275
      3759.93      0.37240401    0.0096550358
      3763.69      0.36107118    0.0096275459
      3767.45      0.35002552    0.0096093417
      3771.22      0.34309327    0.0095811415
      3774.99      0.34074851    0.0096342868
      3778.77      0.34496146    0.0096903708
      3782.54      0.35152028    0.0096631210
      3786.33      0.35845200    0.0097206014
      3790.11      0.36860095    0.0096980856
      3793.90      0.37794373    0.0096720216
      3797.70      0.38934039    0.0097308799
      3801.50      0.40468073    0.0097036562
      3805.30      0.41929383    0.0097639097
      3809.10      0.43947249    0.0097408450
      3812.91      0.45704227    0.0097148232
      3816.73      0.48082257    0.0097769164
      3820.54      0.50750662    0.0098377797
      3824.36      0.53972074    0.0098122299
      3828.19      0.57360376    0.0098768267
      3832.02      0.60607630    0.0098497955
      3835.85      0.64726666    0.0098296484
      3839.68      0.69113358    0.0098928513
      3843.52      0.74311014    0.0098662485
      3847.37      0.79004986    0.0099361932
      3851.22      0.84942171    0.0099077131
      3855.07      0.90415397    0.0098895680
      3858.92      0.96082219    0.0098591431
      3862.78       1.0222267    0.0098316287
      3866.64       1.0783242    0.0098124595
      3870.51       1.1422209    0.0097831592
      3874.38       1.2028470    0.0097558058
      3878.26       1.2573435    0.0097366523
      3882.13       1.3116426    0.0097074802
      3886.02       1.3584163    0.0095917409
      3889.90       1.3991978    0.0096609369
      3893.79       1.4412571    0.0096322548
      3897.69       1.4875103    0.0095171063
      3901.59       1.5258303    0.0094925467
      3905.49       1.5541827    0.0095575245
      3909.39       1.5804409    0.0094433640
      3913.30       1.6087448    0.0094183950
      3917.22       1.6300229    0.0094833869
      3921.13       1.6466998    0.0093695656
      3925.06       1.6607684    0.0093447425
      3928.98       1.6685364    0.0093215683
      3932.91       1.6779018    0.0092967383
      3936.84       1.6855717    0.0092712758
      3940.78       1.6891980    0.0092476965
      3944.72       1.6991725    0.0092239476
      3948.67       1.7013781    0.0091983671
      3952.61       1.7070185    0.0091742422
      3956.57       1.7101271    0.0090670643
      3960.52       1.7110685    0.0091259321
      3964.48       1.7178700    0.0091012737
      3968.45       1.7282925    0.0089966102
      3972.42       1.7443859    0.0089701684
      3976.39       1.7487800    0.0090290357
      3980.37       1.7531685    0.0090048798
      3984.35       1.7517482    0.0089001455
      3988.33       1.7496568    0.0088743314
      3992.32       1.7440535    0.0089328388
      3996.31       1.7317427    0.0088311625
      4000.31       1.7155996    0.0088047830
      4004.31       1.6922360    0.0087794421
      4008.31       1.6666113    0.0088374213
      4012.32       1.6372186    0.0087363767
      4016.33       1.6050691    0.0087102608
      4020.35       1.5708877    0.0086851069
      4024.37       1.5369216    0.0085845126
      4028.40       1.5028573    0.0086426532
      4032.42       1.4664399    0.0086167774
      4036.46       1.4362748    0.0085916459
      4040.50       1.4125497    0.0084918946
      4044.54       1.3912185    0.0084687920
      4048.58       1.3738330    0.0085241841
      4052.63       1.3657513    0.0084990944
      4056.68       1.3532615    0.0084001364
      4060.74       1.3438112    0.0083768144
      4064.80       1.3340620    0.0083540423
      4068.86       1.3246177    0.0084075218
      4072.93       1.3076429    0.0083090966
      4077.01       1.2926681    0.0082854712
      4081.08       1.2732440    0.0082623921
      4085.17       1.2545935    0.0082400744
      4089.25       1.2341119    0.0081455084
      4093.34       1.2142558    0.0081953739
      4097.43       1.1945246    0.0081720266
      4101.53       1.1762086    0.0081491300
      4105.63       1.1591844    0.0081267554
      4109.74       1.1479976    0.0080338144
      4113.85       1.1351353    0.0080103103
      4117.96       1.1219688    0.0080595896
      4122.08       1.1173125    0.0080368016
      4126.20       1.1123061    0.0080143197
      4130.33       1.1073055    0.0079238718
      4134.46       1.0978655    0.0079002006
      4138.59       1.0897105    0.0078771050
      4142.73       1.0807212    0.0078543265
      4146.88       1.0716648    0.0079029870
      4151.02       1.0594104    0.0078158667
      4155.18       1.0489884    0.0077921085
      4159.33       1.0404334    0.0077688472
      4163.49       1.0375928    0.0077457362
      4167.65       1.0360415    0.0077232312
      4171.82       1.0411659    0.0077007614
      4175.99       1.0510344    0.0076136704
      4180.17       1.0618372    0.0075919737
      4184.35       1.0730416    0.0076397576
      4188.54       1.0883740    0.0076167542
      4192.72       1.1008840    0.0075942956
      4196.92       1.1141467    0.0075719926
      4201.11       1.1270781    0.0074858866
      4205.31       1.1322939    0.0074641810
      4209.52       1.1333708    0.0074426764
      4213.73       1.1333749    0.0074214207
      4217.94       1.1265693    0.0074001384
      4222.16       1.1203094    0.0073793698
      4226.38       1.1081213    0.0073584036
      4230.61       1.0987139    0.0073387415
      4234.84       1.0860636    0.0073169755
      4239.08       1.0760479    0.0072957222
      4243.32       1.0702592    0.0072743627
      4247.56       1.0646858    0.0072532536
      4251.81       1.0630631    0.0072323473
      4256.06       1.0627359    0.0072113730
      4260.32       1.0631822    0.0071906039
      4264.58       1.0630030    0.0071114140
      4268.84       1.0672676    0.0070902586
      4273.11       1.0702006    0.0070690545
      4277.38       1.0751642    0.0070481469
      4281.66       1.0836524    0.0070271906
      4285.94       1.0928803    0.0070064837
      4290.23       1.1005892    0.0069858260
      4294.52       1.1068181    0.0069651787
      4298.81       1.1088336    0.0069448334
      4303.11       1.1091996    0.0069242341
      4307.42       1.1034762    0.0069040966
      4311.72       1.0954543    0.0068837609
      4316.04       1.0844991    0.0068075600
      4320.35       1.0734904    0.0067875539
      4324.67       1.0594696    0.0067676502
      4329.00       1.0432569    0.0067477680
      4333.33       1.0232579    0.0067279220
      4337.66       1.0029445    0.0067083182
      4342.00      0.97828269    0.0066886112
      4346.34      0.95365145    0.0066689689
      4350.69      0.93021189    0.0066492303
      4355.04      0.90682350    0.0066297406
      4359.39      0.88768684    0.0066102501
      4363.75      0.87290172    0.0065907669
      4368.12      0.86014401    0.0065713788
      4372.48      0.84705725    0.0065518529
      4376.86      0.83642343    0.0065325619
      4381.23      0.82515835    0.0065131791
      4385.61      0.81666709    0.0064940119
      4390.00      0.80907594    0.0064747302
      4394.39      0.80460691    0.0064555181
      4398.79      0.80317188    0.0064363948
      4403.18      0.80626187    0.0064171699
      4407.59      0.81130134    0.0063981884
      4412.00      0.82218017    0.0063791249
      4416.41      0.83483946    0.0063601515
      4420.82      0.85114849    0.0063411757
      4425.25      0.86813847    0.0063223084
      4429.67      0.89235055    0.0063034789
      4434.10      0.91814815    0.0062847077
      4438.54      0.94665768    0.0062660661
      4442.97      0.97714730    0.0061946146
      4447.42       1.0078871    0.0061761604
      4451.86       1.0401492    0.0061578156
      4456.32       1.0734673    0.0061395847
      4460.77       1.1090728    0.0061212197
      4465.24       1.1417819    0.0061033764
      4469.70       1.1766275    0.0060853420
      4474.17       1.2099637    0.0060673779
      4478.65       1.2397810    0.0060495604
      4483.12       1.2695291    0.0060318369
      4487.61       1.2991746    0.0060142748
      4492.09       1.3231104    0.0059454993
      4496.59       1.3487584    0.0059276898
      4501.08       1.3720570    0.0059098076
      4505.58       1.3954592    0.0058921231
      4510.09       1.4179799    0.0058745162
      4514.60       1.4430747    0.0058571020
      4519.12       1.4663014    0.0058397744
      4523.63       1.4903929    0.0058224886
      4528.16       1.5135330    0.0057578480
      4532.69       1.5343535    0.0057859450
      4537.22       1.5569442    0.0057683998
      4541.76       1.5814870    0.0057509169
      4546.30       1.6006610    0.0057335157
      4550.85       1.6205625    0.0057163677
      4555.40       1.6371497    0.0056993449
      4559.95       1.6490705    0.0056359585
      4564.51       1.6556251    0.0056193946
      4569.08       1.6608774    0.0056030484
      4573.65       1.6618941    0.0055868545
      4578.22       1.6574374    0.0055708143
      4582.80       1.6527388    0.0055957847
      4587.38       1.6469081    0.0055333071
      4591.97       1.6430842    0.0055169344
      4596.56       1.6363527    0.0055007268
      4601.16       1.6298819    0.0054847134
      4605.76       1.6219617    0.0054690961
      4610.37       1.6126273    0.0054076041
      4614.98       1.6023552    0.0053914007
      4619.59       1.5913282    0.0054166117
      4624.21       1.5807185    0.0054006617
      4628.84       1.5669416    0.0053851245
      4633.47       1.5540713    0.0053255791
      4638.10       1.5415679    0.0053094392
      4642.74       1.5246328    0.0052935279
      4647.38       1.5057300    0.0052778318
      4652.03       1.4855336    0.0053029216
      4656.68       1.4646302    0.0052447727
      4661.34       1.4431171    0.0052287675
      4666.00       1.4205241    0.0052130282
      4670.67       1.4023813    0.0051975431
      4675.33       1.3844330    0.0051412053
      4680.01       1.3665419    0.0051651052
      4684.69       1.3505792    0.0051493448
      4689.38       1.3349939    0.0051338970
      4694.07       1.3214979    0.0051187458
      4698.76       1.3095048    0.0050634149
      4703.46       1.2960280    0.0050491425
      4708.16       1.2852059    0.0050712149
      4712.87       1.2686658    0.0050159190
      4717.58       1.2496013    0.0050013134
      4722.30       1.2284154    0.0049872319
      4727.03       1.2018761    0.0049734696
      4731.75       1.1704831    0.0049546257
      4736.48       1.1375689    0.0049403435
      4741.22       1.1007870    0.0049263194
      4745.96       1.0637776    0.0049128748
      4750.71       1.0233223    0.0048943469
      4755.46      0.99024925    0.0048801779
      4760.22      0.96349104    0.0048665941
      4764.97      0.93997177    0.0048134689
      4769.74      0.92305762    0.0047992556
      4774.51      0.91318523    0.0048211142
      4779.29      0.91259934    0.0047693963
      4784.07      0.91911602    0.0047550920
      4788.85      0.92842452    0.0047412379
      4793.64      0.94434734    0.0047630581
      4798.43      0.95954514    0.0047114941
      4803.23      0.96806750    0.0046976025
      4808.03      0.97613973    0.0046842560
      4812.84      0.98065845    0.0046685299
      4817.66      0.98006629    0.0046545322
      4822.48      0.97349712    0.0046411665
      4827.30      0.96230539    0.0046259924
      4832.12      0.94989880    0.0046120632
      4836.96      0.93674406    0.0045987216
      4841.79      0.92492889    0.0045505967
      4846.63      0.91434528    0.0045700883
      4851.48      0.90885218    0.0045215835
      4856.33      0.90851075    0.0045091164
      4861.19      0.91163049    0.0045285950
      4866.05      0.92203669    0.0044806100
      4870.92      0.93736966    0.0044682002
      4875.79      0.95991490    0.0044565242
      4880.66      0.98864418    0.0044401382
      4885.55       1.0179490    0.0044279475
      4890.43       1.0507820    0.0043811153
      4895.32       1.0864567    0.0044001443
      4900.22       1.1251397    0.0043883569
      4905.12       1.1633835    0.0043417476
      4910.02       1.2008266    0.0043608368
      4914.94       1.2346709    0.0043492732
      4919.85       1.2671996    0.0043028778
      4924.77       1.2952703    0.0043219423
      4929.70       1.3172159    0.0042766420
      4934.62       1.3330234    0.0042645292
      4939.56       1.3401503    0.0042510112
      4944.50       1.3382350    0.0042385290
      4949.44       1.3276945    0.0042267973
      4954.39       1.3056163    0.0042129717
      4959.35       1.2774791    0.0042010237
      4964.31       1.2396070    0.0041879662
      4969.27       1.2010983    0.0041756325
      4974.24       1.1561779    0.0041330280
      4979.22       1.1088893    0.0041507721
      4984.20       1.0673452    0.0041390904
      4989.18       1.0286808    0.0040973516
      4994.17      0.99558157    0.0041142136
      4999.16      0.96714282    0.0040724711
      5004.16      0.94698264    0.0040897940
      5009.17      0.93668885    0.0040479761
      5014.18      0.93343712    0.0040378509
      5019.19      0.94165959    0.0040239142
      5024.21      0.95375918    0.0040135419
      5029.23      0.97302501    0.0040001218
      5034.26      0.99196969    0.0039897125
      5039.30       1.0141163    0.0039489148
      5044.34       1.0391939    0.0039661462
      5049.39       1.0642289    0.0039258675
      5054.43       1.0886495    0.0039428188
      5059.49       1.1108522    0.0039030855
      5064.55       1.1298987    0.0039198367
      5069.61       1.1453081    0.0038803964
      5074.68       1.1590335    0.0038970734
      5079.76       1.1686677    0.0038580398
      5084.84       1.1776926    0.0038475396
      5089.92       1.1847037    0.0038359235
      5095.01       1.1893690    0.0038254357
      5100.11       1.1919727    0.0038139254
      5105.21       1.1953046    0.0038036379
      5110.31       1.1952724    0.0037922463
      5115.42       1.1957907    0.0037820105
      5120.54       1.1923348    0.0037707476
      5125.66       1.1903297    0.0037606187
      5130.79       1.1892683    0.0037494742
      5135.92       1.1922127    0.0037123669
      5141.05       1.1967161    0.0037283732
      5146.20       1.2027368    0.0036916250
      5151.34       1.2107126    0.0037075856
      5156.49       1.2183456    0.0036712123
      5161.65       1.2283879    0.0036869968
      5166.81       1.2398075    0.0036510344
      5171.98       1.2533410    0.0036399855
      5177.15       1.2686136    0.0036311083
      5182.33       1.2890737    0.0036200679
      5187.51       1.3100519    0.0036114764
      5192.70       1.3304247    0.0036003892
      5197.89       1.3503625    0.0035922023
      5203.09       1.3702119    0.0035810235
      5208.29       1.3863763    0.0035463807
      5213.50       1.4020594    0.0035619870
      5218.72       1.4152318    0.0035273835
      5223.93       1.4284786    0.0035176922
      5229.16       1.4410481    0.0035086690
      5234.39       1.4520411    0.0034988410
      5239.62       1.4636594    0.0035141662
      5244.86       1.4732836    0.0034803073
      5250.11       1.4802856    0.0034709882
      5255.36       1.4843230    0.0034621515
      5260.61       1.4864860    0.0034526703
      5265.87       1.4880757    0.0034200872
      5271.14       1.4875369    0.0034347061
      5276.41       1.4880143    0.0034028203
      5281.69       1.4860444    0.0033930877
      5286.97       1.4848273    0.0034079319
      5292.26       1.4800450    0.0033760973
      5297.55       1.4758471    0.0033667281
      5302.85       1.4692485    0.0033596363
      5308.15       1.4611389    0.0033500348
      5313.46       1.4486209    0.0033409673
      5318.77       1.4365778    0.0033338367
      5324.09       1.4269578    0.0033245562
      5329.42       1.4168036    0.0032937599
      5334.75       1.4079771    0.0033086415
      5340.08       1.4001839    0.0032996453
      5345.42       1.3914890    0.0032692208
      5350.77       1.3839451    0.0032840925
      5356.12       1.3755490    0.0032752812
      5361.48       1.3683836    0.0032452095
      5366.83       1.3647933    0.0032601212
      5372.20       1.3615707    0.0032515222
      5377.58       1.3633661    0.0032217198
      5382.95       1.3661714    0.0032139358
      5388.34       1.3699626    0.0032068612
      5393.72       1.3733751    0.0031988111
      5399.12       1.3772339    0.0031910972
      5404.52       1.3780607    0.0031626374
      5409.92       1.3789189    0.0031764301
      5415.33       1.3773595    0.0031687793
      5420.75       1.3762935    0.0031408960
      5426.17       1.3766702    0.0031331147
      5431.60       1.3724896    0.0031470438
      5437.03       1.3642740    0.0031398210
      5442.47       1.3548508    0.0031120944
      5447.91       1.3463248    0.0031046546
      5453.36       1.3358849    0.0031187109
      5458.81       1.3252504    0.0030917640
      5464.27       1.3147840    0.0030843605
      5469.73       1.3055568    0.0030772090
      5475.20       1.2966090    0.0030504133
      5480.68       1.2883502    0.0030647959
      5486.16       1.2785533    0.0030576473
      5491.65       1.2702582    0.0030507640
      5497.14       1.2613202    0.0030243481
      5502.64       1.2550421    0.0030179463
      5508.14       1.2486827    0.0030319578
      5513.65       1.2446404    0.0030253262
      5519.16       1.2418832    0.0029992173
      5524.68       1.2409140    0.0029929746
      5530.20       1.2381468    0.0029869172
      5535.73       1.2336401    0.0030008995
      5541.27       1.2278278    0.0029750807
      5546.81       1.2218586    0.0029690122
      5552.36       1.2149361    0.0029631006
      5557.91       1.2028331    0.0029573767
      5563.47       1.1872649    0.0029325832
      5569.04       1.1689516    0.0029266897
      5574.60       1.1471783    0.0029403369
      5580.18       1.1205228    0.0029347030
      5585.76       1.0895402    0.0029292200
      5591.35       1.0549211    0.0029051092
      5596.94       1.0170859    0.0028994930
      5602.53      0.97437521    0.0028939818
      5608.14      0.93561366    0.0028886411
      5613.75      0.89912858    0.0028834238
      5619.36      0.87102314    0.0028793235
      5624.98      0.84751435    0.0028739365
      5630.60      0.83147956    0.0028686696
      5636.23      0.82253026    0.0028635649
      5641.87      0.82159023    0.0028585463
      5647.51      0.82271862    0.0028354605
      5653.16      0.82702958    0.0028306480
      5658.82      0.83624455    0.0028259803
      5664.47      0.84703053    0.0028214187
      5670.14      0.86106839    0.0028169371
      5675.81      0.87841835    0.0028125394
      5681.48      0.89518233    0.0028261596
      5687.17      0.90953696    0.0028036019
      5692.85      0.92255696    0.0027991730
      5698.55      0.93186628    0.0027948390
      5704.25      0.93907117    0.0027906055
      5709.95      0.94553554    0.0027864976
      5715.66      0.95492200    0.0027824278
      5721.38      0.96495494    0.0027784322
      5727.10      0.97765013    0.0027572935
      5732.83      0.99268391    0.0027533210
      5738.56       1.0085176    0.0027493926
      5744.30       1.0257354    0.0027455266
      5750.04       1.0401203    0.0027417852
      5755.79       1.0525045    0.0027380829
      5761.55       1.0635642    0.0027344617
      5767.31       1.0739319    0.0027309249
      5773.08       1.0848316    0.0027276418
      5778.85       1.0951530    0.0027245848
      5784.63       1.1081433    0.0027215965
      5790.41       1.1149881    0.0027013673
      5796.21       1.1188682    0.0026984822
      5802.00       1.1212726    0.0026959025
      5807.81       1.1219457    0.0026940956
      5813.61       1.1230417    0.0026931783
      5819.43       1.1240270    0.0026926449
      5825.25       1.1256226    0.0026921362
      5831.07       1.1278491    0.0026919815
      5836.90       1.1316677    0.0026921744
      5842.74       1.1349261    0.0026918902
      5848.58       1.1359474    0.0026906311
      5854.43       1.1387883    0.0026888445
      5860.29       1.1410244    0.0026867537
      5866.15       1.1448155    0.0026843664
      5872.01       1.1467111    0.0026815267
      5877.89       1.1508141    0.0026784877
      5883.76       1.1566183    0.0026591526
      5889.65       1.1618774    0.0026565458
      5895.54       1.1646948    0.0026539012
      5901.43       1.1625950    0.0026509482
      5907.34       1.1584793    0.0026477504
      5913.24       1.1530210    0.0026443832
      5919.16       1.1491129    0.0026410636
      5925.08       1.1446471    0.0026378135
      5931.00       1.1386937    0.0026343111
      5936.93       1.1334671    0.0026306503
      5942.87       1.1285784    0.0026111251
      5948.81       1.1205842    0.0026084512
      5954.76       1.1125775    0.0026057517
      5960.72       1.1032243    0.0026028516
      5966.68       1.0956496    0.0026002637
      5972.64       1.0884606    0.0025981416
      5978.62       1.0837482    0.0025963294
      5984.60       1.0783951    0.0025947194
      5990.58       1.0741163    0.0025777869
      5996.57       1.0693583    0.0025765639
      6002.57       1.0645716    0.0025912750
      6008.57       1.0573089    0.0025900220
      6014.58       1.0517779    0.0025888753
      6020.60       1.0463814    0.0025878424
      6026.62       1.0424189    0.0025715803
      6032.65       1.0414492    0.0025707845
      6038.68       1.0403477    0.0025701099
      6044.72       1.0399993    0.0025694731
      6050.76       1.0425853    0.0025689590
      6056.81       1.0435411    0.0025685520
      6062.87       1.0446888    0.0025524496
      6068.93       1.0502773    0.0025675829
      6075.00       1.0557728    0.0025671795
      6081.08       1.0632706    0.0025669174
      6087.16       1.0688103    0.0025667742
      6093.25       1.0756304    0.0025512834
      6099.34       1.0767792    0.0025510040
      6105.44       1.0744535    0.0025508455
      6111.54       1.0695654    0.0025665102
      6117.66       1.0590978    0.0025517066
      6123.78       1.0457959    0.0025515649
      6129.90       1.0294159    0.0025515561
      6136.03       1.0113954    0.0025516522
      6142.17      0.98927060    0.0025372596
      6148.31      0.96710575    0.0025376959
      6154.46      0.94424613    0.0025534244
      6160.61      0.91994586    0.0025543567
      6166.77      0.89643547    0.0025418902
      6172.94      0.87492825    0.0025427464
      6179.11      0.85812132    0.0025432041
      6185.29      0.84792189    0.0025599078
      6191.48      0.83986758    0.0025487708
      6197.67      0.83548761    0.0025533337
      6203.87      0.83261339    0.0025592279
      6210.07      0.83540719    0.0025518666
      6216.28      0.83912214    0.0025744378
      6222.50      0.84543668    0.0025808227
      6228.72      0.85354979    0.0025718848
      6234.95      0.86122334    0.0025754298
      6241.19      0.87290527    0.0025933857
      6247.42      0.88579183    0.0025935657
      6253.67      0.89863380    0.0025763834
      6259.93      0.91026517    0.0025733803
      6266.19      0.92217148    0.0025851197
      6272.46      0.93397684    0.0025666981
      6278.73      0.94321425    0.0025648515
      6285.01      0.95564115    0.0025644909
      6291.29      0.96797940    0.0025641614
      6297.58      0.97881116    0.0025626982
      6303.88      0.98965656    0.0025479880
      6310.19      0.99879069    0.0025482698
      6316.50       1.0071453    0.0025633693
      6322.81       1.0150636    0.0025495418
      6329.14       1.0195371    0.0025505049
      6335.47       1.0215768    0.0025664643
      6341.80       1.0222483    0.0025534779
      6348.14       1.0191066    0.0025552195
      6354.49       1.0114211    0.0025427505
      6360.85       1.0040594    0.0025599722
      6367.21      0.99236191    0.0025623383
      6373.57      0.97743483    0.0025502167
      6379.95      0.96096820    0.0025682428
      6386.33      0.94353172    0.0025574949
      6392.72      0.92946194    0.0025613245
      6399.11      0.91750458    0.0025679189
      6405.51      0.90829618    0.0025721398
      6411.92      0.89996081    0.0025762198
      6418.32      0.89435060    0.0025818991
      6424.74      0.89233223    0.0025856897
      6431.17      0.89592740    0.0025911047
      6437.60      0.90021123    0.0025939057
      6444.04      0.90665947    0.0025824651
      6450.48      0.91497959    0.0025996748
      6456.94      0.92456565    0.0025874616
      6463.39      0.93466402    0.0025896060
      6469.85      0.94354982    0.0025926906
      6476.33      0.95099687    0.0025953757
      6482.80      0.95881195    0.0025993509
      6489.28      0.96353870    0.0026020837
      6495.77      0.96908747    0.0026049020
      6502.27      0.97277177    0.0026077825
      6508.77      0.97551381    0.0026102120
      6515.28      0.97990409    0.0026133502
      6521.80      0.98243727    0.0026020752
      6528.32      0.98401852    0.0026043497
      6534.85      0.98409946    0.0026076787
      6541.38      0.98411197    0.0026098641
      6547.92      0.98471647    0.0026141774
      6554.47      0.98457357    0.0026171467
      6561.03      0.98292681    0.0026221511
      6567.59      0.98202378    0.0026253792
      6574.16      0.98084901    0.0026307268
      6580.73      0.98000324    0.0026341826
      6587.31      0.98134822    0.0026396396
      6593.90      0.98143837    0.0026431885
      6600.50      0.98254638    0.0026335418
      6607.10      0.98296854    0.0026387321
      6613.70      0.98240935    0.0026430033
      6620.32      0.98254883    0.0026483096
      6626.94      0.98147529    0.0026527590
      6633.57      0.98015552    0.0026581065
      6640.20      0.97755438    0.0026485023
      6646.84      0.97384836    0.0026681520
      6653.49      0.97034856    0.0026584983
      6660.14      0.96399740    0.0026784103
      6666.80      0.95930043    0.0026842307
      6673.47      0.95492395    0.0026748804
      6680.14      0.94773634    0.0026947643
      6686.82      0.94063702    0.0026853461
      6693.51      0.93246124    0.0027055574
      6700.20      0.92520882    0.0026960516
      6706.90      0.91953217    0.0027025585
      6713.61      0.91521164    0.0027070171
      6720.32      0.90798488    0.0027135038
      6727.05      0.89986266    0.0027045682
      6733.77      0.89097901    0.0027250758
      6740.51      0.88131542    0.0027355463
      6747.25      0.87265950    0.0027373483
      6754.00      0.86287857    0.0027618278
      6760.75      0.85345462    0.0027506047
      6767.51      0.84412873    0.0027605123
      6774.28      0.83435411    0.0027781603
      6781.05      0.82669920    0.0028100253
      6787.84      0.81977086    0.0028528234
      6794.62      0.81430556    0.0028935348
      6801.42      0.81042039    0.0029489974
      6808.22      0.80699651    0.0030048158
      6815.03      0.80480458    0.0030328711
      6821.85      0.80014030    0.0030847947
      6828.67      0.79592655    0.0030869216
      6835.50      0.79336156    0.0030926045
      6842.33      0.78870140    0.0030806915
      6849.17      0.78360478    0.0030604143
      6856.02      0.77898332    0.0030295811
      6862.88      0.77831149    0.0029991395
      6869.74      0.77724202    0.0029643161
      6876.61      0.77601396    0.0029709681
      6883.49      0.77473685    0.0029604656
      6890.37      0.77151926    0.0029300998
      6897.27      0.77643686    0.0029208661
      6904.16      0.77838832    0.0029335979
      6911.07      0.78066624    0.0029162147
      6917.98      0.78344322    0.0029155184
      6924.89      0.78809783    0.0029174807
      6931.82      0.79304676    0.0029063829
      6938.75      0.79783834    0.0029270198
      6945.69      0.79838917    0.0029343834
      6952.64      0.79891616    0.0029420120
      6959.59      0.80091581    0.0029325256
      6966.55      0.80242974    0.0029384363
      6973.52      0.80335416    0.0029272596
      6980.49      0.80569503    0.0029016383
      6987.47      0.80988571    0.0028907677
      6994.46      0.81460894    0.0028676392
      7001.46      0.81740985    0.0028458502
      7008.46      0.81787755    0.0028374003
      7015.46      0.81950220    0.0028166478
      7022.48      0.82083575    0.0027973261
      7029.51      0.82257598    0.0027676843
      7036.53      0.82623456    0.0027649868
      7043.57      0.83272537    0.0027510949
      7050.62      0.83093123    0.0027370302
      7057.66      0.82486189    0.0027238309
      7064.72      0.81701217    0.0027228340
      7071.79      0.80684586    0.0027170987
      7078.86      0.80059880    0.0027192995
      7085.94      0.79657933    0.0027271140
      7093.03      0.79200621    0.0027351755
      7100.12      0.78831839    0.0027353988
      7107.22      0.78419654    0.0027401006
      7114.33      0.78185086    0.0027438949
      7121.44      0.78015393    0.0027464529
      7128.56      0.77695869    0.0027464089
      7135.69      0.77699911    0.0027447262
      7142.83      0.77714844    0.0027494532
      7149.97      0.77676468    0.0027434745
      7157.12      0.77506780    0.0027347840
      7164.28      0.77452928    0.0027240045
      7171.44      0.77467658    0.0027122502
      7178.62      0.77653141    0.0026996909
      7185.80      0.77718860    0.0026864265
      7192.98      0.78196923    0.0026725001
      7200.17      0.78571050    0.0026487943
      7207.38      0.78957354    0.0026427547
      7214.58      0.79295469    0.0026286506
      7221.80      0.79751699    0.0026153708
      7229.02      0.80127648    0.0026022490
      7236.25      0.80248395    0.0025883432
      7243.49      0.80386456    0.0026064817
      7250.73      0.80433020    0.0026451975
      7257.98      0.80279837    0.0026899329
      7265.24      0.80156602    0.0027429440
      7272.51      0.80007310    0.0028074607
      7279.78      0.79922413    0.0028885264
      7287.06      0.80246306    0.0029945553
      7294.35      0.80574979    0.0031360959
      7301.64      0.80918413    0.0033242877
      7308.94      0.81254970    0.0035718544
      7316.25      0.81340237    0.0038940063
      7323.57      0.81511266    0.0043106719
      7330.89      0.81666514    0.0048503686
      7338.22      0.81749379    0.0055435696
      7345.56      0.81784824    0.0064278530
      7352.91      0.81844122    0.0075476950
