# starting wavelength =        3412.2900
# ending wavelength =        7256.7400
# O2 telluric scale =        0
# O2 telluric shift =        0
# H2O telluric scale =        0
# H2O telluric shift =        0
      3412.49      0.26746339      0.17934270
      3415.91      0.21643039      0.15117681
      3419.32      0.23007242      0.12874886
      3422.74      0.22178994      0.10766945
      3426.17      0.23995656     0.094481146
      3429.59      0.27636958     0.084151892
      3433.02      0.31840235     0.076122443
      3436.45      0.37517079     0.071064430
      3439.89      0.39377825     0.065946816
      3443.33      0.39504177     0.061968214
      3446.78      0.39644741     0.058863622
      3450.22      0.42084813     0.056420418
      3453.67      0.34297308     0.054010387
      3457.13      0.31707192     0.052474120
      3460.58      0.29349886     0.051202244
      3464.04      0.27024281     0.050134905
      3467.51      0.27440276     0.048992555
      3470.98      0.29978834     0.048165241
      3474.45      0.29670663     0.047446744
      3477.92      0.28494235     0.047257410
      3481.40      0.30062564     0.046768572
      3484.88      0.31908015     0.046808412
      3488.37      0.31589184     0.046853193
      3491.86      0.31165523     0.046674160
      3495.35      0.30145852     0.046406367
      3498.84      0.26858859     0.046226904
      3502.34      0.23951494     0.046268891
      3505.84      0.24845879     0.046319891
      3509.35      0.20118289     0.045824838
      3512.86      0.17154244     0.045873407
      3516.37      0.12573230     0.045925493
      3519.89      0.11782786     0.045740751
      3523.41      0.15487246     0.045484702
      3526.93      0.15178573     0.045298690
      3530.46      0.16492485     0.045354919
      3533.99      0.20362751     0.045406531
      3537.53      0.22548320     0.044914246
      3541.06      0.30853154     0.044966901
      3544.60      0.33708869     0.045025545
      3548.15      0.34900168     0.044851537
      3551.70      0.37972274     0.044585842
      3555.25      0.39319207     0.044646053
      3558.80      0.40802935     0.044462676
      3562.36      0.39084835     0.044210044
      3565.92      0.36713449     0.044269422
      3569.49      0.39175693     0.044094409
      3573.06      0.36107557     0.044152305
      3576.64      0.36938846     0.043901903
      3580.21      0.40524031     0.043717165
      3583.79      0.44630532     0.043788511
      3587.38      0.48858217     0.043530486
      3590.96      0.48787343     0.043355913
      3594.55      0.53595036     0.043419769
      3598.15      0.52546214     0.043173168
      3601.75      0.52502151     0.042988408
      3605.35      0.50374479     0.043063911
      3608.96      0.49072253     0.043133047
      3612.56      0.47193028     0.042888197
      3616.18      0.47541177     0.042703840
      3619.79      0.46750503     0.042787228
      3623.41      0.44694201     0.042530768
      3627.04      0.43484326     0.042357747
      3630.66      0.43650899     0.042429845
      3634.29      0.42861353     0.042185376
      3637.93      0.42391230     0.042265846
      3641.57      0.42001139     0.042095881
      3645.21      0.43271303     0.041838804
      3648.86      0.39742029     0.041924465
      3652.50      0.37068021     0.041745322
      3656.16      0.34767792     0.041499449
      3659.81      0.35256978     0.041589681
      3663.47      0.31570150     0.041678980
      3667.14      0.28872150     0.041166648
      3670.80      0.29144559     0.041252833
      3674.48      0.26314087     0.041354528
      3678.15      0.27020112     0.041102833
      3681.83      0.28947517     0.041204821
      3685.51      0.27881990     0.041022920
      3689.20      0.27181841     0.040779156
      3692.88      0.27563573     0.040882017
      3696.58      0.24641327     0.040985706
      3700.27      0.23221833     0.040462079
      3703.98      0.21822828     0.040561735
      3707.68      0.19686600     0.040680868
      3711.39      0.17388713     0.040429263
      3715.10      0.15527731     0.040543952
      3718.81      0.13412559     0.040011119
      3722.53      0.10427486     0.040119523
      3726.26      0.10280147     0.040243365
      3729.98      0.10390590     0.039995260
      3733.71     0.097221975     0.040119973
      3737.45     0.092929305     0.039939109
      3741.18     0.086993446     0.039695957
      3744.93      0.10954887     0.039826256
      3748.67      0.12008597     0.039579143
      3752.42     0.086326594     0.039713241
      3756.17      0.10072917     0.039849245
      3759.93     0.086239911     0.039290938
      3763.69     0.098198729     0.039431874
      3767.45     0.098419357     0.039562093
      3771.22     0.088688717     0.039323900
      3774.99     0.089361147     0.039473015
      3778.77     0.062115990     0.039229462
      3782.54     0.048528806     0.039060368
      3786.33     0.026604930     0.039196808
      3790.11     0.043461562     0.038956710
      3793.90     0.070671028     0.039120692
      3797.70     0.081372010     0.038874751
      3801.50     0.090833975     0.038714381
      3805.30      0.10460049     0.038460934
      3809.10      0.10781947     0.038218402
      3812.91      0.11384177     0.038056273
      3816.73      0.14478676     0.037808684
      3820.54      0.16378100     0.037573193
      3824.36      0.16238802     0.037411173
      3828.19      0.16715912     0.037166920
      3832.02      0.17441625     0.036615121
      3835.85      0.19411281     0.036772512
      3839.68      0.19001346     0.036534177
      3843.52      0.18703732     0.035992619
      3847.37      0.18056091     0.035772211
      3851.22      0.18229512     0.035909232
      3855.07      0.18186058     0.035374676
      3858.92      0.19924690     0.035157739
      3862.78      0.24899157     0.035295019
      3866.64      0.28710382     0.034768352
      3870.51      0.32198589     0.034551349
      3874.38      0.33105502     0.034686334
      3878.26      0.35425643     0.034166629
      3882.13      0.39210184     0.033952978
      3886.02      0.42903161     0.033746568
      3889.90      0.46337959     0.033577196
      3893.79      0.49789435     0.033362675
      3897.69      0.53046437     0.033156079
      3901.59      0.55597782     0.032666975
      3905.49      0.57099556     0.032782989
      3909.39      0.60405836     0.032577297
      3913.30      0.60699494     0.032101417
      3917.22      0.61873755     0.031890649
      3921.13      0.62896580     0.032003873
      3925.06      0.64961369     0.031544005
      3928.98      0.65893507     0.031335293
      3932.91      0.68674105     0.031130645
      3936.84      0.70134447     0.031240638
      3940.78      0.73906973     0.030786584
      3944.72      0.76611200     0.030582668
      3948.67      0.78274890     0.030385223
      3952.61      0.80501403     0.030252570
      3956.57      0.81976011     0.030048298
      3960.52      0.83165180     0.029848178
      3964.48      0.83233148     0.029653292
      3968.45      0.83714361     0.029524279
      3972.42      0.83236391     0.029325487
      3976.39      0.83157115     0.029129871
      3980.37      0.84189357     0.028937277
      3984.35      0.84762692     0.028513265
      3988.33      0.84958903     0.028615902
      3992.32      0.87125957     0.028424996
      3996.31      0.88368384     0.028004872
      4000.31      0.91391397     0.027820765
      4004.31      0.93962408     0.027640516
      4008.31      0.98022963     0.027734242
      4012.32       1.0122677     0.027550058
      4016.33       1.0631697     0.027144010
      4020.35       1.0978504     0.026966270
      4024.37       1.1100978     0.026790592
      4028.40       1.1266772     0.026618909
      4032.42       1.1385810     0.026480879
      4036.46       1.1451164     0.026305934
      4040.50       1.1382498     0.026132797
      4044.54       1.1355279     0.025961434
      4048.58       1.1054348     0.025583901
      4052.63       1.0778175     0.025412867
      4056.68       1.0515007     0.025489771
      4060.74       1.0147611     0.025321159
      4064.80      0.99807062     0.025154095
      4068.86      0.95235199     0.024790349
      4072.93      0.90839049     0.024623213
      4077.01      0.87955407     0.024458777
      4081.08      0.85976569     0.024295766
      4085.17      0.83572824     0.024369415
      4089.25      0.81377613     0.024021742
      4093.34      0.79582175     0.023857491
      4097.43      0.77801952     0.023696912
      4101.53      0.75364044     0.023537463
      4105.63      0.74946975     0.023379215
      4109.74      0.74505962     0.023222138
      4113.85      0.74206217     0.023116998
      4117.96      0.72394314     0.022959541
      4122.08      0.71626153     0.022803652
      4126.20      0.69759196     0.022648810
      4130.33      0.70362068     0.022495030
      4134.46      0.70832201     0.022343148
      4138.59      0.70429997     0.022019601
      4142.73      0.69796600     0.021872994
      4146.88      0.69774879     0.021727227
      4151.02      0.71917022     0.021582320
      4155.18      0.71693500     0.021644891
      4159.33      0.71218279     0.021498416
      4163.49      0.70409513     0.021185839
      4167.65      0.69601812     0.021043004
      4171.82      0.68080697     0.020900980
      4175.99      0.67102302     0.020759700
      4180.17      0.65234569     0.020621397
      4184.35      0.63530996     0.020484041
      4188.54      0.61682746     0.020347335
      4192.72      0.59800740     0.020211358
      4196.92      0.58027829     0.019921581
      4201.11      0.57909906     0.019786668
      4205.31      0.56126538     0.019653631
      4209.52      0.55109577     0.019521213
      4213.73      0.54649398     0.019389478
      4217.94      0.53930871     0.019258428
      4222.16      0.54304833     0.019129080
      4226.38      0.56672536     0.019181084
      4230.61      0.57789829     0.019052897
      4234.84      0.56138665     0.018925194
      4239.08      0.56501986     0.018661876
      4243.32      0.57225979     0.018535428
      4247.56      0.56990197     0.018410835
      4251.81      0.57810928     0.018286740
      4256.06      0.57669417     0.018163258
      4260.32      0.56912662     0.018040387
      4264.58      0.56373190     0.017918849
      4268.84      0.55770562     0.017799502
      4273.11      0.55539042     0.017680588
      4277.38      0.54328596     0.017562216
      4281.66      0.53656617     0.017444397
      4285.94      0.51780403     0.017327429
      4290.23      0.50909935     0.017212763
      4294.52      0.50816063     0.017098479
      4298.81      0.50416656     0.016984669
      4303.11      0.50425210     0.016871364
      4307.42      0.50242489     0.016632273
      4311.72      0.48766794     0.016522544
      4316.04      0.47754538     0.016413255
      4320.35      0.47317526     0.016304509
      4324.67      0.46713755     0.016196321
      4329.00      0.45823367     0.016089389
      4333.33      0.45855898     0.015839041
      4337.66      0.44957087     0.015735070
      4342.00      0.45656361     0.015631713
      4346.34      0.46124985     0.015528990
      4350.69      0.45940141     0.015427401
      4355.04      0.46004797     0.015327172
      4359.39      0.46279177     0.015227495
      4363.75      0.48228659     0.015128435
      4368.12      0.49951134     0.015030006
      4372.48      0.51571975     0.014932722
      4376.86      0.52476920     0.014836753
      4381.23      0.53907009     0.014741336
      4385.61      0.54053843     0.014646544
      4390.00      0.54443206     0.014552386
      4394.39      0.55425927     0.014459644
      4398.79      0.55825433     0.014368066
      4403.18      0.55810118     0.014143423
      4407.59      0.55618815     0.014052785
      4412.00      0.55597953     0.013962788
      4416.41      0.55106909     0.013874165
      4420.82      0.54109791     0.013786670
      4425.25      0.52771536     0.013801097
      4429.67      0.51664504     0.013714207
      4434.10      0.49900571     0.013627959
      4438.54      0.49151274     0.013543474
      4442.97      0.48735093     0.013459755
      4447.42      0.48637688     0.013256924
      4451.86      0.48894204     0.013173710
      4456.32      0.48808369     0.013091403
      4460.77      0.48901705     0.013010477
      4465.24      0.49759856     0.012930394
      4469.70      0.51214802     0.012851053
      4474.17      0.53408478     0.012772473
      4478.65      0.54736987     0.012694963
      4483.12      0.55022988     0.012508765
      4487.61      0.56963164     0.012434185
      4492.09      0.59085371     0.012449368
      4496.59      0.62344375     0.012373874
      4501.08      0.64523544     0.012299617
      4505.58      0.67301235     0.012226459
      4510.09      0.70085842     0.012048548
      4514.60      0.72583135     0.011977883
      4519.12      0.74787322     0.011908098
      4523.63      0.76994081     0.011839683
      4528.16      0.79585682     0.011772477
      4532.69      0.81966042     0.011706146
      4537.22      0.85821874     0.011617680
      4541.76      0.88058284     0.011551232
      4546.30      0.89532112     0.011486032
      4550.85      0.91813805     0.011422024
      4555.40      0.94049036     0.011358955
      4559.95      0.95029829     0.011197072
      4564.51      0.96143763     0.011134453
      4569.08      0.96905582     0.011072864
      4573.65      0.99699326     0.011092472
      4578.22       1.0240832     0.011032722
      4582.80       1.0553284     0.010879427
      4587.38       1.0884412     0.010820053
      4591.97       1.1325825     0.010761789
      4596.56       1.1640552     0.010704727
      4601.16       1.1954544     0.010726420
      4605.76       1.2332502     0.010580222
      4610.37       1.2672100     0.010524198
      4614.98       1.3005559     0.010469578
      4619.59       1.3325684     0.010416063
      4624.21       1.3388287     0.010277507
      4628.84       1.3297324     0.010299569
      4633.47       1.3249367     0.010247139
      4638.10       1.3215101     0.010196098
      4642.74       1.3066278     0.010062150
      4647.38       1.2910075     0.010014121
      4652.03       1.2672703     0.010036909
      4656.68       1.2328256    0.0099881837
      4661.34       1.2080682    0.0098587581
      4666.00       1.1764255    0.0098131100
      4670.67       1.1559349    0.0097688791
      4675.33       1.1275347    0.0097113068
      4680.01       1.1147254    0.0096671636
      4684.69       1.0989437    0.0096243074
      4689.38       1.0909566    0.0095827668
      4694.07       1.0948439    0.0094609603
      4698.76       1.1007006    0.0094872253
      4703.46       1.0938483    0.0094471560
      4708.16       1.0843633    0.0093301989
      4712.87       1.0604350    0.0092904116
      4717.58       1.0484018    0.0093186680
      4722.30       1.0429301    0.0092814057
      4727.03       1.0365226    0.0091679140
      4731.75       1.0259942    0.0091307709
      4736.48       1.0140095    0.0091613468
      4741.22      0.99247482    0.0090521767
      4745.96      0.96442305    0.0090166705
      4750.71      0.94387218    0.0089826470
      4755.46      0.92031215    0.0089430378
      4760.22      0.89498185    0.0089090280
      4764.97      0.86183073    0.0088764675
      4769.74      0.83730982    0.0087763637
      4774.51      0.80861716    0.0088072535
      4779.29      0.78574765    0.0087766460
      4784.07      0.75840866    0.0086791430
      4788.85      0.72572392    0.0087118746
      4793.64      0.69008741    0.0086151807
      4798.43      0.65685017    0.0085882389
      4803.23      0.62022768    0.0086223767
      4808.03      0.58894927    0.0085284273
      4812.84      0.56711812    0.0085031713
      4817.66      0.54736634    0.0084795802
      4822.48      0.53360363    0.0084476621
      4827.30      0.52623531    0.0084241553
      4832.12      0.51838541    0.0083355453
      4836.96      0.51894384    0.0083724534
      4841.79      0.52658244    0.0083512043
      4846.63      0.53103577    0.0082646779
      4851.48      0.53948301    0.0083032305
      4856.33      0.54996263    0.0082199973
      4861.19      0.55472947    0.0081992387
      4866.05      0.56690963    0.0082398900
      4870.92      0.57534926    0.0081581411
      4875.79      0.58232080    0.0081394953
      4880.66      0.59352444    0.0081202621
      4885.55      0.60589802    0.0081020661
      4890.43      0.61811564    0.0080856092
      4895.32      0.61418792    0.0080673648
      4900.22      0.62287686    0.0080512794
      4905.12      0.63309861    0.0080358803
      4910.02      0.65308396    0.0080202060
      4914.94      0.67801687    0.0079478032
      4919.85      0.70669114    0.0079916255
      4924.77      0.73476386    0.0079203540
      4929.70      0.77815543    0.0079094303
      4934.62      0.82069482    0.0079532003
      4939.56      0.86353786    0.0078847741
      4944.50      0.91220885    0.0079304860
      4949.44      0.96492565    0.0078632501
      4954.39       1.0174411    0.0078553726
      4959.35       1.0710269    0.0078438306
      4964.31       1.1170518    0.0078365856
      4969.27       1.1759836    0.0078273367
      4974.24       1.2240008    0.0078207972
      4979.22       1.2661225    0.0078129995
      4984.20       1.2960621    0.0078070729
      4989.18       1.3028621    0.0077446988
      4994.17       1.3093076    0.0077962252
      4999.16       1.3127861    0.0077350937
      5004.16       1.3012030    0.0077871570
      5009.17       1.2714062    0.0077274975
      5014.18       1.2343277    0.0077807673
      5019.19       1.1825515    0.0077224242
      5024.21       1.1389576    0.0077763264
      5029.23       1.0735461    0.0077192499
      5034.26       1.0163582    0.0077172134
      5039.30      0.95466258    0.0077184859
      5044.34      0.91365892    0.0077170277
      5049.39      0.86674111    0.0077194744
      5054.43      0.83286430    0.0076666493
      5059.49      0.81507703    0.0077229495
      5064.55      0.80593767    0.0076708542
      5069.61      0.80286765    0.0077278354
      5074.68      0.80823417    0.0076771369
      5079.76      0.81508592    0.0077352360
      5084.84      0.82084746    0.0076854913
      5089.92      0.83873741    0.0077441961
      5095.01      0.86240472    0.0076958351
      5100.11      0.86558373    0.0077033481
      5105.21      0.87700330    0.0077084654
      5110.31      0.88963541    0.0077162788
      5115.42      0.89496351    0.0077226681
      5120.54      0.90401282    0.0077317543
      5125.66      0.89959089    0.0076861652
      5130.79      0.89204089    0.0077487303
      5135.92      0.89663278    0.0077033519
      5141.05      0.89773348    0.0077679719
      5146.20      0.89596072    0.0077230556
      5151.34      0.89923423    0.0077369001
      5156.49      0.90138869    0.0077441071
      5161.65      0.89636811    0.0077588208
      5166.81      0.89148357    0.0078254173
      5171.98      0.88928851    0.0077824592
      5177.15      0.89034939    0.0077990961
      5182.33      0.88721073    0.0078080767
      5187.51      0.88412395    0.0078253166
      5192.70      0.88085677    0.0077854191
      5197.89      0.87420277    0.0078528653
      5203.09      0.88388055    0.0078721726
      5208.29      0.89193830    0.0078829808
      5213.50      0.89148897    0.0079022409
      5218.72      0.89995369    0.0078640115
      5223.93      0.90675070    0.0079341039
      5229.16      0.92283739    0.0078981257
      5234.39      0.94749112    0.0079175810
      5239.62      0.96413660    0.0079891745
      5244.86      0.98876320    0.0079534148
      5250.11       1.0140178    0.0079746872
      5255.36       1.0448052    0.0079388405
      5260.61       1.0800971    0.0080126648
      5265.87       1.1031777    0.0080351805
      5271.14       1.1327782    0.0080003077
      5276.41       1.1687542    0.0080757367
      5281.69       1.1893320    0.0080993339
      5286.97       1.2226979    0.0080649453
      5292.26       1.2501743    0.0081420444
      5297.55       1.2709371    0.0081670350
      5302.85       1.2943224    0.0081328935
      5308.15       1.3100954    0.0081600433
      5313.46       1.3267574    0.0081770392
      5318.77       1.3463473    0.0082041192
      5324.09       1.3662375    0.0082321235
      5329.42       1.3792955    0.0082500979
      5334.75       1.3911033    0.0082782105
      5340.08       1.3942480    0.0083072185
      5345.42       1.4034008    0.0082758524
      5350.77       1.4144899    0.0083550393
      5356.12       1.4287131    0.0083849379
      5361.48       1.4304982    0.0083549647
      5366.83       1.4190566    0.0083839529
      5372.20       1.4165044    0.0084138794
      5377.58       1.4077061    0.0084967037
      5382.95       1.3853928    0.0084666333
      5388.34       1.3726357    0.0084970864
      5393.72       1.3468477    0.0085285925
      5399.12       1.3203351    0.0085522861
      5404.52       1.2939829    0.0085834034
      5409.92       1.2586228    0.0086151250
      5415.33       1.2445029    0.0086476989
      5420.75       1.2320106    0.0086183692
      5426.17       1.2182846    0.0087046001
      5431.60       1.2120110    0.0087373291
      5437.03       1.2161963    0.0087073237
      5442.47       1.2240122    0.0087415764
      5447.91       1.2468500    0.0087763271
      5453.36       1.2792046    0.0088638205
      5458.81       1.3075954    0.0088336550
      5464.27       1.3404991    0.0088686964
      5469.73       1.3765995    0.0089041961
      5475.20       1.4164249    0.0089400649
      5480.68       1.4337185    0.0089114367
      5486.16       1.4614237    0.0089995592
      5491.65       1.4846865    0.0090355626
      5497.14       1.5014126    0.0090718467
      5502.64       1.5040456    0.0091088841
      5508.14       1.4989468    0.0090807148
      5513.65       1.4839444    0.0091168814
      5519.16       1.4733415    0.0091533063
      5524.68       1.4552046    0.0091904850
      5530.20       1.4281838    0.0092824747
      5535.73       1.4031502    0.0092549782
      5541.27       1.3744525    0.0092916771
      5546.81       1.3469470    0.0093290657
      5552.36       1.3193965    0.0093668435
      5557.91       1.3012986    0.0094047739
      5563.47       1.2748185    0.0093759249
      5569.04       1.2619920    0.0094143288
      5574.60       1.2402486    0.0094530839
      5580.18       1.2192687    0.0095475270
      5585.76       1.1887028    0.0095857214
      5591.35       1.1645868    0.0096245085
      5596.94       1.1281996    0.0095948344
      5602.53       1.0959903    0.0096336000
      5608.14       1.0532156    0.0096725532
      5613.75       1.0029552    0.0097119195
      5619.36      0.95087133    0.0097514315
      5624.98      0.90007838    0.0097909339
      5630.60      0.84698625    0.0098306278
      5636.23      0.79094817    0.0098013937
      5641.87      0.73813587    0.0098404962
      5647.51      0.68463614    0.0098795889
      5653.16      0.63591273    0.0099189081
      5658.82      0.59854128    0.0099585188
      5664.47      0.56535649    0.0099980700
      5670.14      0.53190302     0.010037741
      5675.81      0.50926806     0.010077422
      5681.48      0.49181383     0.010117311
      5687.17      0.48224160     0.010086823
      5692.85      0.48403136     0.010126700
      5698.55      0.49565745     0.010166907
      5704.25      0.51156150     0.010207905
      5709.95      0.54239779     0.010248780
      5715.66      0.59286699     0.010289288
      5721.38      0.63817105     0.010330146
      5727.10      0.69021052     0.010372304
      5732.83      0.73829668     0.010417139
      5738.56      0.78408580     0.010464960
      5744.30      0.84032277     0.010514009
      5750.04      0.88422964     0.010563252
      5755.79      0.92915788     0.010613764
      5761.55      0.97947355     0.010665208
      5767.31       1.0263953     0.010714683
      5773.08       1.0638118     0.010760265
      5778.85       1.1055206     0.010803583
      5784.63       1.1443619     0.010845322
      5790.41       1.1812160     0.010885235
      5796.21       1.2224265     0.010850343
      5802.00       1.2669690     0.010887270
      5807.81       1.3043731     0.010924237
      5813.61       1.3401340     0.010962042
      5819.43       1.3736248     0.010999639
      5825.25       1.4185924     0.011035782
      5831.07       1.4521280     0.011005040
      5836.90       1.4786475     0.011037519
      5842.74       1.5011356     0.011143896
      5848.58       1.5255726     0.011176258
      5854.43       1.5436232     0.011207056
      5860.29       1.5486448     0.011236549
      5866.15       1.5583008     0.011268075
      5872.01       1.5584266     0.011301534
      5877.89       1.5571089     0.011334451
      5883.76       1.5503202     0.011365943
      5889.65       1.5500107     0.011334237
      5895.54       1.5449310     0.011367449
      5901.43       1.5392453     0.011401670
      5907.34       1.5431240     0.011436250
      5913.24       1.5414937     0.011470889
      5919.16       1.5315648     0.011506357
      5925.08       1.5260868     0.011541854
      5931.00       1.5239651     0.011513408
      5936.93       1.5254054     0.011548423
      5942.87       1.5237531     0.011583706
      5948.81       1.5240467     0.011619161
      5954.76       1.5295143     0.011728802
      5960.72       1.5297604     0.011763072
      5966.68       1.5223295     0.011731880
      5972.64       1.5087969     0.011766029
      5978.62       1.4988936     0.011799762
      5984.60       1.4786736     0.011833740
      5990.58       1.4547345     0.011867707
      5996.57       1.4353453     0.011833176
      6002.57       1.4199420     0.011865165
      6008.57       1.3939644     0.011974760
      6014.58       1.3668733     0.012007268
      6020.60       1.3409916     0.012039532
      6026.62       1.3007325     0.012003311
      6032.65       1.2767043     0.012033990
      6038.68       1.2548415     0.012064600
      6044.72       1.2311018     0.012094912
      6050.76       1.2158217     0.012136678
      6056.81       1.2029963     0.012165637
      6062.87       1.1987988     0.012194443
      6068.93       1.2048704     0.012223328
      6075.00       1.2000830     0.012186266
      6081.08       1.2034764     0.012218714
      6087.16       1.2060968     0.012329062
      6093.25       1.2129948     0.012358680
      6099.34       1.2082754     0.012317645
      6105.44       1.2026982     0.012349698
      6111.54       1.2002404     0.012388199
      6117.66       1.1855128     0.012444330
      6123.78       1.1789444     0.012494360
      6129.90       1.1669103     0.012547877
      6136.03       1.1541243     0.012602790
      6142.17       1.1384521     0.012586399
      6148.31       1.1404173     0.012713886
      6154.46       1.1497462     0.012752876
      6160.61       1.1588983     0.012709348
      6166.77       1.1809924     0.012727327
      6172.94       1.1978429     0.012815848
      6179.11       1.2259877     0.012742147
      6185.29       1.2472542     0.012739220
      6191.48       1.2625457     0.012737529
      6197.67       1.2888911     0.012746971
      6203.87       1.2931378     0.012757188
      6210.07       1.3031079     0.012764796
      6216.28       1.2993306     0.012698790
      6222.50       1.2894288     0.012782577
      6228.72       1.2730391     0.012721662
      6234.95       1.2500132     0.012732176
      6241.19       1.2290699     0.012818381
      6247.42       1.2018267     0.012758491
      6253.67       1.1742665     0.012770525
      6259.93       1.1474659     0.012783854
      6266.19       1.1268764     0.012799810
      6272.46       1.1139932     0.012813981
      6278.73       1.1037690     0.012756160
      6285.01       1.0996249     0.012845441
      6291.29       1.0941381     0.012859738
      6297.58       1.0872529     0.012801902
      6303.88       1.0760591     0.012894379
      6310.19       1.0720067     0.012843601
      6316.50       1.0695259     0.012864353
      6322.81       1.0639514     0.012893087
      6329.14       1.0610166     0.012908306
      6335.47       1.0527206     0.012924390
      6341.80       1.0479518     0.012945537
      6348.14       1.0378717     0.012956663
      6354.49       1.0251454     0.012895738
      6360.85       1.0232177     0.012974779
      6367.21       1.0218385     0.012905284
      6373.57       1.0237661     0.012979042
      6379.95       1.0262839     0.012906564
      6386.33       1.0203728     0.012907119
      6392.72       1.0263851     0.012908484
      6399.11       1.0260440     0.012910203
      6405.51       1.0224464     0.012911147
      6411.92       1.0127720     0.012907978
      6418.32      0.98875572     0.012831161
      6424.74      0.96147213     0.012897535
      6431.17      0.93607857     0.012818965
      6437.60      0.90334500     0.012886213
      6444.04      0.86476719     0.012806876
      6450.48      0.83430792     0.012868049
      6456.94      0.80850835     0.012786499
      6463.39      0.78829596     0.012777527
      6469.85      0.76808744     0.012771127
      6476.33      0.76226808     0.012762269
      6482.80      0.75933801     0.012755422
      6489.28      0.76715452     0.012746153
      6495.77      0.78749806     0.012737744
      6502.27      0.81161860     0.012726824
      6508.77      0.83597061     0.012716487
      6515.28      0.87579269     0.012634176
      6521.80      0.91206602     0.012691547
      6528.32      0.95169657     0.012608525
      6534.85      0.98813117     0.012664031
      6541.38       1.0206847     0.012579057
      6547.92       1.0579777     0.012562355
      6554.47       1.0937378     0.012546497
      6561.03       1.1175416     0.012526901
      6567.59       1.1485011     0.012509891
      6574.16       1.1819581     0.012488152
      6580.73       1.2109267     0.012399180
      6587.31       1.2350406     0.012445175
      6593.90       1.2570057     0.012354305
      6600.50       1.2780960     0.012398883
      6607.10       1.2876888     0.012305389
      6613.70       1.3090129     0.012278901
      6620.32       1.3199025     0.012253129
      6626.94       1.3221782     0.012223462
      6633.57       1.3233891     0.012129127
      6640.20       1.3230651     0.012164543
      6646.84       1.3214732     0.012133768
      6653.49       1.3129385     0.012056601
      6660.14       1.3012045     0.012127998
      6666.80       1.2944512     0.012064361
      6673.47       1.2821835     0.012006932
      6680.14       1.2790019     0.011984741
      6686.82       1.2718887     0.012009643
      6693.51       1.2709000     0.012083255
      6700.20       1.2665809     0.012172849
      6706.90       1.2678593     0.012314399
      6713.61       1.2555659     0.012472893
      6720.32       1.2562098     0.012542899
      6727.05       1.2449605     0.012715961
      6733.77       1.2338859     0.012700858
      6740.51       1.2246961     0.012694467
      6747.25       1.2151940     0.012700947
      6754.00       1.1974653     0.012491166
      6760.75       1.1809258     0.012298723
      6767.51       1.1613050     0.012083160
      6774.28       1.1363561     0.011909319
      6781.05       1.1058382     0.011726587
      6787.84       1.0719523     0.011593618
      6794.62       1.0425791     0.011407507
      6801.42       1.0148235     0.011325566
      6808.22      0.98927518     0.011197871
      6815.03      0.95674334     0.011041574
      6821.85      0.92667352     0.010937051
      6828.67      0.90178293     0.010839016
      6835.50      0.87653122     0.010765595
      6842.33      0.84831562     0.010680360
      6849.17      0.83370984     0.010600270
      6856.02      0.81013872     0.010474017
      6862.88      0.80224538     0.010395449
      6869.74      0.80560626     0.010374474
      6876.61      0.82371366     0.010177745
      6883.49      0.83566068     0.010041407
      6890.37      0.86453539    0.0098453374
      6897.27      0.88986579    0.0096536278
      6904.16      0.92219941    0.0095227332
      6911.07      0.94495339    0.0093023485
      6917.98      0.96994919    0.0091243342
      6924.89      0.99516497    0.0089497617
      6931.82       1.0157986    0.0088290431
      6938.75       1.0358932    0.0086693505
      6945.69       1.0513515    0.0085173791
      6952.64       1.0687804    0.0083651788
      6959.59       1.0818302    0.0082527448
      6966.55       1.0942374    0.0081007300
      6973.52       1.1081228    0.0079557126
      6980.49       1.1179967    0.0078019928
      6987.47       1.1245757    0.0077005151
      6994.46       1.1321096    0.0076453302
      7001.46       1.1384517    0.0075513592
      7008.46       1.1403177    0.0074453427
      7015.46       1.1388675    0.0073309625
      7022.48       1.1417350    0.0072122078
      7029.51       1.1407255    0.0071217793
      7036.53       1.1449553    0.0069880293
      7043.57       1.1386399    0.0068497222
      7050.62       1.1343777    0.0067058469
      7057.66       1.1340029    0.0065558143
      7064.72       1.1338145    0.0063850513
      7071.79       1.1273439    0.0062252477
      7078.86       1.1221768    0.0060641202
      7085.94       1.1162180    0.0059397218
      7093.03       1.1155106    0.0057854366
      7100.12       1.1152470    0.0056307389
      7107.22       1.1127787    0.0054739001
      7114.33       1.1126719    0.0053167374
      7121.44       1.1123719    0.0051623497
      7128.56       1.1129887    0.0050122761
      7135.69       1.1106099    0.0048680753
      7142.83       1.1105269    0.0048602988
      7149.97       1.1102095    0.0048914672
      7157.12       1.1109940    0.0049365412
      7164.28       1.1103194    0.0049984914
      7171.44       1.1128229    0.0050826601
      7178.62       1.1150804    0.0051968697
      7185.80       1.1170441    0.0053526632
      7192.98       1.1186111    0.0055684476
      7200.17       1.1216795    0.0058685447
      7207.38       1.1225951    0.0063607635
      7214.58       1.1236934    0.0069303247
      7221.80       1.1253021    0.0076648285
      7229.02       1.1256335    0.0085973763
      7236.25       1.1257360    0.0097787290
      7243.49       1.1254523     0.011266911
      7250.73       1.1237519     0.013128793
