# starting wavelength =        3423.0000
# ending wavelength =        7279.5200
# O2 telluric scale =        0
# O2 telluric shift =        0
# H2O telluric scale =        0
# H2O telluric shift =        0
      3426.17      0.69494520      0.25035590
      3429.59      0.59553103      0.21306238
      3433.02      0.55434526      0.18346698
      3436.45      0.51575964      0.15592256
      3439.89      0.46149518      0.13862241
      3443.33      0.43566166      0.12517190
      3446.78      0.45268729      0.11471758
      3450.22      0.48033513      0.10664771
      3453.67      0.44324211      0.10140163
      3457.13      0.46021409     0.096187565
      3460.58      0.52075527     0.092078335
      3464.04      0.51076632     0.088806666
      3467.51      0.52607424     0.085489606
      3470.98      0.57965175     0.083372772
      3474.45      0.61598676     0.081600293
      3477.92      0.63862638     0.080095229
      3481.40      0.67184206     0.078374097
      3484.88      0.67327477     0.077187310
      3488.37      0.68628048     0.076892478
      3491.86      0.71669141     0.076606855
      3495.35      0.72521009     0.076712426
      3498.84      0.75541809     0.075928599
      3502.34      0.79950247     0.076028438
      3505.84      0.81187092     0.076129192
      3509.35      0.81177387     0.075847099
      3512.86      0.83704680     0.075454394
      3516.37      0.80299556     0.075170513
      3519.89      0.79034459     0.075280663
      3523.41      0.76653536     0.075383835
      3526.93      0.72309230     0.074604302
      3530.46      0.70829884     0.074709356
      3533.99      0.66669554     0.074431062
      3537.53      0.62296343     0.074039831
      3541.06      0.63678414     0.074148971
      3544.60      0.64855565     0.073880080
      3548.15      0.61305369     0.073984174
      3551.70      0.61440668     0.073600185
      3555.25      0.53145718     0.073315199
      3558.80      0.46584793     0.073438985
      3562.36      0.50061411     0.073557649
      3565.92      0.54479887     0.072771489
      3569.49      0.54184764     0.072890066
      3573.06      0.50482608     0.073019040
      3576.64      0.48250266     0.072227509
      3580.21      0.47723024     0.072352743
      3583.79      0.45987688     0.072483794
      3587.38      0.47785188     0.072204842
      3590.96      0.49394879     0.071820155
      3594.55      0.50036352     0.071952876
      3598.15      0.50540467     0.071689702
      3601.75      0.53795003     0.071291820
      3605.35      0.53718941     0.071432299
      3608.96      0.51432277     0.071152596
      3612.56      0.52174983     0.070773374
      3616.18      0.53923456     0.070912801
      3619.79      0.55852226     0.070651103
      3623.41      0.54635657     0.070783644
      3627.04      0.55487317     0.070403346
      3630.66      0.56285106     0.070554261
      3634.29      0.55221796     0.070293807
      3637.93      0.57983748     0.069897248
      3641.57      0.60694675     0.070053380
      3645.21      0.60516553     0.069777944
      3648.86      0.72059872     0.069398009
      3652.50      0.73808252     0.069561358
      3656.16      0.73586446     0.069725020
      3659.81      0.67674615     0.068909839
      3663.47      0.66776623     0.069069615
      3667.14      0.71168926     0.069249200
      3670.80      0.67529333     0.068863084
      3674.48      0.65443782     0.068598529
      3678.15      0.62490398     0.068763111
      3681.83      0.62927036     0.068392165
      3685.51      0.69005781     0.068571258
      3689.20      0.71981488     0.068315280
      3692.88      0.78319404     0.067921534
      3696.58      0.81689458     0.068106289
      3700.27      0.89072830     0.068307921
      3703.98      0.90091951     0.067455073
      3707.68      0.91949695     0.067660296
      3711.39      0.94088836     0.067847790
      3715.10       1.0274948     0.067477766
      3718.81       1.0138513     0.067683803
      3722.53      0.99318646     0.067433326
      3726.26      0.95515655     0.067036466
      3729.98      0.94140319     0.067241580
      3733.71      0.90427068     0.066876918
      3737.45      0.85222972     0.067089390
      3741.18      0.81439060     0.066836041
      3744.93      0.69761743     0.066443697
      3748.67      0.53221906     0.066665293
      3752.42      0.42903279     0.066914217
      3756.17      0.36535549     0.066528914
      3759.93      0.27753499     0.066776350
      3763.69      0.21472670     0.065883648
      3767.45      0.17624915     0.066118478
      3771.22      0.13681646     0.066384559
      3774.99      0.13049583     0.065998906
      3778.77      0.14082352     0.066259198
      3782.54      0.14206747     0.066536927
      3786.33      0.14287940     0.065602939
      3790.11      0.15773814     0.065892731
      3793.90      0.19897659     0.065503929
      3797.70      0.23734300     0.065776379
      3801.50      0.25267792     0.066079766
      3805.30      0.24541629     0.065693387
      3809.10      0.28138215     0.065994534
      3812.91      0.25799736     0.065047555
      3816.73      0.23039762     0.064670192
      3820.54      0.18647724     0.064415213
      3824.36      0.19743725     0.064027487
      3828.19      0.17455245     0.063657644
      3832.02      0.19137166     0.063401419
      3835.85      0.20378887     0.063020877
      3839.68      0.21101336     0.062112231
      3843.52      0.22756319     0.062401687
      3847.37      0.19099741     0.062028318
      3851.22      0.20868005     0.061132853
      3855.07      0.19383530     0.061416611
      3858.92      0.17504709     0.061046222
      3862.78      0.18462368     0.060164184
      3866.64      0.17689548     0.059824576
      3870.51      0.23520472     0.060078018
      3874.38      0.27890560     0.059206526
      3878.26      0.26409643     0.058869457
      3882.13      0.28723798     0.059121471
      3886.02      0.28928626     0.058261366
      3889.90      0.34909580     0.057926415
      3893.79      0.38086117     0.057602811
      3897.69      0.45035842     0.057327504
      3901.59      0.49393478     0.056994259
      3905.49      0.56061885     0.056671629
      3909.39      0.65979476     0.056407436
      3913.30      0.73925233     0.056074438
      3917.22      0.81585740     0.055751401
      3921.13      0.83875472     0.054955153
      3925.06      0.88436917     0.055167657
      3928.98      0.89663643     0.054844831
      3932.91      0.91317720     0.054070818
      3936.84      0.90265925     0.053741212
      3940.78      0.89126651     0.053951072
      3944.72      0.91335169     0.053635691
      3948.67      0.88412058     0.052870743
      3952.61      0.88699579     0.052548782
      3956.57      0.89762103     0.052755033
      3960.52      0.91902770     0.052016624
      3964.48      0.93274294     0.051694175
      3968.45      0.91992368     0.051379282
      3972.42      0.94039302     0.051071831
      3976.39      0.94838205     0.050855795
      3980.37      0.97088748     0.050539807
      3984.35       1.0150084     0.050231050
      3988.33       1.0749164     0.049514429
      3992.32       1.1109451     0.049717772
      3996.31       1.1029180     0.049407725
      4000.31       1.0936972     0.049104073
      4004.31       1.1212598     0.048400217
      4008.31       1.1332785     0.048110650
      4012.32       1.1367722     0.048298190
      4016.33       1.1207547     0.047997623
      4020.35       1.1185025     0.047308157
      4024.37       1.1179770     0.047020771
      4028.40       1.1233542     0.046738869
      4032.42       1.1171913     0.046462252
      4036.46       1.1075775     0.046236629
      4040.50       1.0750527     0.045952576
      4044.54       1.0446268     0.045673169
      4048.58       1.0425246     0.045398170
      4052.63       1.0099753     0.045126887
      4056.68      0.99663420     0.044907376
      4060.74      0.97367608     0.044629260
      4064.80      0.97888686     0.044356386
      4068.86      0.94321684     0.044087147
      4072.93      0.89913758     0.043466437
      4077.01      0.88807973     0.043194204
      4081.08      0.89229106     0.042924991
      4085.17      0.87829288     0.043070773
      4089.25      0.88436965     0.042806665
      4093.34      0.87582502     0.042211308
      4097.43      0.88759911     0.041943153
      4101.53      0.90936629     0.041679343
      4105.63      0.91558277     0.041418630
      4109.74      0.90615882     0.041160671
      4113.85      0.91283907     0.040991123
      4117.96      0.92067887     0.040728350
      4122.08      0.95497386     0.040469548
      4126.20      0.98769836     0.040213388
      4130.33       1.0055611     0.039959977
      4134.46       1.0323367     0.039708494
      4138.59       1.0202468     0.039147495
      4142.73       1.0267248     0.038903151
      4146.88       1.0215506     0.038661884
      4151.02       1.0107529     0.038795619
      4155.18      0.99043798     0.038548598
      4159.33      0.96671692     0.038304737
      4163.49      0.96476786     0.038062914
      4167.65      0.97162165     0.037522745
      4171.82      0.94161855     0.037286885
      4175.99      0.92425356     0.037052806
      4180.17      0.91220626     0.036821353
      4184.35      0.88379748     0.036591171
      4188.54      0.84238365     0.036363563
      4192.72      0.83380507     0.036137312
      4196.92      0.83588464     0.035627224
      4201.11      0.85070932     0.035400467
      4205.31      0.85568879     0.035506439
      4209.52      0.86107809     0.035281878
      4213.73      0.85646892     0.035059259
      4217.94      0.85311228     0.034837819
      4222.16      0.85243754     0.034618699
      4226.38      0.84747832     0.034400948
      4230.61      0.82159989     0.034184517
      4234.84      0.79562342     0.033713915
      4239.08      0.80299249     0.033498066
      4243.32      0.80941403     0.033284352
      4247.56      0.79842889     0.033072272
      4251.81      0.79527713     0.032861776
      4256.06      0.78877194     0.032652692
      4260.32      0.79240030     0.032444879
      4264.58      0.78426120     0.032238397
      4268.84      0.76403285     0.032033644
      4273.11      0.75445597     0.031830295
      4277.38      0.74625312     0.031628365
      4281.66      0.76082009     0.031428262
      4285.94      0.75737081     0.030991262
      4290.23      0.76390061     0.030794633
      4294.52      0.76190279     0.030599473
      4298.81      0.77044163     0.030405921
      4303.11      0.77133908     0.030212954
      4307.42      0.77168787     0.030021625
      4311.72      0.76209848     0.029831550
      4316.04      0.75105550     0.029642600
      4320.35      0.76256352     0.029454657
      4324.67      0.76686444     0.029267952
      4329.00      0.76285173     0.029082475
      4333.33      0.76766427     0.028898268
      4337.66      0.76058516     0.028715584
      4342.00      0.75243847     0.028534148
      4346.34      0.72647107     0.028353335
      4350.69      0.70192794     0.028173848
      4355.04      0.66364769     0.027996195
      4359.39      0.63521983     0.027818825
      4363.75      0.61909888     0.027643206
      4368.12      0.59422321     0.027468915
      4372.48      0.56427864     0.027295798
      4376.86      0.54993197     0.027123246
      4381.23      0.52706744     0.026709251
      4385.61      0.52727511     0.026541231
      4390.00      0.53153763     0.026374493
      4394.39      0.52783108     0.026208812
      4398.79      0.54678831     0.026044386
      4403.18      0.56817486     0.025881160
      4407.59      0.60446614     0.025719363
      4412.00      0.65033672     0.025559136
      4416.41      0.66869141     0.025399708
      4420.82      0.70939199     0.025241432
      4425.25      0.75131258     0.025085084
      4429.67      0.78648587     0.024930030
      4434.10      0.79900064     0.024775824
      4438.54      0.80435211     0.024396389
      4442.97      0.80014495     0.024244243
      4447.42      0.80573080     0.024093395
      4451.86      0.81211072     0.023943820
      4456.32      0.80606276     0.023795410
      4460.77      0.81847117     0.023648426
      4465.24      0.81101277     0.023502904
      4469.70      0.80575033     0.023358619
      4474.17      0.81237971     0.023183688
      4478.65      0.79120610     0.023039408
      4483.12      0.79836690     0.022896595
      4487.61      0.81088848     0.022755087
      4492.09      0.83932477     0.022615002
      4496.59      0.86013788     0.022476329
      4501.08      0.85556161     0.022339538
      4505.58      0.87297198     0.022204220
      4510.09      0.89646935     0.021877381
      4514.60      0.89794927     0.021745934
      4519.12      0.89489483     0.021616433
      4523.63      0.89157107     0.021488500
      4528.16      0.89600977     0.021509263
      4532.69      0.91346587     0.021379231
      4537.22      0.94335854     0.021066216
      4541.76      0.95947081     0.020941112
      4546.30      0.97739703     0.020817627
      4550.85      0.98186891     0.020695348
      4555.40      0.97200582     0.020575175
      4559.95      0.97671904     0.020272605
      4564.51      0.97489392     0.020152868
      4569.08      0.99837166     0.020178462
      4573.65       1.0046023     0.020061219
      4578.22       1.0073135     0.019945500
      4582.80       1.0033451     0.019658480
      4587.38      0.98369377     0.019542929
      4591.97      0.97228465     0.019429463
      4596.56      0.95975291     0.019318094
      4601.16      0.93978167     0.019346767
      4605.76      0.94220476     0.019072173
      4610.37      0.94252017     0.018961622
      4614.98      0.95424751     0.018853238
      4619.59      0.97017515     0.018746421
      4624.21      0.98299598     0.018641573
      4628.84      0.99203592     0.018512766
      4633.47       1.0083999     0.018407289
      4638.10       1.0238488     0.018303893
      4642.74       1.0438258     0.018202520
      4647.38       1.0765251     0.017951124
      4652.03       1.0914183     0.017854734
      4656.68       1.1006421     0.017880216
      4661.34       1.0962325     0.017782402
      4666.00       1.0981713     0.017538432
      4670.67       1.1033946     0.017445675
      4675.33       1.0965421     0.017354909
      4680.01       1.0727487     0.017234076
      4684.69       1.0597358     0.017142804
      4689.38       1.0533235     0.017053989
      4694.07       1.0552869     0.016967117
      4698.76       1.0761265     0.016851977
      4703.46       1.0865274     0.016764665
      4708.16       1.0980379     0.016679686
      4712.87       1.1049334     0.016597155
      4717.58       1.1152490     0.016371431
      4722.30       1.1243224     0.016404115
      4727.03       1.1315847     0.016323274
      4731.75       1.1314185     0.016105975
      4736.48       1.1214597     0.016025437
      4741.22       1.1007457     0.016060365
      4745.96       1.0803634     0.015850583
      4750.71       1.0670787     0.015771931
      4755.46       1.0481255     0.015695711
      4760.22       1.0233335     0.015604368
      4764.97      0.98327135     0.015527888
      4769.74      0.94383724     0.015453987
      4774.51      0.91185830     0.015259173
      4779.29      0.88831315     0.015293463
      4784.07      0.86790265     0.015221927
      4788.85      0.85505576     0.015031753
      4793.64      0.82748382     0.015068462
      4798.43      0.80360911     0.014999398
      4803.23      0.78738446     0.014813573
      4808.03      0.78230954     0.014750594
      4812.84      0.75986992     0.014785674
      4817.66      0.74101043     0.014604839
      4822.48      0.70959210     0.014544250
      4827.30      0.68931946     0.014465051
      4832.12      0.67315763     0.014404469
      4836.96      0.65302236     0.014346708
      4841.79      0.63775333     0.014270715
      4846.63      0.61960161     0.014213392
      4851.48      0.60527624     0.014158795
      4856.33      0.59831158     0.014085420
      4861.19      0.59983021     0.014031022
      4866.05      0.59199285     0.013865593
      4870.92      0.57870369     0.013908826
      4875.79      0.57334521     0.013857661
      4880.66      0.56839213     0.013695322
      4885.55      0.56308970     0.013740881
      4890.43      0.56817144     0.013583732
      4895.32      0.59116376     0.013533431
      4900.22      0.60650995     0.013476787
      4905.12      0.60823825     0.013426791
      4910.02      0.61700512     0.013379987
      4914.94      0.62155416     0.013324825
      4919.85      0.64334906     0.013278561
      4924.77      0.65363138     0.013227516
      4929.70      0.66521795     0.013181543
      4934.62      0.68590362     0.013039573
      4939.56      0.71552042     0.013088779
      4944.50      0.75795885     0.012948421
      4949.44      0.81010252     0.012910379
      4954.39      0.86039754     0.012958822
      4959.35      0.91378536     0.012823720
      4964.31      0.96876069     0.012874718
      4969.27       1.0456792     0.012741320
      4974.24       1.1160576     0.012708139
      4979.22       1.1848285     0.012662822
      4984.20       1.2603102     0.012630559
      4989.18       1.3365026     0.012588155
      4994.17       1.3918530     0.012556841
      4999.16       1.4520232     0.012517228
      5004.16       1.4887664     0.012486810
      5009.17       1.5240416     0.012362795
      5014.18       1.5400406     0.012420593
      5019.19       1.5404245     0.012299116
      5024.21       1.5365425     0.012357820
      5029.23       1.5198439     0.012238870
      5034.26       1.4903870     0.012298425
      5039.30       1.4628253     0.012181887
      5044.34       1.4186833     0.012156313
      5049.39       1.3628515     0.012128199
      5054.43       1.3144225     0.012103984
      5059.49       1.2447513     0.012077786
      5064.55       1.1722882     0.011969066
      5069.61       1.1154670     0.012030739
      5074.68       1.0524232     0.011923961
      5079.76       1.0034821     0.011986591
      5084.84      0.96945520     0.011882103
      5089.92      0.93367506     0.011945712
      5095.01      0.91710566     0.011843312
      5100.11      0.89611934     0.011908107
      5105.21      0.90393551     0.011807745
      5110.31      0.90785301     0.011789655
      5115.42      0.92192706     0.011775361
      5120.54      0.94165290     0.011758557
      5125.66      0.95896595     0.011746158
      5130.79      0.98190409     0.011730562
      5135.92      0.99885819     0.011720067
      5141.05       1.0135983     0.011705711
      5146.20       1.0284586     0.011612308
      5151.34       1.0344363     0.011683809
      5156.49       1.0200968     0.011591364
      5161.65       1.0127141     0.011665099
      5166.81       1.0070084     0.011573532
      5171.98       1.0035477     0.011567232
      5177.15       1.0035941     0.011641056
      5182.33      0.99799252     0.011553104
      5187.51      0.97369980     0.011550547
      5192.70      0.97499670     0.011542082
      5197.89      0.97142962     0.011540088
      5203.09      0.97238808     0.011534098
      5208.29      0.96700046     0.011532558
      5213.50      0.96311198     0.011452100
      5218.72      0.95681800     0.011528283
      5223.93      0.94835676     0.011529819
      5229.16      0.93422809     0.011450274
      5234.39      0.92686700     0.011529120
      5239.62      0.92314211     0.011452431
      5244.86      0.91642555     0.011454800
      5250.11      0.91189724     0.011536098
      5255.36      0.91035896     0.011460737
      5260.61      0.92016593     0.011465532
      5265.87      0.92511319     0.011469730
      5271.14      0.94712748     0.011475009
      5276.41      0.96056968     0.011482200
      5281.69      0.96934946     0.011487654
      5286.97      0.98143278     0.011495062
      5292.26       1.0089248     0.011423475
      5297.55       1.0294643     0.011511452
      5302.85       1.0519355     0.011520963
      5308.15       1.0618031     0.011450854
      5313.46       1.0689410     0.011464134
      5318.77       1.0804920     0.011552451
      5324.09       1.0887416     0.011483778
      5329.42       1.0881131     0.011498728
      5334.75       1.0868647     0.011515454
      5340.08       1.0808607     0.011521751
      5345.42       1.0819951     0.011538178
      5350.77       1.0814798     0.011556384
      5356.12       1.0839253     0.011564830
      5361.48       1.0877328     0.011582760
      5366.83       1.0966678     0.011602234
      5372.20       1.1127998     0.011539714
      5377.58       1.1288775     0.011632200
      5382.95       1.1418545     0.011652844
      5388.34       1.1592940     0.011592979
      5393.72       1.1742922     0.011613260
      5399.12       1.1810021     0.011634951
      5404.52       1.1876827     0.011651254
      5409.92       1.1781477     0.011672560
      5415.33       1.1850677     0.011695216
      5420.75       1.1692335     0.011719026
      5426.17       1.1520954     0.011736947
      5431.60       1.1322918     0.011760446
      5437.03       1.1323849     0.011785177
      5442.47       1.1233816     0.011727879
      5447.91       1.1105573     0.011754640
      5453.36       1.0934275     0.011856280
      5458.81       1.0990448     0.011882692
      5464.27       1.1150136     0.011826389
      5469.73       1.1459420     0.011854662
      5475.20       1.1763109     0.011883968
      5480.68       1.2184708     0.011914291
      5486.16       1.2469606     0.011931931
      5491.65       1.2927340     0.011961633
      5497.14       1.3397124     0.011992292
      5502.64       1.3746524     0.012023862
      5508.14       1.4065098     0.012056316
      5513.65       1.4263966     0.012002836
      5519.16       1.4540539     0.012034576
      5524.68       1.4584145     0.012140053
      5530.20       1.4711740     0.012173350
      5535.73       1.4792849     0.012123165
      5541.27       1.4872539     0.012155935
      5546.81       1.4578662     0.012189313
      5552.36       1.4291597     0.012223248
      5557.91       1.3857428     0.012258032
      5563.47       1.3526470     0.012207939
      5569.04       1.3160117     0.012318446
      5574.60       1.2790440     0.012353322
      5580.18       1.2200401     0.012388681
      5585.76       1.1838841     0.012424667
      5591.35       1.1501772     0.012461074
      5596.94       1.1453448     0.012411142
      5602.53       1.1491447     0.012448376
      5608.14       1.1395739     0.012486062
      5613.75       1.1411686     0.012524121
      5619.36       1.1538528     0.012562822
      5624.98       1.1867376     0.012601645
      5630.60       1.2041045     0.012625559
      5636.23       1.2234438     0.012664053
      5641.87       1.2477089     0.012702964
      5647.51       1.2575507     0.012742034
      5653.16       1.2476233     0.012781736
      5658.82       1.2278109     0.012821537
      5664.47       1.1751311     0.012861696
      5670.14       1.1208919     0.012902085
      5675.81       1.0616360     0.012855252
      5681.48      0.98532101     0.012895125
      5687.17      0.90524427     0.012935334
      5692.85      0.84954174     0.012975914
      5698.55      0.77810352     0.013016770
      5704.25      0.71743972     0.013057786
      5709.95      0.65939890     0.013099156
      5715.66      0.60233455     0.013141263
      5721.38      0.56637537     0.013184348
      5727.10      0.55076233     0.013227844
      5732.83      0.54402289     0.013270828
      5738.56      0.54091474     0.013222795
      5744.30      0.55170414     0.013266976
      5750.04      0.57838136     0.013314605
      5755.79      0.60049995     0.013366353
      5761.55      0.63666455     0.013420343
      5767.31      0.68030436     0.013474928
      5773.08      0.73438932     0.013530872
      5778.85      0.80434409     0.013588772
      5784.63      0.88487975     0.013644950
      5790.41      0.95794375     0.013696620
      5796.21       1.0423221     0.013744804
      5802.00       1.1271054     0.013791094
      5807.81       1.2093334     0.013835219
      5813.61       1.2914530     0.013876978
      5819.43       1.3795639     0.013838124
      5825.25       1.4547193     0.013878311
      5831.07       1.5355521     0.013919572
      5836.90       1.6005025     0.013960577
      5842.74       1.6576289     0.014000047
      5848.58       1.7022454     0.014037484
      5854.43       1.7467729     0.014073557
      5860.29       1.7789948     0.014108963
      5866.15       1.8047840     0.014144925
      5872.01       1.8199750     0.014179275
      5877.89       1.8235190     0.014211559
      5883.76       1.8333304     0.014162545
      5889.65       1.8219490     0.014199049
      5895.54       1.8066534     0.014235606
      5901.43       1.7723255     0.014270203
      5907.34       1.7538598     0.014305660
      5913.24       1.7332744     0.014343371
      5919.16       1.7130448     0.014382494
      5925.08       1.6827981     0.014422196
      5931.00       1.6527714     0.014382085
      5936.93       1.6248462     0.014517913
      5942.87       1.6047449     0.014558129
      5948.81       1.5875800     0.014598138
      5954.76       1.5627431     0.014638423
      5960.72       1.5405324     0.014678796
      5966.68       1.5188578     0.014637507
      5972.64       1.4941745     0.014678179
      5978.62       1.4710726     0.014718678
      5984.60       1.4388903     0.014759443
      5990.58       1.4062314     0.014800150
      5996.57       1.3844815     0.014840768
      6002.57       1.3519713     0.014890504
      6008.57       1.3245762     0.014929626
      6014.58       1.2949451     0.014968726
      6020.60       1.2752633     0.015008102
      6026.62       1.2444884     0.015047362
      6032.65       1.2040486     0.015000423
      6038.68       1.1752212     0.015037886
      6044.72       1.1436842     0.015075388
      6050.76       1.1122441     0.015210895
      6056.81       1.0920569     0.015164148
      6062.87       1.0808377     0.015199825
      6068.93       1.0550268     0.015235638
      6075.00       1.0505796     0.015271638
      6081.08       1.0477164     0.015223943
      6087.16       1.0536903     0.015357005
      6093.25       1.0657823     0.015391645
      6099.34       1.0721293     0.015428700
      6105.44       1.0857381     0.015388625
      6111.54       1.0948763     0.015426253
      6117.66       1.1034317     0.015459146
      6123.78       1.1068690     0.015592095
      6129.90       1.0947891     0.015555023
      6136.03       1.1029543     0.015609719
      6142.17       1.1111837     0.015672020
      6148.31       1.1057805     0.015655613
      6154.46       1.1060082     0.015823815
      6160.61       1.0942828     0.015889664
      6166.77       1.0826246     0.015863681
      6172.94       1.0754053     0.015911660
      6179.11       1.0829555     0.016051430
      6185.29       1.0743340     0.016077366
      6191.48       1.0820763     0.015996693
      6197.67       1.0960194     0.015999838
      6203.87       1.1173652     0.016095757
      6210.07       1.1305759     0.016000653
      6216.28       1.1369856     0.016005204
      6222.50       1.1418421     0.015930379
      6228.72       1.1304639     0.016038746
      6234.95       1.1202827     0.016044014
      6241.19       1.1003625     0.015966702
      6247.42       1.0734076     0.015981580
      6253.67       1.0759311     0.016090140
      6259.93       1.0560276     0.016015937
      6266.19       1.0338084     0.016032406
      6272.46       1.0110614     0.016143473
      6278.73      0.98341152     0.016071245
      6285.01      0.96185124     0.016089982
      6291.29      0.94379106     0.016018822
      6297.58      0.93432652     0.016134064
      6303.88      0.91057978     0.016154130
      6310.19      0.89967678     0.016081805
      6316.50      0.90260632     0.016198765
      6322.81      0.90264919     0.016132353
      6329.14      0.90746376     0.016156971
      6335.47      0.91232722     0.016198226
      6341.80      0.90783311     0.016224485
      6348.14      0.89920277     0.016248978
      6354.49      0.89681738     0.016281272
      6360.85      0.88903721     0.016301614
      6367.21      0.87879106     0.016330014
      6373.57      0.87776240     0.016342412
      6379.95      0.87528896     0.016263031
      6386.33      0.87933917     0.016362945
      6392.72      0.87819344     0.016275879
      6399.11      0.87856644     0.016279282
      6405.51      0.88917453     0.016284182
      6411.92      0.89798222     0.016288471
      6418.32      0.90672663     0.016386872
      6424.74      0.92028111     0.016299785
      6431.17      0.92996611     0.016302448
      6437.60      0.93952519     0.016300084
      6444.04      0.94743041     0.016297618
      6450.48      0.95909113     0.016293368
      6456.94      0.95360613     0.016200412
      6463.39      0.94029051     0.016194430
      6469.85      0.92175287     0.016188059
      6476.33      0.90347130     0.016178038
      6482.80      0.86710984     0.016174255
      6489.28      0.83611269     0.016167008
      6495.77      0.80238045     0.016164666
      6502.27      0.77108658     0.016157077
      6508.77      0.73932632     0.016153875
      6515.28      0.72088021     0.016145154
      6521.80      0.71215318     0.016139794
      6528.32      0.71185378     0.016129234
      6534.85      0.72702939     0.016032565
      6541.38      0.75371434     0.016021133
      6547.92      0.79779803     0.016011590
      6554.47      0.84907720     0.015997676
      6561.03      0.90258744     0.015986548
      6567.59      0.96210769     0.015969828
      6574.16       1.0273014     0.015957177
      6580.73       1.0880762     0.015937611
      6587.31       1.1457568     0.015831874
      6593.90       1.2017263     0.015901248
      6600.50       1.2520748     0.015879287
      6607.10       1.2953447     0.015771489
      6613.70       1.3321105     0.015835168
      6620.32       1.3603916     0.015724746
      6626.94       1.3834905     0.015786597
      6633.57       1.3924353     0.015673276
      6640.20       1.3996089     0.015645522
      6646.84       1.4131118     0.015617444
      6653.49       1.4242092     0.015586201
      6660.14       1.4307299     0.015471432
      6666.80       1.4372804     0.015523579
      6673.47       1.4447225     0.015506405
      6680.14       1.4566006     0.015450350
      6686.82       1.4606819     0.015531034
      6693.51       1.4656411     0.015399255
      6700.20       1.4695806     0.015364118
      6706.90       1.4608837     0.015392161
      6713.61       1.4527048     0.015481825
      6720.32       1.4424016     0.015628790
      6727.05       1.4292938     0.015779439
      6733.77       1.4058058     0.015989354
      6740.51       1.3864143     0.016196665
      6747.25       1.3691651     0.016260378
      6754.00       1.3433639     0.016446578
      6760.75       1.3123396     0.016364837
      6767.51       1.2908769     0.016289247
      6774.28       1.2690116     0.016240045
      6781.05       1.2453185     0.015930435
      6787.84       1.2112807     0.015664954
      6794.62       1.1978808     0.015399418
      6801.42       1.1824312     0.015209709
      6808.22       1.1671261     0.015037692
      6815.03       1.1461019     0.014877293
      6821.85       1.1225136     0.014627175
      6828.67       1.0953586     0.014464692
      6835.50       1.0602406     0.014424400
      6842.33       1.0212110     0.014235218
      6849.17      0.98021650     0.014116191
      6856.02      0.93508076     0.014007867
      6862.88      0.88780546     0.013928594
      6869.74      0.84906150     0.013834555
      6876.61      0.80360729     0.013744457
      6883.49      0.75883337     0.013653857
      6890.37      0.71747070     0.013495080
      6897.27      0.68986179     0.013393894
      6904.16      0.67772464     0.013090922
      6911.07      0.66372300     0.012923681
      6917.98      0.68099463     0.012684868
      6924.89      0.70449544     0.012453503
      6931.82      0.74085641     0.012297932
      6938.75      0.78795049     0.012074824
      6945.69      0.84924907     0.011856022
      6952.64      0.91360024     0.011643956
      6959.59      0.97138367     0.011505021
      6966.55       1.0313370     0.011277954
      6973.52       1.0882614     0.011091156
      6980.49       1.1467239     0.010902107
      6987.47       1.1995878     0.010767583
      6994.46       1.2459582     0.010587951
      7001.46       1.2905354     0.010429088
      7008.46       1.3314922     0.010304591
      7015.46       1.3566111     0.010201344
      7022.48       1.3803626     0.010132113
      7029.51       1.4004090     0.010009080
      7036.53       1.4008448    0.0098421732
      7043.57       1.4014928    0.0097024908
      7050.62       1.3863018    0.0095561507
      7057.66       1.3808225    0.0094424434
      7064.72       1.3795723    0.0092775875
      7071.79       1.3402060    0.0091051817
      7078.86       1.2909283    0.0089249759
      7085.94       1.2600077    0.0087348492
      7093.03       1.2197692    0.0085382974
      7100.12       1.1773229    0.0083399849
      7107.22       1.1469297    0.0081400224
      7114.33       1.1203106    0.0079378370
      7121.44       1.1101977    0.0077739385
      7128.56       1.0874227    0.0075644342
      7135.69       1.0778883    0.0073497402
      7142.83       1.0630474    0.0071520051
      7149.97       1.0524864    0.0069567788
      7157.12       1.0547389    0.0067626352
      7164.28       1.0573609    0.0067213381
      7171.44       1.0469901    0.0067686704
      7178.62       1.0387304    0.0068341002
      7185.80       1.0332058    0.0069216895
      7192.98       1.0276841    0.0070382750
      7200.17       1.0274143    0.0071936670
      7207.38       1.0263798    0.0074025614
      7214.58       1.0286987    0.0076887611
      7221.80       1.0344566    0.0080850235
      7229.02       1.0358585    0.0086284784
      7236.25       1.0373575    0.0093542863
      7243.49       1.0393022     0.010297311
      7250.73       1.0360383     0.011501424
      7257.98       1.0275585     0.013038042
      7265.24       1.0130008     0.014979992
      7272.51      0.98660364     0.017419252
