# starting wavelength =        3468.4900
# ending wavelength =        7363.3600
# O2 telluric scale =        0
# O2 telluric shift =        0
# H2O telluric scale =        0
# H2O telluric shift =        0
      3470.98      0.37252882      0.10856517
      3474.45      0.29431048     0.092313506
      3477.92      0.22661979     0.079376115
      3481.40      0.17901419     0.069126218
      3484.88      0.13958520     0.061063775
      3488.37      0.11154346     0.053686279
      3491.86     0.086046017     0.049059088
      3495.35     0.077647246     0.045477683
      3498.84     0.050629399     0.042707821
      3502.34     0.071528323     0.040851269
      3505.84     0.078394785     0.039036617
      3509.35     0.069794909     0.037592653
      3512.86     0.080860071     0.036430966
      3516.37     0.089788738     0.035481459
      3519.89      0.12512215     0.034445035
      3523.41      0.11598517     0.033791626
      3526.93      0.11454054     0.033231826
      3530.46      0.11643937     0.032747822
      3533.99      0.12412374     0.032266894
      3537.53      0.16153272     0.032319563
      3541.06      0.18542138     0.032208613
      3544.60      0.21315282     0.032264440
      3548.15      0.24169235     0.031947132
      3551.70      0.24056388     0.032000820
      3555.25      0.25422509     0.032054587
      3558.80      0.26390868     0.031945160
      3562.36      0.24966462     0.031793920
      3565.92      0.24853484     0.031684311
      3569.49      0.26290390     0.031742706
      3573.06      0.27905125     0.031797299
      3576.64      0.29585894     0.031481108
      3580.21      0.31007297     0.031537117
      3583.79      0.35696654     0.031597578
      3587.38      0.43436231     0.031494209
      3590.96      0.42943764     0.031336386
      3594.55      0.38715733     0.031398643
      3598.15      0.36005469     0.031288884
      3601.75      0.32653381     0.031139691
      3605.35      0.29165307     0.031029676
      3608.96      0.27263776     0.031095424
      3612.56      0.26011556     0.031156552
      3616.18      0.23707820     0.030837445
      3619.79      0.20953940     0.030898154
      3623.41      0.21366935     0.030966766
      3627.04      0.18251409     0.030641625
      3630.66      0.16887500     0.030708730
      3634.29      0.17059455     0.030774838
      3637.93      0.17702388     0.030846845
      3641.57      0.16886921     0.030518176
      3645.21      0.16915016     0.030588971
      3648.86      0.16692218     0.030660353
      3652.50      0.17096867     0.030333430
      3656.16      0.17879242     0.030403256
      3659.81      0.15607479     0.030478300
      3663.47      0.16153775     0.030148272
      3667.14      0.14934425     0.030222986
      3670.80      0.16553180     0.030296834
      3674.48      0.17062733     0.030190518
      3678.15      0.21276430     0.030041425
      3681.83      0.26514381     0.030122059
      3685.51      0.31959991     0.030199929
      3689.20      0.35847212     0.029867160
      3692.88      0.40946670     0.029943907
      3696.58      0.43339468     0.030031088
      3700.27      0.35400863     0.029880209
      3703.98      0.35566351     0.029776902
      3707.68      0.37110752     0.029856647
      3711.39      0.35965370     0.029712497
      3715.10      0.35344954     0.029798136
      3718.81      0.34346977     0.029697751
      3722.53      0.32967271     0.029544062
      3726.26      0.32695228     0.029633384
      3729.98      0.30646948     0.029727926
      3733.71      0.30454337     0.029379659
      3737.45      0.30522901     0.029475050
      3741.18      0.28602176     0.029566184
      3744.93      0.25796026     0.029423338
      3748.67      0.23270040     0.029312621
      3752.42      0.23087418     0.029420164
      3756.17      0.21318248     0.029266178
      3759.93      0.18588827     0.029365519
      3763.69      0.15851037     0.029226608
      3767.45      0.15115194     0.029112448
      3771.22      0.13656583     0.029221647
      3774.99      0.13929913     0.029070368
      3778.77      0.15241491     0.029178004
      3782.54      0.16122310     0.029290513
      3786.33      0.17523277     0.028923620
      3790.11      0.18254719     0.029038035
      3793.90      0.17511608     0.029146306
      3797.70      0.18041162     0.029003955
      3801.50      0.16021196     0.029121675
      3805.30      0.17621044     0.028748091
      3809.10      0.18994180     0.028870125
      3812.91      0.19513545     0.028985033
      3816.73      0.20252650     0.028842331
      3820.54      0.22486394     0.028967834
      3824.36      0.24312750     0.028821143
      3828.19      0.25289204     0.028717796
      3832.02      0.27861283     0.028838055
      3835.85      0.31404359     0.028694906
      3839.68      0.33100995     0.028831269
      3843.52      0.35113336     0.028962474
      3847.37      0.36202356     0.028820360
      3851.22      0.36933719     0.028963938
      3855.07      0.41905443     0.028815952
      3858.92      0.44832099     0.028712165
      3862.78      0.46071037     0.028560494
      3866.64      0.48722222     0.028417514
      3870.51      0.49514532     0.028312978
      3874.38      0.52093593     0.028163407
      3878.26      0.53558923     0.027775412
      3882.13      0.55929335     0.027918041
      3886.02      0.56320691     0.027771921
      3889.90      0.57765161     0.027388438
      3893.79      0.57871548     0.027526996
      3897.69      0.59234924     0.027383849
      3901.59      0.56827624     0.027005926
      3905.49      0.56326748     0.027141686
      3909.39      0.56181074     0.026999342
      3913.30      0.56103914     0.026627276
      3917.22      0.54775571     0.026762704
      3921.13      0.54796207     0.026386787
      3925.06      0.54544433     0.026252290
      3928.98      0.56515542     0.026124161
      3932.91      0.56092233     0.026016876
      3936.84      0.57200092     0.025882073
      3940.78      0.59365931     0.025753212
      3944.72      0.58938329     0.025650264
      3948.67      0.59632342     0.025516663
      3952.61      0.59670493     0.025387255
      3956.57      0.61399075     0.025263271
      3960.52      0.61683503     0.025155831
      3964.48      0.62141585     0.025026961
      3968.45      0.62567179     0.024901852
      3972.42      0.63465440     0.024559506
      3976.39      0.63153773     0.024671470
      3980.37      0.64808728     0.024545886
      3984.35      0.66633200     0.024212578
      3988.33      0.67686236     0.024084247
      3992.32      0.69324940     0.024194912
      3996.31      0.70593466     0.023871919
      4000.31      0.69665986     0.023742550
      4004.31      0.69727748     0.023617431
      4008.31      0.69063838     0.023726427
      4012.32      0.69174576     0.023408125
      4016.33      0.66932508     0.023281666
      4020.35      0.65446828     0.023159136
      4024.37      0.64017228     0.022844984
      4028.40      0.63126818     0.022952995
      4032.42      0.61891625     0.022828967
      4036.46      0.61901024     0.022708514
      4040.50      0.61930944     0.022399914
      4044.54      0.60838396     0.022506891
      4048.58      0.59637638     0.022384648
      4052.63      0.60705956     0.022265766
      4056.68      0.61402461     0.021962057
      4060.74      0.61845003     0.021848744
      4064.80      0.61615467     0.021949030
      4068.86      0.61753838     0.021831671
      4072.93      0.61477075     0.021532943
      4077.01      0.59993486     0.021420093
      4081.08      0.60865435     0.021309854
      4085.17      0.60649271     0.021201711
      4089.25      0.60410283     0.021111811
      4093.34      0.60430690     0.020999641
      4097.43      0.60725352     0.020889703
      4101.53      0.60533821     0.020782164
      4105.63      0.60575325     0.020675896
      4109.74      0.61169892     0.020394764
      4113.85      0.61977112     0.020479216
      4117.96      0.61377056     0.020371712
      4122.08      0.60661799     0.020265733
      4126.20      0.59597696     0.019997387
      4130.33      0.59097483     0.019889989
      4134.46      0.58401931     0.019783595
      4138.59      0.56508868     0.019678473
      4142.73      0.55493310     0.019761088
      4146.88      0.55813149     0.019503219
      4151.02      0.56202122     0.019397395
      4155.18      0.55091761     0.019292690
      4159.33      0.54575504     0.019189739
      4163.49      0.53621984     0.019087735
      4167.65      0.52949332     0.018987256
      4171.82      0.54607472     0.018919299
      4175.99      0.54859633     0.018816627
      4180.17      0.55752674     0.018714953
      4184.35      0.55610353     0.018614304
      4188.54      0.56368862     0.018514925
      4192.72      0.57058741     0.018417016
      4196.92      0.58293145     0.018171211
      4201.11      0.59897377     0.018075669
      4205.31      0.59691164     0.017981116
      4209.52      0.61342009     0.017887189
      4213.73      0.60592063     0.017960665
      4217.94      0.59384258     0.017864451
      4222.16      0.58988443     0.017625763
      4226.38      0.58247969     0.017531962
      4230.61      0.56831460     0.017439585
      4234.84      0.54924525     0.017347717
      4239.08      0.53439409     0.017256972
      4243.32      0.53195809     0.017166439
      4247.56      0.52992468     0.017076780
      4251.81      0.53708302     0.016987870
      4256.06      0.52679969     0.016763813
      4260.32      0.52322190     0.016674642
      4264.58      0.51498358     0.016586275
      4268.84      0.51439433     0.016498229
      4273.11      0.51690504     0.016561822
      4277.38      0.52841495     0.016474990
      4281.66      0.53401297     0.016388343
      4285.94      0.54087629     0.016302341
      4290.23      0.53910724     0.016216970
      4294.52      0.53221754     0.016132292
      4298.81      0.53176239     0.015926120
      4303.11      0.53372589     0.015841383
      4307.42      0.52827526     0.015757669
      4311.72      0.51983172     0.015674187
      4316.04      0.51182502     0.015591217
      4320.35      0.49296190     0.015508775
      4324.67      0.48147812     0.015427604
      4329.00      0.46727875     0.015346621
      4333.33      0.46126356     0.015265845
      4337.66      0.44428024     0.015185993
      4342.00      0.43497455     0.015106742
      4346.34      0.42725525     0.015027705
      4350.69      0.42749114     0.014949143
      4355.04      0.42305501     0.014871506
      4359.39      0.42991413     0.014678761
      4363.75      0.43801769     0.014602115
      4368.12      0.44585049     0.014526268
      4372.48      0.45377171     0.014451205
      4376.86      0.47162254     0.014376270
      4381.23      0.48184017     0.014301414
      4385.61      0.49282172     0.014227641
      4390.00      0.49747965     0.014154264
      4394.39      0.50169574     0.014080910
      4398.79      0.51241436     0.014008344
      4403.18      0.51414790     0.013936574
      4407.59      0.52047399     0.013864953
      4412.00      0.52770322     0.013671727
      4416.41      0.53415200     0.013601960
      4420.82      0.53020772     0.013532653
      4425.25      0.53975151     0.013463279
      4429.67      0.54622236     0.013394649
      4434.10      0.55102412     0.013326787
      4438.54      0.55104016     0.013258949
      4442.97      0.56935918     0.013191520
      4447.42      0.57492391     0.013125096
      4451.86      0.57793681     0.013059131
      4456.32      0.59981334     0.012993169
      4460.77      0.60731178     0.012927965
      4465.24      0.62209521     0.012863766
      4469.70      0.63668029     0.012799715
      4474.17      0.65504938     0.012620741
      4478.65      0.67970191     0.012557413
      4483.12      0.70190089     0.012494505
      4487.61      0.71718328     0.012431535
      4492.09      0.72617695     0.012369511
      4496.59      0.73910249     0.012308429
      4501.08      0.75017908     0.012247245
      4505.58      0.75724092     0.012279378
      4510.09      0.77674603     0.012219301
      4514.60      0.78679168     0.012159768
      4519.12      0.80099804     0.011995213
      4523.63      0.81558412     0.011935698
      4528.16      0.83192391     0.011876914
      4532.69      0.83549415     0.011818107
      4537.22      0.84020391     0.011760097
      4541.76      0.85535874     0.011703069
      4546.30      0.86150956     0.011646528
      4550.85      0.87943786     0.011491372
      4555.40      0.88294448     0.011436511
      4559.95      0.89068519     0.011382620
      4564.51      0.89714185     0.011328678
      4569.08      0.90038253     0.011356942
      4573.65      0.89610033     0.011302622
      4578.22      0.89531886     0.011248409
      4582.80      0.89319865     0.011099707
      4587.38      0.88790749     0.011047681
      4591.97      0.89060319     0.010996600
      4596.56      0.88880588     0.010945481
      4601.16      0.88368972     0.010895451
      4605.76      0.88668404     0.010846486
      4610.37      0.89044482     0.010779915
      4614.98      0.88376930     0.010729930
      4619.59      0.88284227     0.010681048
      4624.21      0.88056720     0.010632692
      4628.84      0.88611782     0.010584878
      4633.47      0.88103894     0.010446239
      4638.10      0.88023621     0.010398561
      4642.74      0.87453049     0.010351228
      4647.38      0.87128762     0.010381434
      4652.03      0.87003262     0.010336028
      4656.68      0.86678511     0.010202818
      4661.34      0.86532323     0.010156672
      4666.00      0.86508307     0.010111626
      4670.67      0.85455838     0.010067320
      4675.33      0.84836610     0.010014759
      4680.01      0.84848790    0.0099697155
      4684.69      0.85058148    0.0099257442
      4689.38      0.85848820    0.0098820736
      4694.07      0.85377619    0.0097591636
      4698.76      0.85001375    0.0097183527
      4703.46      0.84009547    0.0097466258
      4708.16      0.84322429    0.0097044475
      4712.87      0.83284925    0.0095845719
      4717.58      0.81800437    0.0095448260
      4722.30      0.79966069    0.0095059249
      4727.03      0.78530040    0.0095339019
      4731.75      0.76545918    0.0094166615
      4736.48      0.74714526    0.0093781052
      4741.22      0.72979079    0.0093408291
      4745.96      0.71167721    0.0093048457
      4750.71      0.68730176    0.0092553004
      4755.46      0.66695258    0.0092183904
      4760.22      0.64972771    0.0091828106
      4764.97      0.63908089    0.0090712245
      4769.74      0.62478626    0.0091006161
      4774.51      0.61083298    0.0090655433
      4779.29      0.59626347    0.0090314340
      4784.07      0.57030137    0.0089222386
      4788.85      0.55675602    0.0088878619
      4793.64      0.54498083    0.0089191981
      4798.43      0.54198551    0.0088134246
      4803.23      0.52883061    0.0087795941
      4808.03      0.51626411    0.0087471122
      4812.84      0.51003852    0.0087084321
      4817.66      0.50464876    0.0086752308
      4822.48      0.50266036    0.0086434961
      4827.30      0.49655240    0.0086070042
      4832.12      0.49086562    0.0085745242
      4836.96      0.49402480    0.0085435560
      4841.79      0.49224360    0.0084471285
      4846.63      0.50114730    0.0084775253
      4851.48      0.51857031    0.0084473951
      4856.33      0.53385350    0.0083528188
      4861.19      0.54890059    0.0083839437
      4866.05      0.57543115    0.0083546715
      4870.92      0.61699716    0.0082618566
      4875.79      0.65350587    0.0082355991
      4880.66      0.69727508    0.0082010042
      4885.55      0.74173530    0.0081745296
      4890.43      0.78712257    0.0081494252
      4895.32      0.83387101    0.0081159920
      4900.22      0.88524942    0.0080906278
      4905.12      0.93513195    0.0080668065
      4910.02      0.97877258    0.0080343995
      4914.94       1.0144953    0.0080104187
      4919.85       1.0414138    0.0079238230
      4924.77       1.0653046    0.0079561930
      4929.70       1.0813671    0.0079335022
      4934.62       1.0942081    0.0078479865
      4939.56       1.0999637    0.0078813701
      4944.50       1.0911026    0.0077985171
      4949.44       1.0796737    0.0077754344
      4954.39       1.0658636    0.0078100184
      4959.35       1.0586067    0.0077279423
      4964.31       1.0376655    0.0077064664
      4969.27       1.0161448    0.0076822136
      4974.24      0.98973898    0.0076607548
      4979.22      0.96314127    0.0075838724
      4984.20      0.93123422    0.0076168738
      4989.18      0.90383469    0.0075404523
      4994.17      0.88095708    0.0075746962
      4999.16      0.85505375    0.0075549565
      5004.16      0.83445080    0.0074809390
      5009.17      0.81826514    0.0075144551
      5014.18      0.79975705    0.0074410083
      5019.19      0.78687065    0.0074757201
      5024.21      0.77754953    0.0074026277
      5029.23      0.77574792    0.0073870224
      5034.26      0.77328366    0.0073660408
      5039.30      0.76646559    0.0073505974
      5044.34      0.76530373    0.0073308954
      5049.39      0.76781208    0.0073156388
      5054.43      0.78066634    0.0072455898
      5059.49      0.79018206    0.0072821036
      5064.55      0.80729114    0.0072134986
      5069.61      0.81422405    0.0072501275
      5074.68      0.82801309    0.0071826127
      5079.76      0.84121696    0.0072196281
      5084.84      0.85930246    0.0071532665
      5089.92      0.87098375    0.0071904726
      5095.01      0.87883715    0.0071251700
      5100.11      0.88318439    0.0071118268
      5105.21      0.88924815    0.0070982719
      5110.31      0.90094247    0.0070854907
      5115.42      0.91620251    0.0070726775
      5120.54      0.92430882    0.0070603455
      5125.66      0.92840551    0.0070483823
      5130.79      0.93126788    0.0070367119
      5135.92      0.92478544    0.0070251947
      5141.05      0.92044793    0.0069644408
      5146.20      0.91734611    0.0070033358
      5151.34      0.92323669    0.0069434883
      5156.49      0.92330264    0.0069826998
      5161.65      0.92018308    0.0069238180
      5166.81      0.92187414    0.0069631760
      5171.98      0.93077582    0.0069054266
      5177.15      0.93698904    0.0069450462
      5182.33      0.94403535    0.0068881297
      5187.51      0.93854709    0.0068793734
      5192.70      0.93832074    0.0068723045
      5197.89      0.94427758    0.0068637097
      5203.09      0.95980014    0.0068577476
      5208.29      0.98073751    0.0068494455
      5213.50      0.98637456    0.0067948126
      5218.72      0.99139438    0.0068364706
      5223.93      0.99832480    0.0067821134
      5229.16       1.0087894    0.0068246228
      5234.39       1.0182547    0.0067706469
      5239.62       1.0268219    0.0067660157
      5244.86       1.0362929    0.0068083032
      5250.11       1.0485298    0.0067559769
      5255.36       1.0649817    0.0067529151
      5260.61       1.0764544    0.0067469450
      5265.87       1.0922858    0.0067442676
      5271.14       1.1011935    0.0067394660
      5276.41       1.1126520    0.0067365975
      5281.69       1.1257669    0.0066881127
      5286.97       1.1340403    0.0067305096
      5292.26       1.1470537    0.0067290053
      5297.55       1.1620681    0.0066806534
      5302.85       1.1726049    0.0067240781
      5308.15       1.1850641    0.0066772085
      5313.46       1.1928388    0.0066757628
      5318.77       1.1995373    0.0067202012
      5324.09       1.2047861    0.0066737278
      5329.42       1.2096428    0.0066733770
      5334.75       1.2129957    0.0066734458
      5340.08       1.2104798    0.0066728133
      5345.42       1.2105988    0.0066733160
      5350.77       1.2099272    0.0066281990
      5356.12       1.2081392    0.0066742803
      5361.48       1.1976946    0.0066755981
      5366.83       1.1921387    0.0066311749
      5372.20       1.1830844    0.0066780005
      5377.58       1.1748291    0.0066333332
      5382.95       1.1702794    0.0066362473
      5388.34       1.1751511    0.0066839905
      5393.72       1.1813605    0.0066399009
      5399.12       1.1984406    0.0066434825
      5404.52       1.2218327    0.0066482025
      5409.92       1.2472599    0.0066485905
      5415.33       1.2750266    0.0066527152
      5420.75       1.3060977    0.0066579305
      5426.17       1.3426384    0.0066165492
      5431.60       1.3748769    0.0066639605
      5437.03       1.4033991    0.0066696297
      5442.47       1.4344126    0.0066294481
      5447.91       1.4632157    0.0066345815
      5453.36       1.4844228    0.0066833711
      5458.81       1.4977256    0.0066445724
      5464.27       1.5008010    0.0066500916
      5469.73       1.4929537    0.0066563848
      5475.20       1.4794931    0.0066630990
      5480.68       1.4591648    0.0066678566
      5486.16       1.4335638    0.0066743141
      5491.65       1.4129427    0.0066813124
      5497.14       1.3898376    0.0066428908
      5502.64       1.3669039    0.0066510984
      5508.14       1.3426980    0.0067017458
      5513.65       1.3195292    0.0067097635
      5519.16       1.2988466    0.0066715606
      5524.68       1.2858603    0.0066803785
      5530.20       1.2738989    0.0066898538
      5535.73       1.2603596    0.0067411219
      5541.27       1.2533414    0.0067033454
      5546.81       1.2557928    0.0067129273
      5552.36       1.2503102    0.0067226559
      5557.91       1.2405923    0.0067330326
      5563.47       1.2251637    0.0066966651
      5569.04       1.1990748    0.0067479885
      5574.60       1.1677929    0.0067583963
      5580.18       1.1286177    0.0067691492
      5585.76       1.0731050    0.0067802152
      5591.35       1.0148217    0.0067447489
      5596.94      0.95496627    0.0067553280
      5602.53      0.89183895    0.0067663250
      5608.14      0.81820742    0.0068196489
      5613.75      0.75057767    0.0067859966
      5619.36      0.68342378    0.0067970021
      5624.98      0.62038409    0.0068083693
      5630.60      0.56762617    0.0068199156
      5636.23      0.52003456    0.0068319372
      5641.87      0.48558893    0.0068441241
      5647.51      0.46501936    0.0068098409
      5653.16      0.45432167    0.0068225160
      5658.82      0.44998664    0.0068777665
      5664.47      0.45698057    0.0068901530
      5670.14      0.46897932    0.0069028496
      5675.81      0.48325259    0.0069156720
      5681.48      0.51188024    0.0068814881
      5687.17      0.54956504    0.0068947126
      5692.85      0.59324499    0.0069080927
      5698.55      0.63799991    0.0069217545
      5704.25      0.68667404    0.0069355595
      5709.95      0.74102140    0.0069494832
      5715.66      0.79447353    0.0069636226
      5721.38      0.85508565    0.0069304524
      5727.10      0.91693190    0.0069442825
      5732.83      0.97461417    0.0069582645
      5738.56       1.0285479    0.0069723637
      5744.30       1.0829045    0.0069866838
      5750.04       1.1359522    0.0070010788
      5755.79       1.1881353    0.0070155443
      5761.55       1.2341145    0.0070301380
      5767.31       1.2714376    0.0070869847
      5773.08       1.3063332    0.0070559004
      5778.85       1.3389472    0.0070706636
      5784.63       1.3744720    0.0070858411
      5790.41       1.4165569    0.0071015889
      5796.21       1.4475169    0.0071175265
      5802.00       1.4762843    0.0071331387
      5807.81       1.5003141    0.0071489762
      5813.61       1.5291322    0.0071236574
      5819.43       1.5532044    0.0071427700
      5825.25       1.5787532    0.0071639262
      5831.07       1.6020733    0.0071858261
      5836.90       1.6179363    0.0072079562
      5842.74       1.6305287    0.0072310293
      5848.58       1.6420778    0.0072547204
      5854.43       1.6480278    0.0072766518
      5860.29       1.6550333    0.0072962652
      5866.15       1.6604545    0.0073144261
      5872.01       1.6607646    0.0072831662
      5877.89       1.6565792    0.0072995225
      5883.76       1.6584383    0.0073144484
      5889.65       1.6540024    0.0073287195
      5895.54       1.6457169    0.0073433910
      5901.43       1.6377570    0.0073584326
      5907.34       1.6259297    0.0073735009
      5913.24       1.6089362    0.0073876337
      5919.16       1.5925572    0.0074007842
      5925.08       1.5717660    0.0073682579
      5931.00       1.5526872    0.0073800583
      5936.93       1.5312532    0.0073921571
      5942.87       1.5116408    0.0074514771
      5948.81       1.4805342    0.0074618837
      5954.76       1.4527928    0.0074739613
      5960.72       1.4191562    0.0074873458
      5966.68       1.3883558    0.0075001040
      5972.64       1.3623459    0.0075123337
      5978.62       1.3365192    0.0074820636
      5984.60       1.3081046    0.0074958766
      5990.58       1.2875578    0.0075102489
      5996.57       1.2667517    0.0075248274
      6002.57       1.2378797    0.0075399302
      6008.57       1.2143129    0.0075553190
      6014.58       1.1980670    0.0075709099
      6020.60       1.1839495    0.0075437983
      6026.62       1.1681181    0.0075592711
      6032.65       1.1590817    0.0075751519
      6038.68       1.1462661    0.0075911053
      6044.72       1.1420733    0.0076548842
      6050.76       1.1353562    0.0076703645
      6056.81       1.1250474    0.0076423204
      6062.87       1.1169798    0.0076578866
      6068.93       1.1136269    0.0076734492
      6075.00       1.1092390    0.0076890244
      6081.08       1.1065185    0.0077049711
      6087.16       1.1053769    0.0076756991
      6093.25       1.1080467    0.0076906659
      6099.34       1.1121417    0.0077550681
      6105.44       1.1217231    0.0077702063
      6111.54       1.1302329    0.0077856583
      6117.66       1.1466872    0.0077561767
      6123.78       1.1642903    0.0077705919
      6129.90       1.1890081    0.0077852881
      6136.03       1.2129907    0.0077998283
      6142.17       1.2350752    0.0078208824
      6148.31       1.2517054    0.0078345461
      6154.46       1.2744410    0.0078484647
      6160.61       1.2968580    0.0078627787
      6166.77       1.3096612    0.0078339093
      6172.94       1.3166533    0.0078508730
      6179.11       1.3245481    0.0079173029
      6185.29       1.3202892    0.0079318925
      6191.48       1.3091943    0.0079014363
      6197.67       1.2936248    0.0079186716
      6203.87       1.2894362    0.0079404818
      6210.07       1.2803078    0.0079727328
      6216.28       1.2681509    0.0080017188
      6222.50       1.2627182    0.0080331952
      6228.72       1.2506393    0.0080651850
      6234.95       1.2381718    0.0080512014
      6241.19       1.2235791    0.0081291643
      6247.42       1.2150422    0.0081509524
      6253.67       1.1982063    0.0081197640
      6259.93       1.1860227    0.0081280748
      6266.19       1.1781951    0.0081817444
      6272.46       1.1743208    0.0081322032
      6278.73       1.1655556    0.0081282603
      6285.01       1.1591645    0.0081258665
      6291.29       1.1570502    0.0081306281
      6297.58       1.1501859    0.0081358407
      6303.88       1.1430580    0.0081387935
      6310.19       1.1429802    0.0080957847
      6316.50       1.1479635    0.0081484622
      6322.81       1.1632099    0.0081084603
      6329.14       1.1687894    0.0081146668
      6335.47       1.1786558    0.0081691758
      6341.80       1.1977933    0.0081305498
      6348.14       1.2048328    0.0081379637
      6354.49       1.2167708    0.0081464800
      6360.85       1.2232022    0.0081569745
      6367.21       1.2293159    0.0081659830
      6373.57       1.2319212    0.0081296725
      6379.95       1.2330001    0.0081872518
      6386.33       1.2317103    0.0081968074
      6392.72       1.2254658    0.0081610495
      6399.11       1.2178095    0.0082213544
      6405.51       1.2070467    0.0081905470
      6411.92       1.1916078    0.0082050005
      6418.32       1.1624057    0.0082250621
      6424.74       1.1378509    0.0082364851
      6431.17       1.1113994    0.0082481325
      6437.60       1.0750861    0.0082640127
      6444.04       1.0464160    0.0082731756
      6450.48       1.0192613    0.0082364666
      6456.94       1.0000107    0.0082893898
      6463.39      0.99466722    0.0082478475
      6469.85      0.98211459    0.0082980797
      6476.33      0.98215853    0.0082547992
      6482.80      0.98421233    0.0082583385
      6489.28      0.99769708    0.0082634872
      6495.77       1.0167725    0.0082678134
      6502.27       1.0398124    0.0082728125
      6508.77       1.0618902    0.0082746255
      6515.28       1.0884754    0.0082295425
      6521.80       1.1134914    0.0082765875
      6528.32       1.1406019    0.0082311951
      6534.85       1.1686467    0.0082793856
      6541.38       1.1886218    0.0082332689
      6547.92       1.2101283    0.0082779322
      6554.47       1.2301346    0.0082314398
      6561.03       1.2450834    0.0082306868
      6567.59       1.2619709    0.0082332080
      6574.16       1.2780120    0.0082331500
      6580.73       1.2935893    0.0082357194
      6587.31       1.3065046    0.0082355591
      6593.90       1.3119542    0.0082377259
      6600.50       1.3211298    0.0081926437
      6607.10       1.3289017    0.0082382782
      6613.70       1.3310399    0.0081925975
      6620.32       1.3359778    0.0082375723
      6626.94       1.3324971    0.0081914696
      6633.57       1.3264244    0.0082356836
      6640.20       1.3177870    0.0081889822
      6646.84       1.3135580    0.0081875992
      6653.49       1.3123314    0.0081851321
      6660.14       1.3101764    0.0081826319
      6666.80       1.3044129    0.0081798193
      6673.47       1.3027591    0.0081760870
      6680.14       1.2989666    0.0081277777
      6686.82       1.2895490    0.0081680612
      6693.51       1.2764473    0.0081187114
      6700.20       1.2655431    0.0081586359
      6706.90       1.2528381    0.0081081063
      6713.61       1.2382800    0.0081028591
      6720.32       1.2218172    0.0080959837
      6727.05       1.2048292    0.0080894668
      6733.77       1.1865027    0.0080388906
      6740.51       1.1632180    0.0080745751
      6747.25       1.1423033    0.0080684121
      6754.00       1.1135099    0.0080314470
      6760.75       1.0877910    0.0080917251
      6767.51       1.0654806    0.0080591204
      6774.28       1.0439254    0.0080362867
      6781.05       1.0190001    0.0080788024
      6787.84      0.99380191    0.0080712189
      6794.62      0.96824275    0.0081384896
      6801.42      0.94476363    0.0082135252
      6808.22      0.92938266    0.0083272291
      6815.03      0.90350406    0.0084530288
      6821.85      0.88097900    0.0085169435
      6828.67      0.86914446    0.0086516610
      6835.50      0.86515401    0.0086586701
      6842.33      0.87512043    0.0086738445
      6849.17      0.89165752    0.0086964454
      6856.02      0.91299856    0.0085710861
      6862.88      0.94695778    0.0084596633
      6869.74      0.98959923    0.0083326769
      6876.61       1.0274333    0.0082309993
      6883.49       1.0741270    0.0081298641
      6890.37       1.1200213    0.0080634897
      6897.27       1.1626187    0.0079542274
      6904.16       1.2004474    0.0079171709
      6911.07       1.2333357    0.0078535355
      6917.98       1.2691910    0.0077662675
      6924.89       1.3015755    0.0077174208
      6931.82       1.3316207    0.0076733579
      6938.75       1.3538435    0.0076421985
      6945.69       1.3669146    0.0076082178
      6952.64       1.3795822    0.0075783268
      6959.59       1.3947328    0.0075133332
      6966.55       1.4083367    0.0074850905
      6973.52       1.4222002    0.0074960025
      6980.49       1.4319001    0.0073833581
      6987.47       1.4364956    0.0072712254
      6994.46       1.4406862    0.0071988604
      7001.46       1.4460240    0.0070591300
      7008.46       1.4467518    0.0069544179
      7015.46       1.4449565    0.0068533755
      7022.48       1.4407621    0.0067891554
      7029.51       1.4404136    0.0066919302
      7036.53       1.4424512    0.0065990529
      7043.57       1.4464581    0.0065452275
      7050.62       1.4497405    0.0064639118
      7057.66       1.4456570    0.0063824681
      7064.72       1.4440677    0.0062753831
      7071.79       1.4451269    0.0062253544
      7078.86       1.4354162    0.0061497471
      7085.94       1.4270024    0.0060887095
      7093.03       1.4176083    0.0060471554
      7100.12       1.4169756    0.0060154714
      7107.22       1.4174279    0.0060025235
      7114.33       1.4172152    0.0059606541
      7121.44       1.4189896    0.0059139499
      7128.56       1.4278064    0.0058647360
      7135.69       1.4290122    0.0058108541
      7142.83       1.4357432    0.0057303352
      7149.97       1.4423251    0.0056679525
      7157.12       1.4540776    0.0056244698
      7164.28       1.4607373    0.0055525891
      7171.44       1.4694750    0.0054749715
      7178.62       1.4774288    0.0053941973
      7185.80       1.4800830    0.0053120710
      7192.98       1.4810853    0.0052287899
      7200.17       1.4794423    0.0051440376
      7207.38       1.4808137    0.0050575919
      7214.58       1.4775153    0.0049691553
      7221.80       1.4776991    0.0049022984
      7229.02       1.4755665    0.0048136183
      7236.25       1.4664184    0.0047256340
      7243.49       1.4619951    0.0046586543
      7250.73       1.4558033    0.0046953284
      7257.98       1.4467909    0.0047516456
      7265.24       1.4359099    0.0048214492
      7272.51       1.4252103    0.0049081523
      7279.78       1.4123076    0.0050177271
      7287.06       1.3948511    0.0051587615
      7294.35       1.3771373    0.0053434334
      7301.64       1.3616501    0.0055925114
      7308.94       1.3443702    0.0059321707
      7316.25       1.3296258    0.0063918509
      7323.57       1.3146303    0.0070006500
      7330.89       1.2993957    0.0077839350
      7338.22       1.2855719    0.0087825025
      7345.56       1.2731991     0.010050359
      7352.91       1.2604994     0.011651924
      7360.26       1.2495731     0.013663015
