# starting wavelength =        3460.8000
# ending wavelength =        7358.3500
# O2 telluric scale =        0
# O2 telluric shift =        0
# H2O telluric scale =        0
# H2O telluric shift =        0
      3464.04      0.51915525     0.026950760
      3467.51      0.50751303     0.022959727
      3470.98      0.49419227     0.019788558
      3474.45      0.48163519     0.016825403
      3477.92      0.47338484     0.014976576
      3481.40      0.46646983     0.013536007
      3484.88      0.46027846     0.012420971
      3488.37      0.45393876     0.011724402
      3491.86      0.44740795     0.011009171
      3495.35      0.44350985     0.010453906
      3498.84      0.43924381     0.010018663
      3502.34      0.43470561    0.0096732831
      3505.84      0.42922130    0.0093247361
      3509.35      0.42666900    0.0091031180
      3512.86      0.42004413    0.0089186687
      3516.37      0.41778961    0.0087627648
      3519.89      0.41277962    0.0085861012
      3523.41      0.41151610    0.0084642942
      3526.93      0.41478817    0.0084462980
      3530.46      0.41365374    0.0084293852
      3533.99      0.41063768    0.0084074452
      3537.53      0.40773645    0.0083902592
      3541.06      0.41444435    0.0084193284
      3544.60      0.41205786    0.0084480991
      3548.15      0.41698449    0.0083800380
      3551.70      0.41878707    0.0084091956
      3555.25      0.41929093    0.0083922873
      3558.80      0.41696643    0.0084231308
      3562.36      0.41709014    0.0083997959
      3565.92      0.41943290    0.0083838928
      3569.49      0.41660455    0.0084135785
      3573.06      0.41743850    0.0084450436
      3576.64      0.42399145    0.0083749734
      3580.21      0.43426792    0.0084060656
      3583.79      0.43448746    0.0083909575
      3587.38      0.44336112    0.0083673551
      3590.96      0.44364394    0.0083992571
      3594.55      0.44819031    0.0083822390
      3598.15      0.45437436    0.0084155401
      3601.75      0.45660551    0.0083926502
      3605.35      0.45592792    0.0083768441
      3608.96      0.45033187    0.0084089986
      3612.56      0.44923668    0.0084435072
      3616.18      0.44379952    0.0083706504
      3619.79      0.44201830    0.0084048868
      3623.41      0.44039767    0.0084386936
      3627.04      0.43757377    0.0083664992
      3630.66      0.43306494    0.0084003383
      3634.29      0.42872942    0.0084360230
      3637.93      0.42615798    0.0083621930
      3641.57      0.43069122    0.0083977018
      3645.21      0.43340021    0.0084332553
      3648.86      0.44265619    0.0084167651
      3652.50      0.44718181    0.0083950694
      3656.16      0.46301876    0.0084321113
      3659.81      0.46853325    0.0084693882
      3663.47      0.48044271    0.0083940824
      3667.14      0.49542822    0.0084311672
      3670.80      0.50741662    0.0084701734
      3674.48      0.52374411    0.0083931367
      3678.15      0.53708062    0.0084322220
      3681.83      0.54717100    0.0084706475
      3685.51      0.55354889    0.0084506048
      3689.20      0.55889796    0.0084326223
      3692.88      0.56475775    0.0084741217
      3696.58      0.56036982    0.0084517607
      3700.27      0.55504714    0.0084935024
      3703.98      0.54484662    0.0084759990
      3707.68      0.52595189    0.0084552194
      3711.39      0.50922518    0.0084971798
      3715.10      0.48810088    0.0085402406
      3718.81      0.46907722    0.0084595298
      3722.53      0.44242656    0.0085020327
      3726.26      0.41758368    0.0085470973
      3729.98      0.38678815    0.0085251876
      3733.71      0.35923002    0.0085095803
      3737.45      0.34246019    0.0085532985
      3741.18      0.32670095    0.0085330269
      3744.93      0.31185781    0.0085791715
      3748.67      0.29941921    0.0085649709
      3752.42      0.28830942    0.0085414945
      3756.17      0.28660158    0.0085881271
      3759.93      0.28498728    0.0086384812
      3763.69      0.28422156    0.0086161845
      3767.45      0.28200420    0.0086014517
      3771.22      0.28490986    0.0085785827
      3774.99      0.28262325    0.0086281761
      3778.77      0.27738130    0.0086804585
      3782.54      0.28621330    0.0086585824
      3786.33      0.28916930    0.0087122307
      3790.11      0.28972169    0.0086938022
      3793.90      0.29768293    0.0086731016
      3797.70      0.30452349    0.0087281361
      3801.50      0.31032735    0.0087064880
      3805.30      0.31814551    0.0087628956
      3809.10      0.32566643    0.0087441083
      3812.91      0.33306012    0.0087236582
      3816.73      0.34352398    0.0087818751
      3820.54      0.35681321    0.0088390572
      3824.36      0.37962803    0.0088191852
      3828.19      0.39872601    0.0088798503
      3832.02      0.42166052    0.0088587449
      3835.85      0.44681483    0.0088427816
      3839.68      0.47690643    0.0089023677
      3843.52      0.51231193    0.0088817698
      3847.37      0.54411479    0.0089475606
      3851.22      0.57834682    0.0089253710
      3855.07      0.61692722    0.0089113592
      3858.92      0.65901425    0.0088874805
      3862.78      0.70274772    0.0088662857
      3866.64      0.74413625    0.0088513883
      3870.51      0.79477333    0.0088286204
      3874.38      0.83660208    0.0088076422
      3878.26      0.87273228    0.0087928482
      3882.13      0.90772386    0.0087702886
      3886.02      0.94879716    0.0086689052
      3889.90      0.98302075    0.0087346437
      3893.79       1.0161744    0.0087126188
      3897.69       1.0552934    0.0086117462
      3901.59       1.0938760    0.0085934801
      3905.49       1.1216908    0.0086556417
      3909.39       1.1468225    0.0085556389
      3913.30       1.1642776    0.0085370927
      3917.22       1.1813719    0.0085994448
      3921.13       1.1945258    0.0084997151
      3925.06       1.2058384    0.0084813948
      3928.98       1.2172150    0.0084646051
      3932.91       1.2254490    0.0084449091
      3936.84       1.2309048    0.0084260953
      3940.78       1.2339173    0.0084090303
      3944.72       1.2368146    0.0083903634
      3948.67       1.2290679    0.0083715284
      3952.61       1.2239368    0.0083540529
      3956.57       1.2241832    0.0082602079
      3960.52       1.2310318    0.0083176185
      3964.48       1.2370795    0.0082997412
      3968.45       1.2511253    0.0082081459
      3972.42       1.2706031    0.0081886579
      3976.39       1.2881184    0.0082463058
      3980.37       1.3074738    0.0082290061
      3984.35       1.3270880    0.0081372784
      3988.33       1.3446625    0.0081184751
      3992.32       1.3635908    0.0081760423
      3996.31       1.3780084    0.0080870623
      4000.31       1.3919912    0.0080678142
      4004.31       1.4012246    0.0080495477
      4008.31       1.4053817    0.0081068846
      4012.32       1.4016944    0.0080184077
      4016.33       1.3871476    0.0079995039
      4020.35       1.3699829    0.0079815125
      4024.37       1.3487625    0.0078933481
      4028.40       1.3279242    0.0079511003
      4032.42       1.2998853    0.0079325185
      4036.46       1.2747622    0.0079146490
      4040.50       1.2490929    0.0078271627
      4044.54       1.2183995    0.0078111639
      4048.58       1.1885692    0.0078667127
      4052.63       1.1642020    0.0078489759
      4056.68       1.1435779    0.0077621226
      4060.74       1.1269967    0.0077460178
      4064.80       1.1111334    0.0077304488
      4068.86       1.0942317    0.0077845560
      4072.93       1.0714746    0.0076980830
      4077.01       1.0500102    0.0076817876
      4081.08       1.0306633    0.0076660334
      4085.17       1.0028211    0.0076510042
      4089.25      0.97727768    0.0075679402
      4093.34      0.98469650     0.010774719
      4097.43      0.94419912     0.010755243
      4101.53      0.89982627     0.010737829
      4105.63      0.85358429     0.010724222
      4109.74      0.82591714     0.010510109
      4113.85      0.80793204     0.010664936
      4117.96      0.79565708     0.010644739
      4122.08      0.78245870     0.010626753
      4126.20      0.78094835     0.010610338
      4130.33      0.77096672     0.010597393
      4134.46      0.76585264     0.010382231
      4138.59      0.75881881     0.010361235
      4142.73      0.74393582     0.010516129
      4146.88      0.74044150     0.010498427
      4151.02      0.72612205     0.010482333
      4155.18      0.71633098     0.010281371
      4159.33      0.69672241     0.010258761
      4163.49      0.68807903     0.010237942
      4167.65      0.67212328     0.010217672
      4171.82      0.65506074     0.010371191
      4175.99      0.63837143     0.010353755
      4180.17      0.62852822     0.010337208
      4184.35      0.62465351     0.010139846
      4188.54      0.62253994     0.010118263
      4192.72      0.63240310     0.010096967
      4196.92      0.64325761     0.010077006
      4201.11      0.66260381     0.010058203
      4205.31      0.68627460     0.010040680
      4209.52      0.69853861     0.010192629
      4213.73      0.72072048     0.010006039
      4217.94      0.73608489    0.0099840514
      4222.16      0.74784694    0.0099619959
      4226.38      0.74869448    0.0099413047
      4230.61      0.75273639    0.0099216825
      4234.84      0.75809632    0.0099032612
      4239.08      0.75905304    0.0098845364
      4243.32      0.75841742    0.0098668519
      4247.56      0.75155759    0.0098491970
      4251.81      0.74825763    0.0096584817
      4256.06      0.74249010    0.0098165269
      4260.32      0.72963870    0.0097959161
      4264.58      0.71386203    0.0097761831
      4268.84      0.71442408    0.0097559014
      4273.11      0.71334078    0.0097367918
      4277.38      0.71318736    0.0097172215
      4281.66      0.70815860    0.0096984732
      4285.94      0.70479389    0.0096806968
      4290.23      0.70363914    0.0096631161
      4294.52      0.71080532    0.0096460584
      4298.81      0.71861835    0.0094578885
      4303.11      0.72804278    0.0094413618
      4307.42      0.73968368    0.0094243762
      4311.72      0.74753416    0.0094081867
      4316.04      0.75657796    0.0093917371
      4320.35      0.75173187    0.0093759710
      4324.67      0.74464681    0.0093592160
      4329.00      0.73773244    0.0093429800
      4333.33      0.73114335    0.0093275017
      4337.66      0.72488490    0.0093113529
      4342.00      0.71759152    0.0092961234
      4346.34      0.71627208    0.0092794854
      4350.69      0.71933733    0.0092637427
      4355.04      0.73253208    0.0092475165
      4359.39      0.73737426    0.0092316249
      4363.75      0.74101835    0.0092163732
      4368.12      0.73759211    0.0091999084
      4372.48      0.73197589    0.0091841153
      4376.86      0.72302365    0.0091676764
      4381.23      0.71336666    0.0091520460
      4385.61      0.70605882    0.0091357966
      4390.00      0.69758898    0.0091201506
      4394.39      0.68782645    0.0091033574
      4398.79      0.67725909    0.0090870495
      4403.18      0.66340917    0.0090713653
      4407.59      0.65024960    0.0090550094
      4412.00      0.64046018    0.0090395237
      4416.41      0.63172890    0.0090227492
      4420.82      0.63624111    0.0090068855
      4425.25      0.63943283    0.0089901517
      4429.67      0.64390902    0.0089740763
      4434.10      0.65433741    0.0089589800
      4438.54      0.66691885    0.0089429032
      4442.97      0.68271968    0.0089278348
      4447.42      0.70287554    0.0089116391
      4451.86      0.72975779    0.0088963662
      4456.32      0.75734683    0.0087434670
      4460.77      0.79509167    0.0087284571
      4465.24      0.82971703    0.0087147761
      4469.70      0.86522972    0.0086998046
      4474.17      0.90195218    0.0086863018
      4478.65      0.93425888    0.0086720572
      4483.12      0.96867538    0.0086592206
      4487.61       1.0026390    0.0086464498
      4492.09       1.0312196    0.0086338421
      4496.59       1.0575487    0.0086215783
      4501.08       1.0767594    0.0087438014
      4505.58       1.0965523    0.0087283231
      4510.09       1.1174146    0.0085780223
      4514.60       1.1398929    0.0085635808
      4519.12       1.1618369    0.0085496604
      4523.63       1.1886604    0.0085353090
      4528.16       1.2185627    0.0085227803
      4532.69       1.2429887    0.0085100125
      4537.22       1.2736145    0.0084991441
      4541.76       1.2944101    0.0084880280
      4546.30       1.3188241    0.0083350801
      4550.85       1.3426915    0.0083205712
      4555.40       1.3664220    0.0084456564
      4559.95       1.3955830    0.0084326026
      4564.51       1.4274152    0.0084199516
      4569.08       1.4617484    0.0084080126
      4573.65       1.4920093    0.0083968131
      4578.22       1.5202536    0.0082502232
      4582.80       1.5356431    0.0082356987
      4587.38       1.5473050    0.0082213896
      4591.97       1.5438059    0.0083463523
      4596.56       1.5265761    0.0083336036
      4601.16       1.5059415    0.0083217140
      4605.76       1.4860878    0.0081823364
      4610.37       1.4663737    0.0081664133
      4614.98       1.4398050    0.0081519248
      4619.59       1.4195209    0.0081380844
      4624.21       1.3991892    0.0082621832
      4628.84       1.3798416    0.0082515715
      4633.47       1.3628872    0.0081131880
      4638.10       1.3481583    0.0080976074
      4642.74       1.3348372    0.0080828559
      4647.38       1.3249637    0.0080698051
      4652.03       1.3123497    0.0081943374
      4656.68       1.2913846    0.0080600603
      4661.34       1.2745049    0.0080438791
      4666.00       1.2500578    0.0080289542
      4670.67       1.2259607    0.0080153872
      4675.33       1.2110493    0.0080041929
      4680.01       1.2013242    0.0080060359
      4684.69       1.1892208    0.0079899372
      4689.38       1.1783895    0.0079753946
      4694.07       1.1622313    0.0079624859
      4698.76       1.1513388    0.0078363925
      4703.46       1.1327369    0.0079514377
      4708.16       1.1170980    0.0079357290
      4712.87       1.1032774    0.0079226158
      4717.58       1.0935393    0.0077958541
      4722.30       1.0920065    0.0077873354
      4727.03       1.0929304    0.0078968739
      4731.75       1.0957108    0.0078828455
      4736.48       1.0896869    0.0077572352
      4741.22       1.0844062    0.0077480401
      4745.96       1.0704386    0.0078582337
      4750.71       1.0495276    0.0078440435
      4755.46       1.0222939    0.0077188129
      4760.22      0.98876008    0.0077109434
      4764.97      0.95132784    0.0078188352
      4769.74      0.91794047    0.0076922217
      4774.51      0.88577995    0.0076820723
      4779.29      0.85501774    0.0076745892
      4784.07      0.83025468    0.0077808299
      4788.85      0.81530136    0.0076551093
      4793.64      0.80067283    0.0076465620
      4798.43      0.79051479    0.0076409834
      4803.23      0.78068525    0.0076296903
      4808.03      0.78309127    0.0076200879
      4812.84      0.80029175    0.0076129924
      4817.66      0.83657490    0.0076051000
      4822.48      0.87299302    0.0075943152
      4827.30      0.91662297    0.0075865670
      4832.12      0.95353405    0.0074631288
      4836.96      0.98042221    0.0075694946
      4841.79      0.98795037    0.0075609278
      4846.63      0.97605587    0.0074392580
      4851.48      0.95951211    0.0075449303
      4856.33      0.94260761    0.0075367588
      4861.19      0.92561745    0.0074160284
      4866.05      0.90707800    0.0075210505
      4870.92      0.90045314    0.0075127806
      4875.79      0.89851967    0.0073921255
      4880.66      0.90105954    0.0074970000
      4885.55      0.91639924    0.0074898327
      4890.43      0.93451702    0.0073688773
      4895.32      0.95736642    0.0074739782
      4900.22      0.98511311    0.0074674364
      4905.12       1.0168617    0.0073453303
      4910.02       1.0467709    0.0074512569
      4914.94       1.0775977    0.0073359163
      4919.85       1.1050154    0.0073226941
      4924.77       1.1371504    0.0074297944
      4929.70       1.1810780    0.0073119153
      4934.62       1.2189676    0.0073001242
      4939.56       1.2574896    0.0073031831
      4944.50       1.2871482    0.0072881269
      4949.44       1.3218401    0.0072785553
      4954.39       1.3388909    0.0072784959
      4959.35       1.3453384    0.0072664085
      4964.31       1.3387454    0.0072698434
      4969.27       1.3245958    0.0072547406
      4974.24       1.2985752    0.0071461336
      4979.22       1.2630980    0.0072446195
      4984.20       1.2199456    0.0072329360
      4989.18       1.1678239    0.0072357424
      4994.17       1.1236416    0.0072214163
      4999.16       1.0711202    0.0071143707
      5004.16       1.0221331    0.0072108512
      5009.17      0.97652734    0.0071020271
      5014.18      0.93970825    0.0072008819
      5019.19      0.91242025    0.0071886331
      5024.21      0.89461646    0.0070847870
      5029.23      0.88530186    0.0071774349
      5034.26      0.88643369    0.0070723370
      5039.30      0.89454781    0.0071669247
      5044.34      0.91041339    0.0070607583
      5049.39      0.92444898    0.0071564143
      5054.43      0.93626226    0.0070490389
      5059.49      0.95101524    0.0071457628
      5064.55      0.96793267    0.0070377245
      5069.61      0.98383602    0.0070345933
      5074.68      0.99881237    0.0070270544
      5079.76       1.0161120    0.0070232099
      5084.84       1.0346440    0.0070161366
      5089.92       1.0550087    0.0070120432
      5095.01       1.0678895    0.0070053587
      5100.11       1.0806467    0.0070011836
      5105.21       1.0908446    0.0069954818
      5110.31       1.0989623    0.0069909096
      5115.42       1.1104619    0.0069847279
      5120.54       1.1194336    0.0069807429
      5125.66       1.1270932    0.0069742748
      5130.79       1.1345833    0.0069708066
      5135.92       1.1411283    0.0069647264
      5141.05       1.1439000    0.0069615491
      5146.20       1.1398634    0.0069543328
      5151.34       1.1326924    0.0068519490
      5156.49       1.1239085    0.0069445830
      5161.65       1.1178387    0.0068411361
      5166.81       1.1159089    0.0069353713
      5171.98       1.1161404    0.0068308211
      5177.15       1.1222945    0.0069260976
      5182.33       1.1342718    0.0068210794
      5187.51       1.1439018    0.0069176327
      5192.70       1.1509294    0.0068112114
      5197.89       1.1594993    0.0068119887
      5203.09       1.1673921    0.0069031931
      5208.29       1.1760168    0.0068007877
      5213.50       1.1940985    0.0068946259
      5218.72       1.2166400    0.0067903857
      5223.93       1.2410107    0.0067929054
      5229.16       1.2669552    0.0067810924
      5234.39       1.2915954    0.0067812350
      5239.62       1.3113544    0.0067721640
      5244.86       1.3303920    0.0067706177
      5250.11       1.3438002    0.0067736039
      5255.36       1.3577397    0.0067603698
      5260.61       1.3671304    0.0067614730
      5265.87       1.3795449    0.0066642522
      5271.14       1.3968224    0.0067497998
      5276.41       1.4104233    0.0067526613
      5281.69       1.4228754    0.0067405866
      5286.97       1.4349673    0.0067403266
      5292.26       1.4408448    0.0066454562
      5297.55       1.4450654    0.0067298620
      5302.85       1.4489889    0.0067307593
      5308.15       1.4478840    0.0066341001
      5313.46       1.4455879    0.0067195206
      5318.77       1.4369235    0.0066274700
      5324.09       1.4311459    0.0066233110
      5329.42       1.4217051    0.0067093306
      5334.75       1.4070315    0.0066164616
      5340.08       1.3844084    0.0066127402
      5345.42       1.3653713    0.0066988880
      5350.77       1.3442863    0.0066061522
      5356.12       1.3256511    0.0066021090
      5361.48       1.3095154    0.0066883050
      5366.83       1.2965018    0.0065959702
      5372.20       1.2885382    0.0065917781
      5377.58       1.2833011    0.0066774097
      5382.95       1.2809048    0.0065862345
      5388.34       1.2786682    0.0065817018
      5393.72       1.2807359    0.0065800815
      5399.12       1.2903961    0.0065772165
      5404.52       1.3141656    0.0065719687
      5409.92       1.3389762    0.0065695698
      5415.33       1.3666198    0.0064777924
      5420.75       1.3972502    0.0065629977
      5426.17       1.4271194    0.0065591518
      5431.60       1.4498046    0.0064667706
      5437.03       1.4635361    0.0065545758
      5442.47       1.4645130    0.0065495972
      5447.91       1.4669672    0.0065470866
      5453.36       1.4600237    0.0064552408
      5458.81       1.4459395    0.0065415066
      5464.27       1.4280676    0.0065375468
      5469.73       1.4117901    0.0065351344
      5475.20       1.3941548    0.0064431185
      5480.68       1.3783668    0.0064432350
      5486.16       1.3625944    0.0065255608
      5491.65       1.3442963    0.0064321433
      5497.14       1.3348763    0.0064307225
      5502.64       1.3236159    0.0064307197
      5508.14       1.3113287    0.0065137628
      5513.65       1.3015778    0.0064199457
      5519.16       1.2904071    0.0064181236
      5524.68       1.2844221    0.0064175166
      5530.20       1.2790517    0.0064179520
      5535.73       1.2764956    0.0064189469
      5541.27       1.2747764    0.0064056763
      5546.81       1.2756684    0.0064042054
      5552.36       1.2787678    0.0064032544
      5557.91       1.2753999    0.0064032530
      5563.47       1.2737656    0.0063154033
      5569.04       1.2673328    0.0063912587
      5574.60       1.2608975    0.0063891178
      5580.18       1.2443238    0.0063878674
      5585.76       1.2232724    0.0063874948
      5591.35       1.1917877    0.0063015677
      5596.94       1.1543747    0.0062984161
      5602.53       1.1068491    0.0062956670
      5608.14       1.0533523    0.0063721249
      5613.75      0.99489714    0.0063704609
      5619.36      0.92786342    0.0063694923
      5624.98      0.85993455    0.0062850242
      5630.60      0.79645351    0.0062814902
      5636.23      0.75234549    0.0062785912
      5641.87      0.73607519    0.0062759212
      5647.51      0.75180873    0.0062737480
      5653.16      0.79244576    0.0063500213
      5658.82      0.85436951    0.0063485399
      5664.47      0.91314810    0.0062657119
      5670.14      0.96091810    0.0062620648
      5675.81      0.98584832    0.0062586827
      5681.48      0.99039089    0.0062555785
      5687.17      0.98703320    0.0062527333
      5692.85      0.98459540    0.0062501160
      5698.55      0.98454053    0.0062476607
      5704.25      0.99068341    0.0062456507
      5709.95       1.0016628    0.0061610172
      5715.66       1.0124047    0.0061588240
      5721.38       1.0216474    0.0062365383
      5727.10       1.0275476    0.0062329436
      5732.83       1.0334094    0.0062296963
      5738.56       1.0443885    0.0062263959
      5744.30       1.0588226    0.0062232978
      5750.04       1.0769648    0.0062200155
      5755.79       1.0990204    0.0062168651
      5761.55       1.1242916    0.0062138105
      5767.31       1.1458676    0.0062108674
      5773.08       1.1720398    0.0062077745
      5778.85       1.1922090    0.0061230947
      5784.63       1.2063569    0.0061201750
      5790.41       1.2194692    0.0061172052
      5796.21       1.2241224    0.0061142235
      5802.00       1.2241986    0.0061117807
      5807.81       1.2195031    0.0061099102
      5813.61       1.2125134    0.0061090959
      5819.43       1.2033275    0.0061107005
      5825.25       1.1910124    0.0061165133
      5831.07       1.1742190    0.0061253461
      5836.90       1.1681540    0.0061353377
      5842.74       1.1755675    0.0061414289
      5848.58       1.1917479    0.0061409479
      5854.43       1.2127416    0.0061355867
      5860.29       1.2354540    0.0061303606
      5866.15       1.2621937    0.0061251946
      5872.01       1.2795036    0.0061185025
      5877.89       1.2826800    0.0061116984
      5883.76       1.2803372    0.0061075394
      5889.65       1.2803001    0.0061047686
      5895.54       1.2812801    0.0061027083
      5901.43       1.2809480    0.0060255887
      5907.34       1.2806774    0.0060171538
      5913.24       1.2735751    0.0060073618
      5919.16       1.2676335    0.0059994066
      5925.08       1.2604080    0.0059930616
      5931.00       1.2477040    0.0059858369
      5936.93       1.2355971    0.0059778729
      5942.87       1.2227191    0.0059699761
      5948.81       1.2098064    0.0059625374
      5954.76       1.1942213    0.0059555627
      5960.72       1.1788065    0.0060186171
      5966.68       1.1573069    0.0059405127
      5972.64       1.1368760    0.0059344574
      5978.62       1.1178056    0.0059292139
      5984.60       1.1038082    0.0059246955
      5990.58       1.0946196    0.0059201309
      5996.57       1.0914135    0.0059156976
      6002.57       1.0955738    0.0059116073
      6008.57       1.1019830    0.0059080927
      6014.58       1.1110210    0.0058310865
      6020.60       1.1155577    0.0058252527
      6026.62       1.1212746    0.0058935273
      6032.65       1.1150113    0.0058885142
      6038.68       1.1056679    0.0058836641
      6044.72       1.0917179    0.0058787983
      6050.76       1.0733137    0.0058745795
      6056.81       1.0557792    0.0057984504
      6062.87       1.0396000    0.0057923328
      6068.93       1.0301252    0.0057864563
      6075.00       1.0264300    0.0058536990
      6081.08       1.0327487    0.0058485151
      6087.16       1.0357981    0.0057752237
      6093.25       1.0436713    0.0057681220
      6099.34       1.0574837    0.0057613153
      6105.44       1.0776969    0.0057549015
      6111.54       1.0987065    0.0057493107
      6117.66       1.1193074    0.0057496187
      6123.78       1.1352546    0.0057416282
      6129.90       1.1438892    0.0057341064
      6136.03       1.1470676    0.0057270936
      6142.17       1.1323074    0.0057210676
      6148.31       1.1086023    0.0057206734
      6154.46       1.0822383    0.0057120621
      6160.61       1.0581545    0.0057044850
      6166.77       1.0395864    0.0056973596
      6172.94       1.0215260    0.0056270614
      6179.11       1.0096025    0.0056888547
      6185.29      0.99685791    0.0056809281
      6191.48      0.98940128    0.0056752086
      6197.67      0.97635204    0.0056099991
      6203.87      0.96766093    0.0056097875
      6210.07      0.95687068    0.0056859291
      6216.28      0.95108770    0.0056463467
      6222.50      0.94717953    0.0056699898
      6228.72      0.94454478    0.0056874179
      6234.95      0.94332055    0.0057560784
      6241.19      0.93938171    0.0056738091
      6247.42      0.94060993    0.0056513032
      6253.67      0.94036238    0.0056320699
      6259.93      0.94180261    0.0056071318
      6266.19      0.94067648    0.0055849501
      6272.46      0.94472588    0.0055673427
      6278.73      0.94582795    0.0055487828
      6285.01      0.95075701    0.0055337363
      6291.29      0.95894603    0.0055216378
      6297.58      0.96688006    0.0054447346
      6303.88      0.97732171    0.0054972109
      6310.19      0.98802124    0.0054868470
      6316.50       1.0015998    0.0054116741
      6322.81       1.0114647    0.0054644436
      6329.14       1.0198880    0.0054547233
      6335.47       1.0234720    0.0053809437
      6341.80       1.0309942    0.0054338606
      6348.14       1.0371233    0.0054246263
      6354.49       1.0416469    0.0053510531
      6360.85       1.0395051    0.0054045548
      6367.21       1.0350463    0.0053348185
      6373.57       1.0312285    0.0053237291
      6379.95       1.0199186    0.0053782107
      6386.33      0.99993669    0.0053087182
      6392.72      0.97732158    0.0053002843
      6399.11      0.95439945    0.0052999035
      6405.51      0.93613899    0.0052943671
      6411.92      0.92528970    0.0052926539
      6418.32      0.91700296    0.0052950340
      6424.74      0.92153382    0.0052884641
      6431.17      0.93963540    0.0052827694
      6437.60      0.95649814    0.0052649314
      6444.04      0.97398416    0.0051909442
      6450.48      0.99196985    0.0052368811
      6456.94       1.0074658    0.0052250708
      6463.39       1.0192979    0.0052168127
      6469.85       1.0301832    0.0052013428
      6476.33       1.0403130    0.0051304127
      6482.80       1.0533861    0.0051727636
      6489.28       1.0656739    0.0051051406
      6495.77       1.0753175    0.0051529930
      6502.27       1.0829707    0.0050837966
      6508.77       1.0875704    0.0051279538
      6515.28       1.0892005    0.0050554047
      6521.80       1.0880608    0.0035616895
      6528.32       1.0912407    0.0035523795
      6534.85       1.0922990    0.0035412919
      6541.38       1.0940048    0.0035316394
      6547.92       1.0952120    0.0035215084
      6554.47       1.0948429    0.0035126065
      6561.03       1.0947891    0.0035030177
      6567.59       1.0942659    0.0034941771
      6574.16       1.0940897    0.0034846605
      6580.73       1.0914452    0.0034758176
      6587.31       1.0881998    0.0034660671
      6593.90       1.0849256    0.0034570702
      6600.50       1.0798141    0.0034289549
      6607.10       1.0748591    0.0034183750
      6613.70       1.0697717    0.0034099131
      6620.32       1.0636403    0.0033991166
      6626.94       1.0584188    0.0033905659
      6633.57       1.0525687    0.0033794326
      6640.20       1.0479634    0.0033509550
      6646.84       1.0433550    0.0033593987
      6653.49       1.0387463    0.0033307029
      6660.14       1.0340707    0.0033389486
      6666.80       1.0308043    0.0033274453
      6673.47       1.0283907    0.0032988750
      6680.14       1.0249915    0.0033062709
      6686.82       1.0225261    0.0032774648
      6693.51       1.0187840    0.0032847330
      6700.20       1.0152260    0.0032556728
      6706.90       1.0118198    0.0032439416
      6713.61       1.0068726    0.0032335130
      6720.32       1.0016817    0.0032213762
      6727.05      0.99233660    0.0031927921
      6733.77      0.98076615    0.0031989200
      6740.51      0.96717965    0.0031913856
      6747.25      0.95338132    0.0031765708
      6754.00      0.94034086    0.0031870091
      6760.75      0.92618209    0.0031547039
      6767.51      0.91399771    0.0031452165
      6774.28      0.90288099    0.0031492662
      6781.05      0.89054240    0.0031652749
      6787.84      0.88111739    0.0031928910
      6794.62      0.87344893    0.0032213987
      6801.42      0.86726296    0.0032606517
      6808.22      0.86419438    0.0032982629
      6815.03      0.86202796    0.0033059936
      6821.85      0.85985567    0.0033382308
      6828.67      0.85774869    0.0033155037
      6835.50      0.85880178    0.0032938676
      6842.33      0.85784709    0.0032542942
      6849.17      0.85661451    0.0032123999
      6856.02      0.85359043    0.0031558250
      6862.88      0.85242496    0.0031007662
      6869.74      0.85187589    0.0030433428
      6876.61      0.85114076    0.0030274687
      6883.49      0.85183889    0.0029924005
      6890.37      0.85329918    0.0030224858
      6897.27      0.85679279    0.0029202594
      6904.16      0.86026752    0.0028990389
      6911.07      0.85914473    0.0028696811
      6917.98      0.86222486    0.0028674934
      6924.89      0.86477003    0.0028735081
      6931.82      0.86585328    0.0028695308
      6938.75      0.86777893    0.0028895635
      6945.69      0.86786499    0.0028894557
      6952.64      0.86780421    0.0028800069
      6959.59      0.86714340    0.0028445157
      6966.55      0.86826718    0.0028120760
      6973.52      0.86882293    0.0027605273
      6980.49      0.87138496    0.0026881216
      6987.47      0.87395306    0.0026318356
      6994.46      0.87827391    0.0025655770
      7001.46      0.88259355    0.0025055268
      7008.46      0.88738792    0.0024525979
      7015.46      0.89024599    0.0024085578
      7022.48      0.89313066    0.0023712070
      7029.51      0.89841826    0.0023462493
      7036.53      0.90405443    0.0023456244
      7043.57      0.90661900    0.0022741670
      7050.62      0.90614601    0.0022388841
      7057.66      0.90225398    0.0022043295
      7064.72      0.89692607    0.0021718330
      7071.79      0.88989740    0.0021537594
      7078.86      0.88333821    0.0021326074
      7085.94      0.87918043    0.0021077498
      7093.03      0.87582571    0.0020906034
      7100.12      0.87368292    0.0020707288
      7107.22      0.87111312    0.0020578627
      7114.33      0.87028598    0.0020350861
      7121.44      0.87172768    0.0020111586
      7128.56      0.87304119    0.0019849136
      7135.69      0.87589312    0.0019575570
      7142.83      0.88004641    0.0019287813
      7149.97      0.88382177    0.0019071919
      7157.12      0.88664566    0.0018751244
      7164.28      0.88918012    0.0018418644
      7171.44      0.89168451    0.0018084165
      7178.62      0.89455104    0.0017707093
      7185.80      0.89778693    0.0017371885
      7192.98      0.90221783    0.0017033237
      7200.17      0.90657146    0.0016689592
      7207.38      0.90732063    0.0016344516
      7214.58      0.90997926    0.0016002773
      7221.80      0.91102027    0.0015664479
      7229.02      0.91020503    0.0015327922
      7236.25      0.90938893    0.0015064693
      7243.49      0.90915522    0.0015098379
      7250.73      0.90849744    0.0015236056
      7257.98      0.90647428    0.0015410703
      7265.24      0.90485040    0.0015633506
      7272.51      0.90257891    0.0015921692
      7279.78      0.89953190    0.0016301523
      7287.06      0.89777024    0.0016817440
      7294.35      0.89645990    0.0017527390
      7301.64      0.89553907    0.0018491607
      7308.94      0.89502871    0.0019777273
      7316.25      0.89405798    0.0021463320
      7323.57      0.89382618    0.0023651678
      7330.89      0.89391842    0.0026491179
      7338.22      0.89468893    0.0030136262
      7345.56      0.89574462    0.0034777489
      7352.91      0.89701258    0.0040637715
