# starting wavelength =        3455.6300
# ending wavelength =        7375.0700
# O2 telluric scale =        0
# O2 telluric shift =        0
# H2O telluric scale =        0
# H2O telluric shift =        0
      3457.13       1.5621075      0.45453588
      3460.58       1.4448457      0.38549415
      3464.04       1.3867390      0.33064056
      3467.51       1.3894908      0.28731951
      3470.98       1.3739728      0.25964207
      3474.45       1.3422015      0.23203163
      3477.92       1.3419470      0.21055015
      3481.40       1.3321001      0.19381757
      3484.88       1.2190838      0.18086328
      3488.37       1.1642491      0.16892639
      3491.86       1.1572769      0.16138525
      3495.35       1.2058177      0.15541276
      3498.84       1.2519264      0.15061551
      3502.34       1.2693485      0.14651050
      3505.84       1.2133342      0.14303376
      3509.35       1.2125562      0.14011227
      3512.86       1.2042566      0.13762031
      3516.37       1.1834126      0.13547422
      3519.89       1.1305359      0.13276982
      3523.41       1.1524957      0.13300073
      3526.93       1.1148249      0.13256623
      3530.46       1.0551157      0.13282216
      3533.99       1.0251195      0.13220015
      3537.53      0.92822256      0.13177634
      3541.06      0.98127373      0.13201780
      3544.60      0.95844337      0.13158792
      3548.15      0.96986464      0.13098656
      3551.70      0.99251646      0.13123728
      3555.25      0.96896812      0.13082090
      3558.80      0.99432816      0.13106677
      3562.36      0.96911685      0.12978729
      3565.92      0.93817959      0.13003850
      3569.49       1.0185064      0.13030818
      3573.06       1.0698869      0.12990065
      3576.64       1.0647447      0.12927844
      3580.21       1.0554446      0.12955747
      3583.79       1.1167545      0.12912137
      3587.38       1.0865675      0.12941775
      3590.96       1.1007183      0.12809959
      3594.55       1.0285544      0.12838836
      3598.15      0.96202694      0.12866857
      3601.75      0.89486686      0.12736772
      3605.35      0.79927884      0.12764743
      3608.96      0.83693170      0.12794773
      3612.56      0.85732068      0.12754774
      3616.18       1.0028780      0.12692697
      3619.79      0.96586055      0.12723317
      3623.41      0.92074920      0.12680413
      3627.04      0.84009691      0.12621887
      3630.66      0.84759839      0.12652629
      3634.29      0.81076523      0.12612112
      3637.93      0.79346246      0.12641770
      3641.57      0.76366415      0.12584004
      3645.21      0.71323898      0.12540595
      3648.86      0.67829411      0.12575322
      3652.50      0.69992434      0.12514813
      3656.16      0.77652248      0.12474346
      3659.81      0.78194763      0.12505858
      3663.47      0.83378406      0.12448457
      3667.14      0.87721870      0.12482239
      3670.80      0.94131168      0.12441912
      3674.48      0.93747082      0.12475124
      3678.15       1.0071659      0.12417853
      3681.83       1.0334942      0.12374499
      3685.51       1.0166863      0.12413707
      3689.20      0.97312204      0.12353230
      3692.88      0.93660729      0.12390972
      3696.58      0.88880768      0.12347930
      3700.27      0.84299774      0.12290237
      3703.98      0.75897717      0.12328999
      3707.68      0.73148158      0.12368429
      3711.39      0.70352147      0.12228960
      3715.10      0.72600254      0.12267530
      3718.81      0.74024431      0.12309965
      3722.53      0.65761262      0.12250660
      3726.26      0.57640677      0.12210103
      3729.98      0.60787792      0.12249735
      3733.71      0.57114240      0.12193012
      3737.45      0.53333851      0.12235989
      3741.18      0.53024715      0.12196740
      3744.93      0.52915784      0.12135744
      3748.67      0.56226123      0.12179461
      3752.42      0.60393787      0.12226698
      3756.17      0.67700571      0.12078916
      3759.93      0.69687135      0.12127295
      3763.69      0.77511489      0.12067437
      3767.45      0.79076681      0.12114730
      3771.22      0.84309846      0.12163575
      3774.99      0.80429035      0.12013887
      3778.77      0.88529778      0.12063961
      3782.54      0.89813530      0.12111684
      3786.33      0.90198456      0.12055730
      3790.11      0.94450907      0.12106455
      3793.90      0.93507256      0.12068648
      3797.70      0.92660214      0.12006931
      3801.50      0.93211679      0.12057575
      3805.30      0.94032232      0.12002300
      3809.10      0.93316623      0.12055844
      3812.91      0.88859237      0.12111822
      3816.73      0.85544743      0.11956877
      3820.54      0.87092298      0.12010399
      3824.36      0.84338650      0.11954784
      3828.19      0.79454854      0.12012556
      3832.02      0.75176003      0.12071285
      3835.85      0.77089354      0.12016630
      3839.68      0.79567030      0.11969666
      3843.52      0.79367843      0.12037973
      3847.37      0.89911275      0.11976074
      3851.22      0.89407784      0.11917664
      3855.07      0.89902886      0.11878067
      3858.92      0.95983255      0.11817797
      3862.78      0.98541313      0.11760717
      3866.64       1.0564820      0.11720692
      3870.51       1.1267547      0.11661734
      3874.38       1.1186897      0.11605974
      3878.26       1.0965697      0.11565424
      3882.13       1.1135906      0.11507585
      3886.02       1.1289958      0.11351159
      3889.90       1.1775181      0.11411835
      3893.79       1.1555467      0.11354916
      3897.69       1.1635189      0.11200479
      3901.59       1.0633894      0.11260229
      3905.49       1.0230931      0.11203966
      3909.39       1.0306750      0.11051766
      3913.30       1.0587833      0.11110759
      3917.22       1.0579315      0.11055035
      3921.13       1.0283378      0.10904581
      3925.06       1.0484688      0.10854073
      3928.98       1.0349612      0.10908224
      3932.91       1.0497378      0.10759092
      3936.84       1.0582650      0.10708545
      3940.78       1.0650819      0.10762721
      3944.72       1.0587437      0.10615086
      3948.67      0.90554215      0.10564424
      3952.61      0.89692006      0.10516018
      3956.57      0.92375672      0.10473022
      3960.52      0.98472767      0.10422346
      3964.48       1.0026213      0.10373745
      3968.45      0.98332026      0.10233310
      3972.42      0.95452015      0.10282443
      3976.39      0.96161786      0.10233432
      3980.37      0.99465633      0.10096689
      3984.35      0.98614634      0.10046382
      3988.33      0.97140338      0.10095023
      3992.32      0.94356450     0.099623282
      3996.31      0.94706095     0.099117353
      4000.31       1.0374254     0.098623531
      4004.31       1.0736846     0.099105281
      4008.31       1.1468452     0.097796228
      4012.32       1.1647850     0.097299182
      4016.33       1.1550247     0.096820182
      4020.35       1.0903360     0.096500699
      4024.37       1.0248635     0.096002471
      4028.40       1.0600598     0.095518706
      4032.42       1.0573519     0.095044421
      4036.46       1.0730125     0.093782591
      4040.50       1.0599030     0.094244427
      4044.54       1.0689241     0.093763427
      4048.58       1.1619623     0.093298334
      4052.63       1.1574074     0.092052753
      4056.68       1.1077708     0.091611048
      4060.74       1.0488930     0.092044704
      4064.80       1.0352226     0.091580510
      4068.86       1.0184192     0.090359108
      4072.93       1.0228072     0.089919061
      4077.01       1.0702233     0.089489109
      4081.08       1.0714912     0.089901805
      4085.17       1.0431397     0.088693547
      4089.25      0.96063064     0.088258925
      4093.34      0.92545493     0.087829104
      4097.43      0.88636442     0.087408293
      4101.53      0.86757278     0.086251580
      4105.63      0.82260280     0.086627596
      4109.74      0.84672739     0.086201485
      4113.85      0.87144676     0.085781695
      4117.96      0.89713961     0.085368176
      4122.08      0.94854303     0.084245970
      4126.20       1.0158431     0.083822053
      4130.33      0.95249155     0.084194252
      4134.46      0.95283886     0.083782267
      4138.59      0.96296444     0.083373357
      4142.73      0.93679143     0.082290425
      4146.88      0.93677657     0.081872457
      4151.02      0.88934156     0.081462909
      4155.18      0.91285491     0.081060024
      4159.33      0.87566273     0.081421381
      4163.49      0.83729961     0.080386339
      4167.65      0.81429994     0.079976436
      4171.82      0.80949133     0.079573143
      4175.99      0.81146015     0.079177397
      4180.17      0.76845123     0.078781566
      4184.35      0.80684034     0.078394632
      4188.54      0.84807060     0.077372257
      4192.72      0.84111815     0.076994623
      4196.92      0.86006742     0.077349179
      4201.11      0.85995935     0.076956926
      4205.31      0.87233499     0.076573048
      4209.52      0.86407206     0.076191004
      4213.73      0.87606817     0.075196124
      4217.94      0.88222187     0.074826995
      4222.16      0.84844232     0.074458628
      4226.38      0.89456953     0.074097010
      4230.61      0.90130538     0.073736024
      4234.84      0.94949059     0.073378887
      4239.08      0.95556830     0.073025490
      4243.32      0.93588724     0.072076212
      4247.56      0.92470477     0.072375765
      4251.81      0.90278344     0.072016910
      4256.06      0.89890449     0.071662107
      4260.32      0.87326861     0.071313117
      4264.58      0.92982284     0.070962077
      4268.84      0.96723798     0.070617205
      4273.11      0.98079048     0.070272736
      4277.38       1.0010156     0.069931638
      4281.66       1.0033421     0.069048645
      4285.94       1.0313149     0.068705806
      4290.23       1.0409977     0.068368628
      4294.52       1.0125005     0.068030823
      4298.81       1.0592340     0.067697495
      4303.11       1.0272687     0.067365725
      4307.42       1.0877250     0.067035756
      4311.72       1.0661005     0.066710657
      4316.04       1.0458476     0.066384636
      4320.35      0.99038198     0.066062442
      4324.67      0.90842819     0.065741662
      4329.00      0.80264468     0.065422196
      4333.33      0.77349761     0.064593955
      4337.66      0.75688798     0.064280578
      4342.00      0.76508415     0.063970366
      4346.34      0.76838935     0.063661298
      4350.69      0.74605526     0.063354178
      4355.04      0.76042680     0.063048960
      4359.39      0.76943363     0.062745836
      4363.75      0.76356209     0.062444494
      4368.12      0.76433584     0.062144967
      4372.48      0.79724762     0.061847568
      4376.86      0.84654455     0.061551820
      4381.23      0.85350106     0.061256568
      4385.61      0.80831856     0.060963858
      4390.00      0.80855666     0.060671637
      4394.39      0.78307823     0.060382245
      4398.79      0.79468852     0.060093944
      4403.18      0.81526993     0.059807425
      4407.59      0.79404297     0.059522584
      4412.00      0.79585709     0.059239795
      4416.41      0.83002976     0.058959965
      4420.82      0.85507995     0.058680080
      4425.25      0.85288178     0.058402658
      4429.67      0.82759492     0.058127106
      4434.10      0.86475436     0.057852388
      4438.54      0.91740646     0.057580495
      4442.97      0.96387456     0.056808411
      4447.42      0.99626893     0.056542093
      4451.86       1.0091878     0.056277781
      4456.32       1.0416765     0.056015444
      4460.77      0.99764360     0.055754964
      4465.24      0.95174949     0.055496414
      4469.70      0.94708964     0.055239814
      4474.17      0.93060735     0.054985192
      4478.65      0.93244732     0.054732976
      4483.12      0.90723743     0.054482165
      4487.61      0.90529103     0.054233467
      4492.09      0.85272892     0.053986780
      4496.59      0.86327879     0.053266756
      4501.08      0.84091090     0.053020531
      4505.58      0.81812244     0.052778056
      4510.09      0.83517024     0.052537229
      4514.60      0.85534080     0.052297559
      4519.12      0.89600939     0.052061128
      4523.63      0.92979899     0.051825704
      4528.16      0.95112333     0.051593757
      4532.69      0.97779112     0.050928321
      4537.22      0.99489995     0.051087397
      4541.76      0.98687531     0.050854313
      4546.30      0.95533903     0.050624168
      4550.85       1.0001772     0.050397205
      4555.40       1.0359009     0.050171057
      4559.95       1.0351617     0.049949425
      4564.51       1.0104383     0.049309080
      4569.08      0.98317516     0.049094555
      4573.65      0.94586438     0.048881248
      4578.22      0.94945680     0.048670970
      4582.80      0.98140114     0.048464143
      4587.38      0.97011232     0.048603960
      4591.97      0.97208209     0.048391756
      4596.56       1.0084398     0.047775346
      4601.16       1.0010470     0.047571801
      4605.76      0.99260273     0.047369200
      4610.37      0.98916733     0.047170980
      4614.98      0.96884821     0.046976402
      4619.59       1.0252680     0.046373379
      4624.21       1.0677470     0.046177164
      4628.84       1.0538851     0.046325309
      4633.47       1.0842758     0.046133531
      4638.10       1.1436674     0.045943587
      4642.74       1.1468710     0.045367988
      4647.38       1.1117211     0.045175702
      4652.03       1.1070239     0.044987735
      4656.68       1.1050351     0.044803774
      4661.34       1.1068405     0.044956287
      4666.00       1.1234184     0.044402494
      4670.67       1.1154590     0.044217053
      4675.33       1.0853420     0.044037312
      4680.01       1.0710448     0.043859318
      4684.69       1.0833916     0.043330676
      4689.38       1.0759695     0.043474708
      4694.07       1.0215808     0.043297749
      4698.76      0.99608743     0.043124422
      4703.46      0.96129969     0.042605657
      4708.16      0.95735260     0.042442635
      4712.87      0.91712591     0.042585133
      4717.58      0.91819149     0.042417587
      4722.30      0.96717464     0.041909462
      4727.03      0.97828075     0.041751399
      4731.75      0.97067787     0.041596560
      4736.48      0.97205541     0.041735626
      4741.22       1.0030027     0.041239127
      4745.96       1.0276541     0.041085634
      4750.71       1.0230793     0.040936907
      4755.46       1.0038059     0.040791733
      4760.22       1.0129088     0.040594427
      4764.97       1.0283822     0.040445858
      4769.74       1.0355466     0.040303695
      4774.51       1.0233014     0.039827678
      4779.29       1.0066795     0.039973405
      4784.07      0.98817890     0.039832004
      4788.85      0.97254373     0.039372157
      4793.64      0.91809819     0.039229498
      4798.43      0.86074431     0.039377400
      4803.23      0.81216172     0.038931644
      4808.03      0.89922524     0.038789763
      4812.84      0.90492888     0.038654602
      4817.66      0.92577351     0.038806193
      4822.48      0.96132004     0.038365997
      4827.30      0.97435987     0.038232165
      4832.12       1.0229316     0.038104595
      4836.96       1.0235468     0.037954851
      4841.79       1.0099618     0.037824658
      4846.63       1.0191865     0.037406400
      4851.48       1.0501054     0.037288279
      4856.33       1.0484356     0.037430861
      4861.19       1.0426651     0.037018686
      4866.05       1.0279553     0.036904633
      4870.92       1.0489430     0.037048662
      4875.79       1.0209596     0.036644515
      4880.66      0.97084660     0.036533792
      4885.55      0.91505045     0.036680219
      4890.43      0.89126937     0.036283001
      4895.32      0.85348867     0.036177312
      4900.22      0.88009609     0.035786277
      4905.12      0.86658380     0.035935497
      4910.02      0.85813342     0.035834335
      4914.94      0.87842179     0.035448635
      4919.85      0.88276274     0.035601121
      4924.77      0.89915436     0.035227068
      4929.70      0.92380049     0.035123426
      4934.62      0.91919510     0.035278661
      4939.56      0.96237010     0.034908273
      4944.50      0.98486434     0.034810435
      4949.44      0.96809112     0.034701676
      4954.39      0.98299579     0.034602844
      4959.35       1.0014798     0.034760812
      4964.31      0.99400985     0.034403268
      4969.27      0.97487744     0.034310689
      4974.24      0.95820846     0.034210900
      4979.22      0.97134816     0.034117605
      4984.20      0.95619748     0.033777964
      4989.18      0.93673600     0.033931534
      4994.17      0.92937864     0.033845218
      4999.16      0.90800247     0.033752055
      5004.16      0.91544162     0.033665630
      5009.17      0.94386968     0.033337146
      5014.18      0.96646531     0.033491936
      5019.19      0.97842276     0.033165417
      5024.21      0.98520851     0.033095362
      5029.23      0.96691522     0.032999883
      5034.26      0.97270149     0.032930199
      5039.30      0.96905518     0.032840375
      5044.34      0.93545727     0.032771220
      5049.39      0.94589029     0.032686349
      5054.43      0.93485368     0.032618253
      5059.49      0.91857472     0.032308994
      5064.55      0.90047549     0.032470987
      5069.61      0.89682655     0.032166758
      5074.68      0.86685553     0.032329117
      5079.76      0.86851724     0.032029472
      5084.84      0.87567408     0.032192435
      5089.92      0.88417295     0.031897084
      5095.01      0.92016365     0.031833557
      5100.11      0.95486557     0.031769174
      5105.21      0.95430360     0.031708234
      5110.31      0.95080126     0.031646788
      5115.42      0.94300917     0.031587526
      5120.54      0.92869509     0.031528771
      5125.66      0.91144317     0.031471597
      5130.79      0.93911871     0.031415364
      5135.92      0.94901934     0.031360380
      5141.05      0.94897174     0.031306325
      5146.20      0.97073318     0.031032153
      5151.34      0.96177561     0.031201820
      5156.49      0.97163112     0.030931599
      5161.65      0.95152777     0.031102012
      5166.81      0.95896868     0.030835816
      5171.98      0.94409483     0.031006761
      5177.15       1.0040239     0.030744731
      5182.33       1.0162670     0.030697672
      5187.51       1.0394136     0.030658483
      5192.70       1.0660261     0.030612542
      5197.89       1.0640596     0.030577046
      5203.09       1.0649521     0.030532135
      5208.29       1.0818989     0.030500747
      5213.50       1.1052059     0.030456539
      5218.72       1.0995884     0.030208186
      5223.93       1.0857563     0.030385756
      5229.16       1.0879875     0.030138067
      5234.39       1.0759000     0.030319873
      5239.62       1.1005027     0.030072586
      5244.86       1.1027085     0.030043142
      5250.11       1.0850236     0.030224347
      5255.36       1.0978393     0.029983003
      5260.61       1.0852834     0.029961439
      5265.87       1.0753465     0.029927658
      5271.14       1.0618015     0.029905712
      5276.41       1.0426168     0.029674534
      5281.69       1.0222405     0.029855027
      5286.97       1.0285579     0.029630210
      5292.26       1.0368421     0.029809504
      5297.55       1.0327479     0.029790865
      5302.85       1.0490097     0.029568088
      5308.15       1.0434477     0.029750534
      5313.46       1.0217781     0.029534672
      5318.77       1.0100860     0.029515050
      5324.09       1.0000560     0.029702101
      5329.42       1.0180854     0.029486548
      5334.75       1.0397327     0.029472241
      5340.08       1.0624056     0.029257831
      5345.42       1.0742276     0.029448825
      5350.77       1.0993403     0.029436499
      5356.12       1.1300795     0.029226080
      5361.48       1.1311786     0.029418346
      5366.83       1.1255737     0.029410482
      5372.20       1.1313583     0.029202250
      5377.58       1.1173654     0.029397875
      5382.95       1.1036701     0.029188181
      5388.34       1.1067941     0.029187114
      5393.72       1.0974142     0.029189026
      5399.12       1.0700172     0.029178433
      5404.52       1.0231638     0.029178528
      5409.92      0.99217454     0.029182976
      5415.33      0.96553556     0.028985916
      5420.75      0.94792690     0.029178204
      5426.17      0.89945414     0.029183812
      5431.60      0.88699755     0.028991684
      5437.03      0.88349000     0.028995628
      5442.47      0.88417770     0.029192205
      5447.91      0.88541885     0.029202556
      5453.36      0.91500647     0.029010984
      5458.81      0.93112506     0.029019566
      5464.27      0.95934569     0.029219926
      5469.73      0.99467493     0.029034604
      5475.20       1.0406547     0.029043811
      5480.68       1.0671610     0.029055673
      5486.16       1.0826747     0.029065864
      5491.65       1.0988470     0.029075670
      5497.14       1.1403987     0.029088322
      5502.64       1.1791661     0.029103178
      5508.14       1.2130327     0.028921647
      5513.65       1.2270790     0.029129927
      5519.16       1.2340659     0.029145345
      5524.68       1.2170721     0.029162978
      5530.20       1.1934706     0.028982814
      5535.73       1.1863445     0.029004355
      5541.27       1.1745346     0.029027756
      5546.81       1.1323548     0.029233926
      5552.36       1.0927501     0.029054491
      5557.91       1.0647958     0.029077601
      5563.47       1.0319748     0.029102252
      5569.04       1.0176793     0.029128789
      5574.60       1.0102696     0.028954760
      5580.18      0.97799222     0.029161371
      5585.76      0.94329050     0.029187700
      5591.35      0.92944673     0.029215360
      5596.94      0.90300469     0.029049075
      5602.53      0.93227182     0.029074787
      5608.14      0.91711063     0.029101584
      5613.75      0.90499942     0.029129957
      5619.36      0.87101780     0.029159239
      5624.98      0.87727941     0.029181516
      5630.60      0.85013546     0.029208956
      5636.23      0.83836965     0.029238196
      5641.87      0.83659254     0.029268096
      5647.51      0.81386510     0.029299693
      5653.16      0.78069121     0.029331792
      5658.82      0.76612968     0.029167369
      5664.47      0.76911543     0.029201265
      5670.14      0.76687604     0.029235886
      5675.81      0.76891263     0.029271954
      5681.48      0.76658547     0.029487884
      5687.17      0.77357499     0.029522432
      5692.85      0.76369695     0.029358062
      5698.55      0.74636310     0.029394041
      5704.25      0.71729987     0.029429814
      5709.95      0.71550329     0.029467235
      5715.66      0.69550822     0.029504403
      5721.38      0.70401267     0.029542731
      5727.10      0.70750814     0.029581458
      5732.83      0.70763781     0.029620524
      5738.56      0.69425499     0.029463422
      5744.30      0.70716231     0.029501219
      5750.04      0.70871506     0.029539880
      5755.79      0.70726548     0.029578546
      5761.55      0.71511446     0.029618468
      5767.31      0.74403919     0.029657667
      5773.08      0.77387576     0.029698117
      5778.85      0.79857836     0.029738814
      5784.63      0.82384744     0.029781161
      5790.41      0.84823771     0.029826025
      5796.21      0.87405688     0.029673787
      5802.00      0.90486046     0.029717584
      5807.81      0.90733719     0.029761864
      5813.61      0.95134330     0.029809355
      5819.43      0.99777056     0.029863189
      5825.25       1.0535625     0.029927288
      5831.07       1.1031345     0.029995849
      5836.90       1.1343368     0.030065382
      5842.74       1.1636412     0.030137594
      5848.58       1.2233352     0.030214032
      5854.43       1.2679488     0.030287141
      5860.29       1.3163681     0.030349280
      5866.15       1.3468845     0.030404403
      5872.01       1.3894353     0.030454458
      5877.89       1.4320129     0.030501045
      5883.76       1.4368078     0.030541062
      5889.65       1.4682268     0.030578305
      5895.54       1.4759780     0.030615452
      5901.43       1.4762201     0.030655414
      5907.34       1.4732798     0.030513783
      5913.24       1.4504523     0.030548960
      5919.16       1.4023645     0.030580761
      5925.08       1.3846545     0.030608962
      5931.00       1.3371117     0.030636926
      5936.93       1.3042098     0.030664983
      5942.87       1.2802205     0.030690437
      5948.81       1.2461483     0.030711438
      5954.76       1.2132229     0.030735564
      5960.72       1.2015417     0.030767152
      5966.68       1.1713227     0.030616117
      5972.64       1.1645399     0.030642355
      5978.62       1.1355118     0.030670420
      5984.60       1.1259600     0.030703575
      5990.58       1.0994912     0.030739857
      5996.57       1.0733550     0.030777874
      6002.57       1.0554347     0.030816797
      6008.57       1.0201380     0.030680541
      6014.58       1.0169979     0.030722148
      6020.60       1.0094879     0.030764018
      6026.62       1.0023914     0.030999583
      6032.65      0.99746176     0.031039269
      6038.68      0.97466105     0.031079468
      6044.72      0.97281793     0.030941750
      6050.76      0.97186342     0.030982638
      6056.81      0.98299920     0.031023524
      6062.87      0.99307712     0.031064946
      6068.93      0.97608949     0.031106435
      6075.00      0.97960126     0.031148490
      6081.08      0.98625269     0.031004171
      6087.16      0.97113087     0.031238663
      6093.25      0.96160395     0.031277698
      6099.34      0.95327916     0.031317103
      6105.44      0.93870042     0.031356861
      6111.54      0.92299774     0.031212495
      6117.66      0.90150721     0.031248750
      6123.78      0.87336062     0.031285762
      6129.90      0.89619201     0.031520477
      6136.03      0.89999546     0.031378673
      6142.17      0.89203999     0.031412148
      6148.31      0.87587536     0.031446318
      6154.46      0.88879666     0.031480973
      6160.61      0.92689506     0.031338861
      6166.77      0.95258715     0.031376157
      6172.94      0.99774065     0.031606861
      6179.11       1.0319612     0.031654625
      6185.29       1.0688025     0.031521714
      6191.48       1.1356282     0.031550685
      6197.67       1.2100951     0.031592171
      6203.87       1.2753991     0.031666504
      6210.07       1.3317852     0.031741150
      6216.28       1.3929954     0.031830499
      6222.50       1.4210526     0.031931917
      6228.72       1.4516760     0.031860913
      6234.95       1.4479090     0.032159541
      6241.19       1.4418620     0.032247573
      6247.42       1.4643731     0.032134053
      6253.67       1.4555314     0.032175867
      6259.93       1.4309583     0.032394798
      6266.19       1.4291824     0.032198846
      6272.46       1.4206673     0.032172113
      6278.73       1.4143189     0.032135901
      6285.01       1.4145296     0.032104147
      6291.29       1.3857505     0.032080151
      6297.58       1.3704833     0.032075347
      6303.88       1.3561375     0.031889989
      6310.19       1.3488973     0.032059255
      6316.50       1.3401725     0.032050894
      6322.81       1.3155013     0.031869334
      6329.14       1.2756703     0.031871342
      6335.47       1.2666610     0.032056081
      6341.80       1.2284812     0.031879100
      6348.14       1.2173103     0.031886337
      6354.49       1.1738884     0.031896730
      6360.85       1.1646523     0.031905177
      6367.21       1.1521413     0.031918829
      6373.57       1.1465623     0.031935444
      6379.95       1.1205337     0.031948316
      6386.33       1.1034660     0.031780420
      6392.72       1.1073175     0.031981638
      6399.11       1.1221980     0.032002140
      6405.51       1.1260826     0.031848790
      6411.92       1.1061524     0.032071833
      6418.32       1.0995234     0.031931084
      6424.74       1.0964043     0.031954610
      6431.17       1.0808524     0.031993496
      6437.60       1.0795999     0.032009222
      6444.04       1.0808688     0.031849106
      6450.48       1.0944747     0.032042547
      6456.94       1.0975792     0.032038948
      6463.39       1.0808655     0.031855314
      6469.85       1.0876997     0.032020887
      6476.33       1.0720615     0.031828912
      6482.80       1.0655925     0.031995620
      6489.28       1.0568488     0.031805553
      6495.77       1.0456738     0.031799615
      6502.27       1.0182304     0.031788174
      6508.77       1.0075115     0.031774030
      6515.28       1.0047171     0.031751551
      6521.80      0.99209795     0.031728303
      6528.32      0.97668576     0.031523936
      6534.85      0.96880833     0.031682263
      6541.38      0.94287050     0.031478938
      6547.92      0.93888160     0.031624536
      6554.47      0.90566809     0.031415897
      6561.03      0.90005694     0.031565650
      6567.59      0.92428978     0.031364374
      6574.16      0.93452658     0.031340911
      6580.73      0.93577456     0.031317792
      6587.31      0.92215810     0.031121888
      6593.90      0.94704335     0.031269267
      6600.50      0.96109896     0.031071297
      6607.10      0.96883028     0.031214909
      6613.70      0.98386277     0.031014855
      6620.32      0.98860293     0.031155051
      6626.94      0.98479463     0.030953873
      6633.57      0.99661259     0.031090836
      6640.20       1.0021438     0.030887361
      6646.84      0.98667053     0.030848377
      6653.49      0.98229337     0.030814548
      6660.14      0.99106000     0.030771082
      6666.80      0.97578820     0.030735961
      6673.47      0.95673775     0.030688105
      6680.14      0.93901536     0.030476229
      6686.82      0.94621103     0.030599127
      6693.51      0.94034130     0.030382821
      6700.20      0.93180374     0.030333840
      6706.90      0.91066700     0.030283325
      6713.61      0.87680542     0.030228989
      6720.32      0.89150448     0.030177873
      6727.05      0.88034812     0.030117975
      6733.77      0.83720448     0.030059175
      6740.51      0.82835472     0.030000877
      6747.25      0.81402363     0.029938461
      6754.00      0.80788851     0.029748747
      6760.75      0.80292939     0.029928422
      6767.51      0.79081814     0.029816914
      6774.28      0.77377459     0.029708701
      6781.05      0.77915629     0.029791942
      6787.84      0.76983530     0.029696277
      6794.62      0.76396094     0.029874462
      6801.42      0.75111264     0.029987878
      6808.22      0.75473955     0.030455657
      6815.03      0.74286595     0.030871334
      6821.85      0.72544889     0.031083043
      6828.67      0.71669044     0.031561864
      6835.50      0.71025152     0.031794767
      6842.33      0.68683682     0.031655208
      6849.17      0.69048417     0.031531134
      6856.02      0.69570888     0.031291255
      6862.88      0.67930246     0.030871017
      6869.74      0.69558677     0.030376079
      6876.61      0.70362080     0.029965424
      6883.49      0.71825084     0.029520138
      6890.37      0.74256215     0.029204848
      6897.27      0.75799484     0.028790270
      6904.16      0.78528454     0.028445744
      6911.07      0.81066001     0.028320950
      6917.98      0.83087000     0.027962647
      6924.89      0.87739006     0.027741308
      6931.82      0.87483014     0.027534116
      6938.75      0.88831386     0.027382977
      6945.69      0.89921080     0.027210750
      6952.64      0.91280516     0.027055291
      6959.59      0.92382295     0.026908861
      6966.55      0.93067887     0.026635120
      6973.52      0.90869383     0.026635722
      6980.49      0.92408395     0.026467722
      6987.47      0.93325331     0.026014076
      6994.46      0.95397974     0.025710542
      7001.46      0.96003094     0.025267696
      7008.46      0.97913785     0.024840208
      7015.46      0.99808223     0.024454253
      7022.48       1.0125345     0.024048090
      7029.51       1.0346250     0.023650677
      7036.53       1.0512356     0.023265027
      7043.57       1.0643018     0.023021654
      7050.62       1.0930156     0.022683790
      7057.66       1.0998175     0.022349690
      7064.72       1.1088838     0.022013199
      7071.79       1.1272297     0.021781144
      7078.86       1.1230000     0.021463513
      7085.94       1.1254692     0.021101309
      7093.03       1.1402039     0.020883962
      7100.12       1.1453096     0.020800273
      7107.22       1.1589942     0.020639206
      7114.33       1.1689841     0.020450587
      7121.44       1.1568536     0.020238987
      7128.56       1.1581826     0.020014127
      7135.69       1.1417311     0.019778225
      7142.83       1.1692121     0.019603542
      7149.97       1.1804721     0.019329643
      7157.12       1.2088227     0.019041224
      7164.28       1.2290571     0.018737782
      7171.44       1.2661455     0.018415425
      7178.62       1.3106842     0.018032324
      7185.80       1.3570626     0.017701698
      7192.98       1.4089291     0.017456448
      7200.17       1.4555463     0.017127161
      7207.38       1.4988462     0.016794378
      7214.58       1.5419022     0.016457921
      7221.80       1.5567827     0.016121210
      7229.02       1.5792452     0.015792230
      7236.25       1.5994325     0.015475095
      7243.49       1.6090921     0.015170319
      7250.73       1.6176637     0.014877728
      7257.98       1.6150712     0.014856669
      7265.24       1.6174902     0.014994977
      7272.51       1.6142292     0.015171880
      7279.78       1.6049082     0.015398518
      7287.06       1.5873637     0.015692332
      7294.35       1.5692404     0.016079279
      7301.64       1.5432051     0.016602927
      7308.94       1.5105355     0.017318562
      7316.25       1.4669167     0.018293784
      7323.57       1.4203209     0.019596769
      7330.89       1.3617878     0.021299691
      7338.22       1.2971450     0.023502802
      7345.56       1.2307053     0.026353969
      7352.91       1.1624598     0.030011656
      7360.26       1.0943959     0.034654814
      7367.62       1.0333350     0.040515563
      7374.99      0.99106904     0.047827417
