# starting wavelength =        3416.9100
# ending wavelength =        7265.1300
# O2 telluric scale =        0
# O2 telluric shift =        0
# H2O telluric scale =        0
# H2O telluric shift =        0
      3419.32    -0.026258829      0.19755285
      3422.74      0.13261300      0.17194937
      3426.17      0.18720566      0.14789958
      3429.59      0.23268563      0.12879244
      3433.02      0.26225257      0.11376902
      3436.45      0.26897179     0.099993180
      3439.89      0.28306351     0.091352115
      3443.33      0.28242803     0.084658976
      3446.78      0.30738747     0.079475838
      3450.22      0.32243413     0.075447648
      3453.67      0.30888965     0.072609351
      3457.13      0.29954798     0.069905917
      3460.58      0.30005836     0.067729264
      3464.04      0.28165291     0.065948365
      3467.51      0.28335754     0.064008254
      3470.98      0.31220972     0.062782789
      3474.45      0.31528235     0.061731732
      3477.92      0.30867831     0.060822910
      3481.40      0.26416927     0.059920094
      3484.88      0.24466809     0.060009309
      3488.37      0.23778738     0.059792998
      3491.86      0.17592155     0.059884185
      3495.35      0.14418199     0.059683655
      3498.84      0.16427560     0.059373280
      3502.34      0.17853866     0.059465666
      3505.84      0.17132437     0.059252753
      3509.35      0.15681658     0.059351884
      3512.86      0.15120646     0.058746297
      3516.37      0.17057449     0.058843038
      3519.89      0.17357626     0.058936703
      3523.41      0.20128221     0.058336820
      3526.93      0.22310226     0.058433219
      3530.46      0.27246340     0.058531454
      3533.99      0.28030886     0.058328772
      3537.53      0.29462599     0.058027797
      3541.06      0.31340317     0.057825114
      3544.60      0.30935670     0.057920495
      3548.15      0.31397660     0.058030840
      3551.70      0.33770362     0.057420996
      3555.25      0.35214547     0.057528526
      3558.80      0.35808825     0.057635000
      3562.36      0.36928393     0.057029343
      3565.92      0.37695510     0.057136339
      3569.49      0.38217388     0.057248298
      3573.06      0.38406536     0.057050268
      3576.64      0.41429793     0.056749786
      3580.21      0.42073070     0.056866178
      3583.79      0.42080890     0.056655531
      3587.38      0.46752557     0.056370365
      3590.96      0.42212624     0.056486420
      3594.55      0.40491501     0.056287534
      3598.15      0.36167507     0.056399577
      3601.75      0.36888216     0.056116554
      3605.35      0.32815608     0.055905793
      3608.96      0.31368309     0.056040577
      3612.56      0.33142137     0.055745504
      3616.18      0.31003860     0.055878576
      3619.79      0.27380825     0.055667626
      3623.41      0.26154325     0.055385640
      3627.04      0.28364847     0.055516176
      3630.66      0.24884421     0.055321432
      3634.29      0.30681755     0.055025644
      3637.93      0.32511861     0.055163027
      3641.57      0.30418892     0.055304725
      3645.21      0.30829617     0.055111828
      3648.86      0.32596387     0.054813947
      3652.50      0.30917885     0.054958663
      3656.16      0.34545609     0.055111835
      3659.81      0.33999252     0.054467471
      3663.47      0.32694933     0.054623774
      3667.14      0.34355887     0.054772117
      3670.80      0.38601946     0.054496591
      3674.48      0.41623036     0.054283466
      3678.15      0.44809018     0.054455560
      3681.83      0.45626960     0.054162274
      3685.51      0.48392567     0.054328080
      3689.20      0.47295892     0.053678277
      3692.88      0.45053759     0.053838254
      3696.58      0.42056386     0.054012008
      3700.27      0.36502541     0.053726833
      3703.98      0.31843247     0.053528916
      3707.68      0.31702848     0.053692103
      3711.39      0.24938354     0.053416918
      3715.10      0.21462070     0.053595932
      3718.81      0.19544327     0.053779241
      3722.53      0.21465384     0.053113093
      3726.26      0.19466897     0.053292163
      3729.98      0.19309208     0.053495439
      3733.71      0.19246755     0.053205837
      3737.45      0.20853274     0.053404851
      3741.18      0.20252843     0.052724168
      3744.93      0.18909845     0.052914655
      3748.67      0.17600423     0.053130320
      3752.42      0.18709101     0.052841785
      3756.17      0.23093878     0.053053251
      3759.93      0.25849114     0.053274138
      3763.69      0.26261831     0.052563435
      3767.45      0.25219580     0.052793827
      3771.22      0.24147933     0.052504177
      3774.99      0.21485357     0.052727275
      3778.77      0.19201923     0.052966256
      3782.54      0.17680346     0.052680899
      3786.33      0.17004725     0.052489783
      3790.11      0.19148520     0.052197662
      3793.90      0.21225570     0.052429844
      3797.70      0.25428800     0.052694667
      3801.50      0.29953702     0.052404387
      3805.30      0.31046776     0.052658219
      3809.10      0.33771291     0.051926287
      3812.91      0.34446015     0.051642406
      3816.73      0.34030314     0.051457150
      3820.54      0.33076027     0.051167986
      3824.36      0.35422030     0.050889510
      3828.19      0.37919322     0.050703376
      3832.02      0.37082841     0.050419491
      3835.85      0.35142248     0.050145694
      3839.68      0.30989094     0.049960358
      3843.52      0.30748499     0.049681147
      3847.37      0.31256388     0.048978217
      3851.22      0.30496359     0.048722420
      3855.07      0.34127661     0.048952671
      3858.92      0.38135338     0.048259508
      3862.78      0.40836644     0.048006239
      3866.64      0.44103903     0.048234283
      3870.51      0.45923422     0.047549773
      3874.38      0.50130193     0.047298131
      3878.26      0.51452926     0.047057733
      3882.13      0.56051127     0.046848711
      3886.02      0.60760716     0.046598099
      3889.90      0.63380235     0.046358111
      3893.79      0.64506212     0.046156649
      3897.69      0.68203548     0.045906699
      3901.59      0.68177452     0.045665946
      3905.49      0.66066047     0.045031014
      3909.39      0.66631561     0.045224955
      3913.30      0.68060954     0.044984705
      3917.22      0.71861039     0.044366894
      3921.13      0.72341147     0.044121332
      3925.06      0.73406893     0.044313502
      3928.98      0.76945426     0.044078544
      3932.91      0.79546874     0.043467712
      3936.84      0.82452487     0.043226974
      3940.78      0.85280059     0.043416459
      3944.72      0.87343046     0.042825243
      3948.67      0.88845253     0.042583749
      3952.61      0.90578471     0.042349057
      3956.57      0.92118441     0.042195042
      3960.52      0.91535803     0.041952784
      3964.48      0.87829530     0.041716948
      3968.45      0.86987747     0.041488131
      3972.42      0.83713631     0.041335150
      3976.39      0.81061416     0.041098851
      3980.37      0.78875754     0.040868443
      3984.35      0.78210032     0.040641835
      3988.33      0.77178475     0.040083048
      3992.32      0.77132325     0.040263392
      3996.31      0.81038887     0.040035029
      4000.31      0.82731399     0.039813544
      4004.31      0.86282395     0.039263298
      4008.31      0.92037425     0.039050885
      4012.32      0.95196166     0.039219993
      4016.33      0.99168118     0.038999356
      4020.35       1.0187759     0.038458215
      4024.37       1.0213629     0.038249463
      4028.40       1.0579809     0.038042500
      4032.42       1.0511781     0.037840340
      4036.46       1.0576998     0.037671133
      4040.50       1.0541436     0.037462690
      4044.54       1.0611196     0.037258685
      4048.58       1.0123240     0.037057689
      4052.63      0.97068317     0.036553624
      4056.68      0.92103097     0.036349816
      4060.74      0.88431901     0.036492768
      4064.80      0.85568014     0.036292075
      4068.86      0.84792592     0.036095294
      4072.93      0.82383543     0.035608132
      4077.01      0.78044456     0.035407911
      4081.08      0.74511920     0.035210960
      4085.17      0.72294220     0.035349848
      4089.25      0.71151596     0.035155994
      4093.34      0.70336605     0.034688906
      4097.43      0.67385322     0.034492309
      4101.53      0.62426404     0.034298893
      4105.63      0.60641391     0.034107462
      4109.74      0.57817682     0.033918477
      4113.85      0.54539877     0.033732246
      4117.96      0.52964188     0.033605359
      4122.08      0.51371794     0.033414701
      4126.20      0.47560996     0.033226357
      4130.33      0.44339761     0.033040334
      4134.46      0.45114600     0.032857035
      4138.59      0.45917153     0.032675610
      4142.73      0.45532295     0.032233605
      4146.88      0.47314687     0.032056864
      4151.02      0.49160714     0.031881753
      4155.18      0.49689170     0.031708369
      4159.33      0.51802519     0.031832214
      4163.49      0.54411858     0.031654867
      4167.65      0.56712973     0.031225889
      4171.82      0.57752458     0.031053313
      4175.99      0.56163915     0.030882282
      4180.17      0.54819305     0.030713100
      4184.35      0.53470863     0.030545038
      4188.54      0.52032758     0.030378195
      4192.72      0.51016954     0.030213198
      4196.92      0.51571083     0.030049412
      4201.11      0.51597810     0.029649485
      4205.31      0.50812498     0.029484974
      4209.52      0.49762921     0.029322412
      4213.73      0.49650868     0.029160911
      4217.94      0.49648703     0.029000948
      4222.16      0.48536916     0.028842779
      4226.38      0.51042465     0.028950051
      4230.61      0.51208338     0.028792348
      4234.84      0.52554897     0.028635753
      4239.08      0.55566641     0.028480255
      4243.32      0.58794000     0.028113019
      4247.56      0.58316376     0.027958500
      4251.81      0.58687368     0.027804632
      4256.06      0.56537085     0.027652406
      4260.32      0.55251230     0.027500697
      4264.58      0.55576296     0.027351133
      4268.84      0.54498409     0.027202349
      4273.11      0.54536491     0.027054053
      4277.38      0.54030520     0.026907921
      4281.66      0.51252823     0.026762228
      4285.94      0.49473175     0.026617845
      4290.23      0.47824441     0.026474242
      4294.52      0.46515452     0.026331342
      4298.81      0.44848307     0.026189918
      4303.11      0.43640027     0.026049457
      4307.42      0.44447184     0.025707795
      4311.72      0.43329271     0.025570375
      4316.04      0.44900801     0.025433427
      4320.35      0.43790977     0.025297648
      4324.67      0.42274629     0.025162976
      4329.00      0.40455039     0.025028470
      4333.33      0.42114462     0.024896305
      4337.66      0.41955476     0.024764081
      4342.00      0.42994754     0.024633160
      4346.34      0.45260117     0.024286802
      4350.69      0.45371468     0.024158262
      4355.04      0.47059773     0.024031846
      4359.39      0.48568148     0.023905511
      4363.75      0.49912404     0.023780141
      4368.12      0.52145460     0.023656428
      4372.48      0.52857675     0.023532647
      4376.86      0.54382640     0.023410474
      4381.23      0.54644353     0.023289441
      4385.61      0.55996514     0.023168427
      4390.00      0.56315496     0.023049560
      4394.39      0.54789034     0.022930513
      4398.79      0.54598523     0.022813173
      4403.18      0.52593035     0.022697424
      4407.59      0.51023754     0.022581625
      4412.00      0.51240912     0.022263502
      4416.41      0.51165759     0.022148947
      4420.82      0.50690670     0.022035901
      4425.25      0.49898285     0.021924296
      4429.67      0.49426581     0.021812552
      4434.10      0.49173087     0.021702779
      4438.54      0.50123186     0.021757708
      4442.97      0.50488267     0.021648629
      4447.42      0.50406981     0.021541288
      4451.86      0.51264278     0.021433883
      4456.32      0.51525547     0.021142543
      4460.77      0.53580667     0.021036158
      4465.24      0.55132007     0.020931017
      4469.70      0.57796865     0.020827817
      4474.17      0.59189432     0.020724399
      4478.65      0.60800200     0.020623028
      4483.12      0.63135251     0.020522404
      4487.61      0.66282988     0.020248772
      4492.09      0.69154093     0.020152088
      4496.59      0.71304446     0.020055276
      4501.08      0.73207793     0.020107570
      4505.58      0.75706434     0.020009519
      4510.09      0.77036616     0.019912889
      4514.60      0.78577719     0.019818280
      4519.12      0.79801889     0.019556174
      4523.63      0.81679293     0.019464731
      4528.16      0.82247260     0.019374345
      4532.69      0.82328080     0.019285167
      4537.22      0.84226653     0.019198058
      4541.76      0.85518814     0.019111021
      4546.30      0.86948090     0.018994897
      4550.85      0.89098576     0.018907455
      4555.40      0.92206412     0.018821473
      4559.95      0.93670918     0.018737631
      4564.51      0.95591614     0.018654044
      4569.08      0.98942640     0.018410988
      4573.65       1.0301422     0.018327437
      4578.22       1.0741765     0.018245556
      4582.80       1.0920461     0.018300554
      4587.38       1.1122639     0.018220929
      4591.97       1.1318189     0.017988858
      4596.56       1.1550428     0.017908713
      4601.16       1.1768696     0.017830542
      4605.76       1.1945337     0.017754179
      4610.37       1.2121861     0.017664387
      4614.98       1.2204493     0.017587024
      4619.59       1.2167668     0.017510552
      4624.21       1.2166188     0.017436154
      4628.84       1.2015885     0.017363441
      4633.47       1.1883639     0.017151181
      4638.10       1.1769532     0.017204633
      4642.74       1.1506319     0.017132423
      4647.38       1.1070982     0.017062371
      4652.03       1.0686626     0.016855728
      4656.68       1.0502910     0.016789774
      4661.34       1.0344955     0.016843083
      4666.00       1.0163726     0.016638786
      4670.67      0.98974051     0.016573981
      4675.33      0.97715954     0.016510642
      4680.01      0.96427369     0.016449362
      4684.69      0.96712892     0.016367139
      4689.38      0.97790778     0.016304807
      4694.07      0.97902987     0.016244704
      4698.76      0.98023723     0.016186584
      4703.46      0.98841795     0.016108341
      4708.16      0.98926544     0.016049335
      4712.87      0.99134430     0.015992379
      4717.58      0.98721590     0.015804533
      4722.30      0.98376817     0.015747041
      4727.03      0.97824417     0.015806747
      4731.75      0.95740181     0.015625069
      4736.48      0.93591434     0.015568890
      4741.22      0.92095400     0.015514820
      4745.96      0.91149773     0.015452905
      4750.71      0.89401896     0.015397914
      4755.46      0.89190429     0.015345465
      4760.22      0.87118178     0.015175988
      4764.97      0.85252576     0.015234709
      4769.74      0.83380474     0.015183801
      4774.51      0.81055587     0.015017501
      4779.29      0.77881087     0.015078289
      4784.07      0.73151187     0.015029085
      4788.85      0.69826243     0.014866053
      4793.64      0.66674364     0.014822290
      4798.43      0.64370744     0.014881167
      4803.23      0.61028384     0.014721379
      4808.03      0.58868631     0.014679221
      4812.84      0.57373027     0.014739660
      4817.66      0.55565547     0.014583223
      4822.48      0.55190713     0.014543702
      4827.30      0.54621502     0.014492414
      4832.12      0.55461830     0.014452294
      4836.96      0.56814341     0.014415036
      4841.79      0.58968962     0.014365873
      4846.63      0.60502360     0.014328085
      4851.48      0.60709322     0.014181022
      4856.33      0.61971927     0.014245666
      4861.19      0.64015100     0.014210206
      4866.05      0.64206171     0.014065247
      4870.92      0.63574797     0.014131886
      4875.79      0.62557784     0.013991378
      4880.66      0.61870936     0.013956134
      4885.55      0.61781156     0.014024729
      4890.43      0.62270400     0.013886113
      4895.32      0.62682933     0.013853406
      4900.22      0.64950999     0.013819731
      4905.12      0.67544069     0.013787035
      4910.02      0.71181518     0.013655593
      4914.94      0.76376576     0.013723973
      4919.85      0.80372106     0.013694229
      4924.77      0.84440460     0.013664294
      4929.70      0.89001723     0.013634568
      4934.62      0.92924797     0.013508419
      4939.56      0.96515636     0.013578361
      4944.50       1.0023886     0.013452917
      4949.44       1.0537831     0.013430947
      4954.39       1.1075892     0.013400721
      4959.35       1.1448337     0.013378998
      4964.31       1.1800829     0.013351383
      4969.27       1.2036677     0.013330145
      4974.24       1.2157757     0.013305036
      4979.22       1.2154362     0.013284070
      4984.20       1.1990570     0.013166826
      4989.18       1.1801079     0.013240879
      4994.17       1.1532046     0.013224194
      4999.16       1.1197475     0.013200458
      5004.16       1.0743636     0.013087949
      5009.17       1.0180039     0.013068563
      5014.18      0.96176033     0.013052286
      5019.19      0.89855104     0.013033924
      5024.21      0.84227609     0.013019258
      5029.23      0.78893597     0.013001790
      5034.26      0.74094776     0.012988557
      5039.30      0.71744352     0.012972201
      5044.34      0.70356245     0.012960201
      5049.39      0.68577775     0.012944858
      5054.43      0.69129937     0.012934163
      5059.49      0.70203413     0.012919789
      5064.55      0.72567454     0.012910542
      5069.61      0.73271587     0.012897231
      5074.68      0.74366843     0.012798277
      5079.76      0.75463653     0.012877150
      5084.84      0.77637389     0.012780006
      5089.92      0.79219384     0.012770281
      5095.01      0.80249183     0.012764305
      5100.11      0.81262941     0.012755261
      5105.21      0.81639718     0.012750649
      5110.31      0.83696514     0.012742517
      5115.42      0.84592496     0.012739450
      5120.54      0.85323333     0.012732388
      5125.66      0.86147552     0.012728778
      5130.79      0.86725304     0.012724522
      5135.92      0.87046619     0.012721405
      5141.05      0.85081896     0.012719253
      5146.20      0.83632237     0.012716568
      5151.34      0.84275829     0.012626601
      5156.49      0.84770693     0.012714083
      5161.65      0.84826851     0.012624180
      5166.81      0.84603116     0.012714007
      5171.98      0.83764912     0.012624338
      5177.15      0.83775741     0.012628397
      5182.33      0.84886415     0.012626829
      5187.51      0.84127747     0.012631079
      5192.70      0.84678095     0.012638073
      5197.89      0.85144157     0.012636293
      5203.09      0.86563629     0.012643212
      5208.29      0.88538248     0.012560169
      5213.50      0.91021025     0.012650706
      5218.72      0.92244677     0.012570217
      5223.93      0.94043364     0.012577237
      5229.16      0.96294337     0.012670587
      5234.39      0.98634259     0.012590230
      5239.62      0.99436807     0.012683135
      5244.86       1.0098558     0.012605844
      5250.11       1.0368722     0.012614882
      5255.36       1.0577186     0.012626040
      5260.61       1.0830502     0.012633111
      5265.87       1.1008597     0.012644005
      5271.14       1.1233186     0.012567396
      5276.41       1.1547007     0.012664816
      5281.69       1.1891959     0.012677480
      5286.97       1.1972498     0.012602142
      5292.26       1.2131492     0.012700927
      5297.55       1.2278866     0.012715091
      5302.85       1.2348427     0.012640660
      5308.15       1.2533115     0.012658318
      5313.46       1.2640841     0.012756863
      5318.77       1.2685991     0.012683286
      5324.09       1.2902217     0.012702112
      5329.42       1.3099572     0.012711460
      5334.75       1.3187041     0.012729754
      5340.08       1.3178845     0.012749626
      5345.42       1.3254098     0.012680090
      5350.77       1.3295414     0.012779867
      5356.12       1.3391946     0.012800530
      5361.48       1.3376652     0.012732905
      5366.83       1.3299312     0.012752711
      5372.20       1.3275293     0.012855111
      5377.58       1.3156892     0.012877911
      5382.95       1.2931373     0.012810413
      5388.34       1.2524260     0.012832252
      5393.72       1.2260623     0.012936999
      5399.12       1.2069385     0.012872016
      5404.52       1.1773248     0.012894504
      5409.92       1.1694066     0.012917992
      5415.33       1.1495036     0.012852281
      5420.75       1.1535494     0.012960394
      5426.17       1.1794068     0.012984538
      5431.60       1.1993453     0.013009539
      5437.03       1.2360134     0.012944459
      5442.47       1.2716734     0.012971243
      5447.91       1.3075979     0.013080652
      5453.36       1.3427561     0.013106950
      5458.81       1.3825594     0.013042058
      5464.27       1.4118818     0.013069912
      5469.73       1.4442860     0.013098906
      5475.20       1.4621014     0.013128506
      5480.68       1.4827723     0.013144673
      5486.16       1.4807147     0.013173401
      5491.65       1.4748646     0.013203036
      5497.14       1.4603206     0.013233433
      5502.64       1.4399747     0.013172265
      5508.14       1.4114830     0.013201807
      5513.65       1.3743438     0.013231945
      5519.16       1.3351125     0.013343731
      5524.68       1.3174452     0.013375292
      5530.20       1.2864614     0.013315777
      5535.73       1.2562247     0.013346226
      5541.27       1.2381160     0.013377458
      5546.81       1.2120456     0.013409130
      5552.36       1.1982103     0.013441553
      5557.91       1.1854551     0.013381405
      5563.47       1.1770760     0.013497893
      5569.04       1.1759477     0.013529761
      5574.60       1.1832034     0.013562628
      5580.18       1.1858342     0.013595486
      5585.76       1.1895283     0.013629335
      5591.35       1.1730395     0.013568780
      5596.94       1.1630051     0.013602970
      5602.53       1.1428933     0.013637287
      5608.14       1.1252293     0.013672261
      5613.75       1.0995764     0.013707278
      5619.36       1.0657688     0.013742958
      5624.98       1.0138633     0.013683165
      5630.60      0.97110905     0.013799151
      5636.23      0.91414950     0.013834036
      5641.87      0.85927508     0.013869801
      5647.51      0.80050982     0.013905275
      5653.16      0.74312381     0.013941460
      5658.82      0.69673474     0.013977401
      5664.47      0.66581530     0.014013899
      5670.14      0.64444213     0.014050294
      5675.81      0.64425539     0.013992897
      5681.48      0.65803343     0.014028625
      5687.17      0.68079259     0.014064979
      5692.85      0.71729123     0.014101122
      5698.55      0.76272189     0.014138007
      5704.25      0.81380509     0.014175091
      5709.95      0.86314130     0.014213519
      5715.66      0.91650798     0.014252335
      5721.38      0.96442673     0.014290813
      5727.10       1.0031772     0.014329054
      5732.83       1.0248272     0.014368566
      5738.56       1.0536671     0.014410804
      5744.30       1.0578753     0.014359729
      5750.04       1.0642058     0.014409329
      5755.79       1.0787269     0.014459699
      5761.55       1.0868226     0.014510877
      5767.31       1.1111915     0.014564521
      5773.08       1.1317054     0.014617476
      5778.85       1.1643929     0.014665643
      5784.63       1.2020808     0.014709721
      5790.41       1.2560442     0.014751531
      5796.21       1.3109265     0.014706605
      5802.00       1.3607675     0.014743251
      5807.81       1.4093729     0.014777924
      5813.61       1.4382213     0.014812363
      5819.43       1.4610424     0.014847986
      5825.25       1.4838396     0.014883832
      5831.07       1.5064712     0.014918279
      5836.90       1.5150133     0.014950420
      5842.74       1.5207937     0.014980977
      5848.58       1.5089709     0.015010604
      5854.43       1.5033460     0.015040823
      5860.29       1.5046948     0.015069976
      5866.15       1.5072665     0.015007157
      5872.01       1.5014431     0.015033733
      5877.89       1.5000445     0.015063856
      5883.76       1.5056957     0.015095428
      5889.65       1.5219992     0.015124638
      5895.54       1.5342490     0.015153825
      5901.43       1.5544316     0.015185413
      5907.34       1.5686558     0.015218945
      5913.24       1.5875372     0.015267784
      5919.16       1.5921912     0.015301470
      5925.08       1.5845477     0.015336034
      5931.00       1.5791259     0.015371121
      5936.93       1.5664813     0.015406143
      5942.87       1.5527550     0.015441222
      5948.81       1.5212909     0.015476556
      5954.76       1.4953211     0.015424881
      5960.72       1.4559646     0.015460494
      5966.68       1.4325776     0.015496035
      5972.64       1.4092260     0.015531900
      5978.62       1.3841743     0.015567666
      5984.60       1.3565272     0.015612133
      5990.58       1.3319448     0.015646305
      5996.57       1.3197801     0.015680811
      6002.57       1.3002543     0.015715237
      6008.57       1.2743163     0.015750069
      6014.58       1.2523244     0.015694495
      6020.60       1.2388531     0.015727147
      6026.62       1.2310203     0.015759979
      6032.65       1.2193423     0.015894414
      6038.68       1.2148460     0.015927950
      6044.72       1.2046708     0.015871007
      6050.76       1.2031051     0.015902547
      6056.81       1.2142683     0.015933973
      6062.87       1.2194180     0.015966015
      6068.93       1.2343933     0.015909712
      6075.00       1.2380528     0.016041495
      6081.08       1.2395708     0.016071810
      6087.16       1.2452916     0.016104372
      6093.25       1.2424686     0.016055348
      6099.34       1.2415843     0.016091769
      6105.44       1.2237476     0.016219081
      6111.54       1.2014504     0.016162410
      6117.66       1.1763818     0.016204243
      6123.78       1.1671277     0.016254392
      6129.90       1.1643618     0.016312923
      6136.03       1.1637149     0.016393064
      6142.17       1.1798875     0.016458852
      6148.31       1.1934363     0.016523409
      6154.46       1.2216554     0.016493129
      6160.61       1.2480972     0.016540934
      6166.77       1.2833129     0.016684680
      6172.94       1.3129004     0.016614282
      6179.11       1.3254666     0.016624485
      6185.29       1.3455091     0.016625908
      6191.48       1.3448298     0.016625530
      6197.67       1.3265941     0.016618033
      6203.87       1.3134316     0.016616938
      6210.07       1.2832184     0.016534317
      6216.28       1.2443421     0.016644159
      6222.50       1.1975933     0.016646698
      6228.72       1.1616221     0.016561711
      6234.95       1.1345924     0.016574326
      6241.19       1.1203439     0.016683085
      6247.42       1.1090312     0.016603171
      6253.67       1.0984895     0.016617876
      6259.93       1.1031384     0.016729604
      6266.19       1.0894979     0.016652626
      6272.46       1.0844028     0.016669692
      6278.73       1.0833723     0.016692762
      6285.01       1.0726360     0.016710661
      6291.29       1.0591104     0.016730233
      6297.58       1.0554933     0.016653204
      6303.88       1.0623192     0.016772576
      6310.19       1.0503325     0.016701490
      6316.50       1.0501326     0.016725089
      6322.81       1.0529901     0.016765928
      6329.14       1.0560081     0.016793179
      6335.47       1.0602648     0.016921010
      6341.80       1.0718442     0.016852065
      6348.14       1.0844693     0.016873591
      6354.49       1.0984390     0.016903776
      6360.85       1.1109944     0.016917979
      6367.21       1.1226275     0.016837632
      6373.57       1.1221177     0.016942420
      6379.95       1.1227107     0.016853887
      6386.33       1.1058593     0.016858373
      6392.72       1.0976451     0.016864438
      6399.11       1.0757364     0.016870089
      6405.51       1.0381425     0.016880046
      6411.92       1.0063823     0.016885738
      6418.32      0.99048802     0.016891132
      6424.74      0.97506396     0.016891931
      6431.17      0.95427378     0.016796959
      6437.60      0.95080180     0.016890355
      6444.04      0.94645275     0.016796706
      6450.48      0.95127897     0.016890437
      6456.94      0.95869554     0.016792169
      6463.39      0.97170242     0.016784916
      6469.85      0.98737089     0.016784775
      6476.33       1.0102129     0.016780878
      6482.80       1.0356530     0.016783566
      6489.28       1.0616134     0.016779956
      6495.77       1.0953921     0.016782177
      6502.27       1.1243401     0.016778002
      6508.77       1.1437146     0.016778857
      6515.28       1.1665744     0.016773266
      6521.80       1.1849691     0.016771964
      6528.32       1.2042579     0.016674456
      6534.85       1.2164332     0.016670453
      6541.38       1.2311196     0.016664012
      6547.92       1.2522570     0.016658910
      6554.47       1.2534348     0.016650180
      6561.03       1.2644166     0.016550421
      6567.59       1.2712058     0.016633012
      6574.16       1.2752753     0.016531321
      6580.73       1.2849057     0.016612274
      6587.31       1.2941225     0.016599649
      6593.90       1.2930228     0.016496576
      6600.50       1.3003980     0.016573109
      6607.10       1.3073218     0.016467738
      6613.70       1.3158681     0.016543116
      6620.32       1.3255009     0.016435535
      6626.94       1.3341165     0.016418844
      6633.57       1.3244032     0.016399767
      6640.20       1.3219357     0.016380083
      6646.84       1.3183367     0.016271734
      6653.49       1.3009375     0.016338742
      6660.14       1.2927770     0.016328606
      6666.80       1.2755621     0.016273753
      6673.47       1.2570444     0.016382275
      6680.14       1.2278322     0.016268944
      6686.82       1.2152259     0.016233733
      6693.51       1.2003075     0.016263311
      6700.20       1.1938336     0.016361835
      6706.90       1.1912291     0.016522471
      6713.61       1.1871744     0.016689089
      6720.32       1.1761588     0.016926940
      6727.05       1.1876998     0.017059581
      6733.77       1.1977153     0.017270592
      6740.51       1.1998958     0.017503841
      6747.25       1.2029315     0.017459743
      6754.00       1.2044342     0.017426186
      6760.75       1.1886054     0.017414404
      6767.51       1.1852796     0.017117559
      6774.28       1.1717334     0.016862538
      6781.05       1.1435200     0.016598392
      6787.84       1.1299599     0.016404606
      6794.62       1.0943988     0.016231714
      6801.42       1.0704597     0.016092924
      6808.22       1.0469651     0.015847229
      6815.03       1.0247488     0.015781246
      6821.85       1.0064500     0.015664457
      6828.67      0.99533079     0.015483250
      6835.50      0.98205678     0.015379939
      6842.33      0.97806621     0.015288243
      6849.17      0.97163785     0.015223346
      6856.02      0.96918230     0.015149777
      6862.88      0.97079935     0.015082134
      6869.74      0.96446297     0.015016034
      6876.61      0.97631198     0.014872753
      6883.49      0.98869924     0.014796534
      6890.37      0.99544787     0.014494235
      6897.27       1.0048377     0.014341598
      6904.16       1.0092802     0.014112038
      6911.07       1.0117456     0.013890562
      6917.98       1.0090588     0.013749822
      6924.89       1.0160751     0.013538262
      6931.82       1.0292325     0.013331358
      6938.75       1.0339313     0.013130727
      6945.69       1.0390066     0.012957938
      6952.64       1.0506155     0.012784882
      6959.59       1.0627432     0.012613719
      6966.55       1.0739329     0.012440971
      6973.52       1.0843161     0.012324203
      6980.49       1.0834701     0.012159998
      6987.47       1.0860000     0.012015471
      6994.46       1.0915580     0.011908912
      7001.46       1.0861522     0.011869897
      7008.46       1.0882189     0.011793989
      7015.46       1.0932405     0.011703614
      7022.48       1.0986256     0.011558857
      7029.51       1.1006146     0.011450713
      7036.53       1.0947545     0.011336975
      7043.57       1.1023385     0.011256579
      7050.62       1.1064030     0.011122196
      7057.66       1.1079036     0.010979438
      7064.72       1.1083594     0.010827964
      7071.79       1.1006658     0.010665282
      7078.86       1.0968292     0.010493698
      7085.94       1.0824598     0.010319289
      7093.03       1.0711261     0.010142561
      7100.12       1.0714882     0.010007433
      7107.22       1.0696784    0.0098248239
      7114.33       1.0744538    0.0096200095
      7121.44       1.0714048    0.0094318608
      7128.56       1.0661278    0.0092438354
      7135.69       1.0698280    0.0090569348
      7142.83       1.0693214    0.0088710698
      7149.97       1.0647746    0.0088570885
      7157.12       1.0641115    0.0089445816
      7164.28       1.0622822    0.0090544692
      7171.44       1.0608829    0.0091921396
      7178.62       1.0572240    0.0093660697
      7185.80       1.0562681    0.0095897105
      7192.98       1.0547619    0.0098809633
      7200.17       1.0565523     0.010271473
      7207.38       1.0580035     0.010805038
      7214.58       1.0582808     0.011532709
      7221.80       1.0601212     0.012505596
      7229.02       1.0659469     0.013776481
      7236.25       1.0708846     0.015403587
      7243.49       1.0771492     0.017472213
      7250.73       1.0826855     0.020100271
      7257.98       1.0902989     0.023413719
