# starting wavelength =        3468.4900
# ending wavelength =        7370.6700
# O2 telluric scale =        0
# O2 telluric shift =        0
# H2O telluric scale =        0
# H2O telluric shift =        0
      3470.98       1.0338900     0.026372274
      3474.45       1.0369618     0.022431143
      3477.92       1.0382134     0.019293217
      3481.40       1.0414467     0.016806688
      3484.88       1.0465827     0.014850906
      3488.37       1.0485919     0.013060800
      3491.86       1.0500757     0.011938751
      3495.35       1.0481276     0.011070636
      3498.84       1.0524579     0.010399648
      3502.34       1.0552050    0.0099528523
      3505.84       1.0556763    0.0095136350
      3509.35       1.0618117    0.0091645279
      3512.86       1.0568683    0.0088840605
      3516.37       1.0580779    0.0086551868
      3519.89       1.0651067    0.0084061774
      3523.41       1.0629955    0.0082493316
      3526.93       1.0599400    0.0081152304
      3530.46       1.0598396    0.0079995403
      3533.99       1.0573305    0.0078868712
      3537.53       1.0579014    0.0079055931
      3541.06       1.0566568    0.0078831839
      3544.60       1.0584635    0.0079027259
      3548.15       1.0586966    0.0078309703
      3551.70       1.0547613    0.0078500278
      3555.25       1.0486195    0.0078691478
      3558.80       1.0510406    0.0078470785
      3562.36       1.0586458    0.0078171088
      3565.92       1.0615010    0.0077949642
      3569.49       1.0621416    0.0078153107
      3573.06       1.0531078    0.0078347695
      3576.64       1.0524567    0.0077629544
      3580.21       1.0589677    0.0077827938
      3583.79       1.0641670    0.0078037770
      3587.38       1.0678096    0.0077309862
      3590.96       1.0699727    0.0077514959
      3594.55       1.0727169    0.0077730116
      3598.15       1.0760946    0.0077507765
      3601.75       1.0874940    0.0077212241
      3605.35       1.0919338    0.0076988897
      3608.96       1.0880182    0.0077213651
      3612.56       1.0866648    0.0077427505
      3616.18       1.0902261    0.0076697222
      3619.79       1.0942532    0.0076910366
      3623.41       1.0955932    0.0077143720
      3627.04       1.0953149    0.0076396992
      3630.66       1.0924825    0.0076626867
      3634.29       1.0796291    0.0076854895
      3637.93       1.0713039    0.0076639873
      3641.57       1.0529689    0.0076340958
      3645.21       1.0284985    0.0076581581
      3648.86       1.0063893    0.0076824304
      3652.50      0.98237759    0.0076069864
      3656.16      0.95711086    0.0076309055
      3659.81      0.92909429    0.0076561917
      3663.47      0.89470874    0.0075798086
      3667.14      0.86152726    0.0076050557
      3670.80      0.82681660    0.0076301460
      3674.48      0.78856782    0.0075539201
      3678.15      0.74852859    0.0075789202
      3681.83      0.70634125    0.0076058243
      3685.51      0.66935006    0.0076320963
      3689.20      0.63443839    0.0075546711
      3692.88      0.59958163    0.0075807011
      3696.58      0.56441702    0.0076094392
      3700.27      0.53127056    0.0075792659
      3703.98      0.50934264    0.0075584469
      3707.68      0.48798143    0.0075854154
      3711.39      0.46742675    0.0075569239
      3715.10      0.45400866    0.0075854789
      3718.81      0.44597945    0.0075653937
      3722.53      0.44311997    0.0075344450
      3726.26      0.43785101    0.0075640639
      3729.98      0.43803286    0.0075950841
      3733.71      0.44103328    0.0075130490
      3737.45      0.44368425    0.0075443437
      3741.18      0.44965592    0.0075746244
      3744.93      0.46060853    0.0075464296
      3748.67      0.47466188    0.0075236405
      3752.42      0.48735068    0.0074952354
      3756.17      0.50230636    0.0075271800
      3759.93      0.52128237    0.0075598062
      3763.69      0.54176337    0.0075325980
      3767.45      0.56439869    0.0075088839
      3771.22      0.58763906    0.0075441887
      3774.99      0.61301486    0.0075137599
      3778.77      0.63681868    0.0075487857
      3782.54      0.66359706    0.0075851572
      3786.33      0.69555279    0.0074974512
      3790.11      0.72805110    0.0075343788
      3793.90      0.77355486    0.0075044434
      3797.70      0.81056143    0.0075416940
      3801.50      0.84836853    0.0075797014
      3805.30      0.88428185    0.0074899092
      3809.10      0.91849987    0.0075291126
      3812.91      0.95575358    0.0075665473
      3816.73      0.99595000    0.0075383140
      3820.54       1.0371195    0.0075786597
      3824.36       1.0740318    0.0075493966
      3828.19       1.1036755    0.0075284029
      3832.02       1.1371547    0.0075675410
      3835.85       1.1625029    0.0075391696
      3839.68       1.1937949    0.0075826961
      3843.52       1.2234499    0.0075527090
      3847.37       1.2485949    0.0075969235
      3851.22       1.2729145    0.0076426117
      3855.07       1.2911157    0.0075445494
      3858.92       1.3111109    0.0075919284
      3862.78       1.3356028    0.0075612893
      3866.64       1.3589695    0.0075329062
      3870.51       1.3808306    0.0075115227
      3874.38       1.4043605    0.0074813152
      3878.26       1.4193046    0.0073861202
      3882.13       1.4367881    0.0074319044
      3886.02       1.4557367    0.0074024880
      3889.90       1.4713770    0.0073081512
      3893.79       1.4923124    0.0073529805
      3897.69       1.5126958    0.0073242285
      3901.59       1.5192856    0.0072310329
      3905.49       1.5263681    0.0072752438
      3909.39       1.5395579    0.0072465729
      3913.30       1.5479673    0.0071545949
      3917.22       1.5539787    0.0071988528
      3921.13       1.5614475    0.0071056200
      3925.06       1.5627265    0.0070788039
      3928.98       1.5675124    0.0070536628
      3932.91       1.5705312    0.0070309719
      3936.84       1.5651507    0.0070039474
      3940.78       1.5558762    0.0069784831
      3944.72       1.5507996    0.0069568562
      3948.67       1.5429801    0.0069300364
      3952.61       1.5321921    0.0069042980
      3956.57       1.5241030    0.0068799894
      3960.52       1.5159808    0.0068570034
      3964.48       1.5064242    0.0068312910
      3968.45       1.4984862    0.0068065512
      3972.42       1.4839109    0.0067207908
      3976.39       1.4636458    0.0067592260
      3980.37       1.4513430    0.0067342345
      3984.35       1.4430975    0.0066506041
      3988.33       1.4317726    0.0066246724
      3992.32       1.4226808    0.0066629081
      3996.31       1.4156615    0.0065817856
      4000.31       1.4076016    0.0065554314
      4004.31       1.3966991    0.0065302002
      4008.31       1.3845240    0.0065681292
      4012.32       1.3691705    0.0064878345
      4016.33       1.3559916    0.0064620970
      4020.35       1.3477912    0.0064374046
      4024.37       1.3350397    0.0063578210
      4028.40       1.3269094    0.0063955984
      4032.42       1.3166533    0.0063703431
      4036.46       1.3124574    0.0063460347
      4040.50       1.3071541    0.0062675331
      4044.54       1.2985211    0.0063051766
      4048.58       1.2897300    0.0062802288
      4052.63       1.2862106    0.0062561693
      4056.68       1.2829273    0.0061785665
      4060.74       1.2822255    0.0061558992
      4064.80       1.2815520    0.0061918489
      4068.86       1.2807995    0.0061680282
      4072.93       1.2820727    0.0060913535
      4077.01       1.2863368    0.0060686258
      4081.08       1.2874769    0.0060465821
      4085.17       1.2907878    0.0060250983
      4089.25       1.2900540    0.0060056803
      4093.34       1.2919452    0.0059829534
      4097.43       1.2899548    0.0059609191
      4101.53       1.2859105    0.0059393048
      4105.63       1.2833052    0.0059181128
      4109.74       1.2840605    0.0058452573
      4113.85       1.2893959    0.0058770540
      4117.96       1.2901329    0.0058553668
      4122.08       1.2864479    0.0058340633
      4126.20       1.2929380    0.0057644127
      4130.33       1.2983654    0.0057425168
      4134.46       1.3053907    0.0057208648
      4138.59       1.3089560    0.0056995232
      4142.73       1.3127569    0.0057310138
      4146.88       1.3206285    0.0056638122
      4151.02       1.3280666    0.0056421280
      4155.18       1.3312042    0.0056206994
      4159.33       1.3308061    0.0055997272
      4163.49       1.3300289    0.0055789848
      4167.65       1.3241656    0.0055586345
      4171.82       1.3217562    0.0055447471
      4175.99       1.3107275    0.0055236570
      4180.17       1.3045198    0.0055028067
      4184.35       1.2966799    0.0054822040
      4188.54       1.2937885    0.0054619100
      4192.72       1.2915652    0.0054419957
      4196.92       1.2890628    0.0053768229
      4201.11       1.2820290    0.0053574295
      4205.31       1.2824884    0.0053382701
      4209.52       1.2838064    0.0053192518
      4213.73       1.2836152    0.0053485107
      4217.94       1.2751276    0.0053287778
      4222.16       1.2758009    0.0052649838
      4226.38       1.2744497    0.0052457976
      4230.61       1.2687160    0.0052269777
      4234.84       1.2584866    0.0052082467
      4239.08       1.2529478    0.0051897989
      4243.32       1.2462902    0.0051713711
      4247.56       1.2301308    0.0051531426
      4251.81       1.2158125    0.0051350811
      4256.06       1.2007312    0.0050746357
      4260.32       1.1877164    0.0050563204
      4264.58       1.1701447    0.0050381823
      4268.84       1.1552802    0.0050200928
      4273.11       1.1399555    0.0050466702
      4277.38       1.1230066    0.0050289186
      4281.66       1.1087821    0.0050111575
      4285.94       1.1000770    0.0049935396
      4290.23       1.0924831    0.0049760638
      4294.52       1.0794302    0.0049587375
      4298.81       1.0670384    0.0049025443
      4303.11       1.0619830    0.0048850231
      4307.42       1.0568118    0.0048677598
      4311.72       1.0513750    0.0048504989
      4316.04       1.0468772    0.0048333406
      4320.35       1.0520692    0.0048162897
      4324.67       1.0519175    0.0047995755
      4329.00       1.0477936    0.0047828513
      4333.33       1.0479866    0.0047661399
      4337.66       1.0519236    0.0047496590
      4342.00       1.0551580    0.0047333015
      4346.34       1.0577458    0.0047169519
      4350.69       1.0602420    0.0047006965
      4355.04       1.0646851    0.0046846695
      4359.39       1.0712063    0.0046309033
      4363.75       1.0829794    0.0046150051
      4368.12       1.0877475    0.0045993012
      4372.48       1.0942534    0.0045837838
      4376.86       1.1014089    0.0045682408
      4381.23       1.1076331    0.0045526724
      4385.61       1.1209212    0.0045373862
      4390.00       1.1363492    0.0045221616
      4394.39       1.1509284    0.0045068853
      4398.79       1.1713858    0.0044918032
      4403.18       1.1924794    0.0044769145
      4407.59       1.2077503    0.0044620044
      4412.00       1.2250591    0.0044092071
      4416.41       1.2414229    0.0043947046
      4420.82       1.2603428    0.0043802866
      4425.25       1.2780952    0.0043657909
      4429.67       1.2953616    0.0043514777
      4434.10       1.3130976    0.0043373493
      4438.54       1.3335972    0.0043231632
      4442.97       1.3507102    0.0043090531
      4447.42       1.3672643    0.0042952096
      4451.86       1.3781257    0.0042814516
      4456.32       1.3935642    0.0042676349
      4460.77       1.4072176    0.0042540065
      4465.24       1.4197031    0.0042406479
      4469.70       1.4351892    0.0042272693
      4474.17       1.4467056    0.0041771229
      4478.65       1.4610189    0.0041637930
      4483.12       1.4738166    0.0041505350
      4487.61       1.4825803    0.0041371977
      4492.09       1.4912934    0.0041241116
      4496.59       1.5004326    0.0041112768
      4501.08       1.5083140    0.0040983432
      4505.58       1.5159026    0.0041178593
      4510.09       1.5237426    0.0041052267
      4514.60       1.5297720    0.0040927127
      4519.12       1.5363640    0.0040459859
      4523.63       1.5445350    0.0040332817
      4528.16       1.5475203    0.0040207608
      4532.69       1.5520682    0.0040081662
      4537.22       1.5529123    0.0039957799
      4541.76       1.5588698    0.0039836613
      4546.30       1.5611999    0.0039716424
      4550.85       1.5627332    0.0039270890
      4555.40       1.5634996    0.0039154515
      4559.95       1.5650768    0.0039040857
      4564.51       1.5624717    0.0038926388
      4569.08       1.5608768    0.0039105832
      4573.65       1.5589443    0.0038989269
      4578.22       1.5547664    0.0038872391
      4582.80       1.5508628    0.0038439511
      4587.38       1.5457782    0.0038328466
      4591.97       1.5392944    0.0038219673
      4596.56       1.5278551    0.0038110335
      4601.16       1.5166833    0.0038004113
      4605.76       1.5039817    0.0037901001
      4610.37       1.4895840    0.0037758042
      4614.98       1.4750879    0.0037649880
      4619.59       1.4584238    0.0037544942
      4624.21       1.4384968    0.0037441218
      4628.84       1.4222386    0.0037338752
      4633.47       1.4021085    0.0036925710
      4638.10       1.3792997    0.0036821848
      4642.74       1.3575185    0.0036718520
      4647.38       1.3329618    0.0036900593
      4652.03       1.3041300    0.0036803234
      4656.68       1.2761196    0.0036402805
      4661.34       1.2474486    0.0036300912
      4666.00       1.2147510    0.0036202298
      4670.67       1.1812967    0.0036105720
      4675.33       1.1460281    0.0035999316
      4680.01       1.1134247    0.0035898576
      4684.69       1.0811074    0.0035800766
      4689.38       1.0525823    0.0035703970
      4694.07       1.0251141    0.0035329455
      4698.76       1.0003042    0.0035240830
      4703.46      0.98081196    0.0035412268
      4708.16      0.96328114    0.0035317750
      4712.87      0.95171215    0.0034949082
      4717.58      0.94411265    0.0034861627
      4722.30      0.93737939    0.0034776578
      4727.03      0.93359901    0.0034945343
      4731.75      0.93489060    0.0034581207
      4736.48      0.93068819    0.0034495309
      4741.22      0.92503727    0.0034413464
      4745.96      0.91861392    0.0034335759
      4750.71      0.91157917    0.0034225417
      4755.46      0.90096737    0.0034142811
      4760.22      0.88842002    0.0034064486
      4764.97      0.87662540    0.0033712036
      4769.74      0.86693215    0.0033882398
      4774.51      0.85618194    0.0033803851
      4779.29      0.84859192    0.0033728297
      4784.07      0.84229825    0.0033379742
      4788.85      0.84116701    0.0033301368
      4793.64      0.84433372    0.0033477247
      4798.43      0.85405753    0.0033137773
      4803.23      0.86770931    0.0033059335
      4808.03      0.88363804    0.0032985349
      4812.84      0.90728018    0.0032903241
      4817.66      0.93099669    0.0032825058
      4822.48      0.95682079    0.0032751797
      4827.30      0.98251111    0.0032675247
      4832.12       1.0082548    0.0032597680
      4836.96       1.0343499    0.0032525212
      4841.79       1.0591043    0.0032210015
      4846.63       1.0816417    0.0032377475
      4851.48       1.1005556    0.0032306111
      4856.33       1.1174962    0.0031994477
      4861.19       1.1305759    0.0032163423
      4866.05       1.1381431    0.0032093248
      4870.92       1.1453326    0.0031784911
      4875.79       1.1448379    0.0031724675
      4880.66       1.1407991    0.0031644989
      4885.55       1.1301299    0.0031582498
      4890.43       1.1167373    0.0031524701
      4895.32       1.0985767    0.0031446778
      4900.22       1.0788848    0.0031386539
      4905.12       1.0615315    0.0031331691
      4910.02       1.0367933    0.0031255067
      4914.94       1.0146816    0.0031198151
      4919.85      0.99720430    0.0030902391
      4924.77      0.97961613    0.0031069775
      4929.70      0.96695385    0.0031015875
      4934.62      0.95980269    0.0030721107
      4939.56      0.95461083    0.0030891002
      4944.50      0.95404121    0.0030604413
      4949.44      0.95627086    0.0030546054
      4954.39      0.96492019    0.0030719185
      4959.35      0.97431998    0.0030432537
      4964.31      0.98672275    0.0030378500
      4969.27      0.99841019    0.0030322805
      4974.24       1.0103449    0.0030267432
      4979.22       1.0238304    0.0029996958
      4984.20       1.0385886    0.0030160453
      4989.18       1.0503799    0.0029889720
      4994.17       1.0643991    0.0030057059
      4999.16       1.0783793    0.0030005192
      5004.16       1.0894615    0.0029741115
      5009.17       1.1005598    0.0029903944
      5014.18       1.1118857    0.0029640195
      5019.19       1.1212403    0.0029806636
      5024.21       1.1302883    0.0029542333
      5029.23       1.1389773    0.0029502834
      5034.26       1.1454487    0.0029448587
      5039.30       1.1518717    0.0029408423
      5044.34       1.1571825    0.0029357576
      5049.39       1.1632858    0.0029316860
      5054.43       1.1685897    0.0029058998
      5059.49       1.1737177    0.0029227991
      5064.55       1.1780412    0.0028974104
      5069.61       1.1838437    0.0029142375
      5074.68       1.1920285    0.0028891084
      5079.76       1.1986940    0.0029059740
      5084.84       1.2049657    0.0028811336
      5089.92       1.2179398    0.0028979587
      5095.01       1.2325328    0.0028733730
      5100.11       1.2433266    0.0028694335
      5105.21       1.2551926    0.0028658070
      5110.31       1.2661536    0.0028619726
      5115.42       1.2807185    0.0028584830
      5120.54       1.2905609    0.0028547060
      5125.66       1.3031254    0.0028514011
      5130.79       1.3168406    0.0028477701
      5135.92       1.3278867    0.0028444854
      5141.05       1.3391658    0.0028210484
      5146.20       1.3487582    0.0028378322
      5151.34       1.3569492    0.0028145565
      5156.49       1.3653729    0.0028313996
      5161.65       1.3730880    0.0028083707
      5166.81       1.3796594    0.0028251458
      5171.98       1.3891855    0.0028024316
      5177.15       1.3949175    0.0028191896
      5182.33       1.4002562    0.0027966708
      5187.51       1.4066951    0.0027937188
      5192.70       1.4111318    0.0027912455
      5197.89       1.4126752    0.0027882109
      5203.09       1.4160638    0.0027860760
      5208.29       1.4175005    0.0027830138
      5213.50       1.4175303    0.0027610041
      5218.72       1.4150430    0.0027780862
      5223.93       1.4161643    0.0027560616
      5229.16       1.4171043    0.0027733656
      5234.39       1.4134064    0.0027513719
      5239.62       1.4101585    0.0027493618
      5244.86       1.4047514    0.0027663814
      5250.11       1.3993392    0.0027448695
      5255.36       1.3922610    0.0027432802
      5260.61       1.3838198    0.0027405430
      5265.87       1.3733130    0.0027389784
      5271.14       1.3646239    0.0027366183
      5276.41       1.3520100    0.0027348381
      5281.69       1.3416455    0.0027145483
      5286.97       1.3316833    0.0027311110
      5292.26       1.3239564    0.0027296787
      5297.55       1.3205164    0.0027092795
      5302.85       1.3163498    0.0027260660
      5308.15       1.3146792    0.0027061676
      5313.46       1.3109347    0.0027045031
      5318.77       1.3109546    0.0027215081
      5324.09       1.3124864    0.0027016207
      5329.42       1.3135691    0.0027002048
      5334.75       1.3136359    0.0026992332
      5340.08       1.3163980    0.0026975837
      5345.42       1.3158713    0.0026963257
      5350.77       1.3116393    0.0026767587
      5356.12       1.3080181    0.0026939957
      5361.48       1.3039976    0.0026928834
      5366.83       1.2980728    0.0026734689
      5372.20       1.2923769    0.0026908171
      5377.58       1.2843357    0.0026712276
      5382.95       1.2773483    0.0026705362
      5388.34       1.2675419    0.0026880664
      5393.72       1.2587410    0.0026685952
      5399.12       1.2504311    0.0026679998
      5404.52       1.2384235    0.0026678003
      5409.92       1.2286246    0.0026663488
      5415.33       1.2156687    0.0026658118
      5420.75       1.2059996    0.0026656561
      5426.17       1.1937897    0.0026470592
      5431.60       1.1821540    0.0026639728
      5437.03       1.1726764    0.0026638291
      5442.47       1.1631297    0.0026456336
      5447.91       1.1542926    0.0026451880
      5453.36       1.1461375    0.0026624064
      5458.81       1.1404828    0.0026446760
      5464.27       1.1344842    0.0026442324
      5469.73       1.1291566    0.0026440465
      5475.20       1.1231036    0.0026439731
      5480.68       1.1150092    0.0026437741
      5486.16       1.1077871    0.0026435082
      5491.65       1.0986677    0.0026434073
      5497.14       1.0875428    0.0026256630
      5502.64       1.0743282    0.0026259374
      5508.14       1.0598759    0.0026433416
      5513.65       1.0437988    0.0026434586
      5519.16       1.0252367    0.0026257169
      5524.68       1.0064913    0.0026260815
      5530.20      0.98372351    0.0026266557
      5535.73      0.96000382    0.0026439846
      5541.27      0.93480275    0.0026263447
      5546.81      0.90641379    0.0026268345
      5552.36      0.87851989    0.0026273402
      5557.91      0.84799790    0.0026280569
      5563.47      0.81774406    0.0026109246
      5569.04      0.78866430    0.0026279591
      5574.60      0.76112296    0.0026285723
      5580.18      0.73509586    0.0026292761
      5585.76      0.71238504    0.0026300628
      5591.35      0.69388851    0.0026132250
      5596.94      0.68080202    0.0026137712
      5602.53      0.67030460    0.0026144437
      5608.14      0.66669197    0.0026318667
      5613.75      0.67022774    0.0026156917
      5619.36      0.67876616    0.0026162661
      5624.98      0.69263495    0.0026169409
      5630.60      0.71161332    0.0026176530
      5636.23      0.73322052    0.0026185128
      5641.87      0.75687044    0.0026193986
      5647.51      0.78083534    0.0026029662
      5653.16      0.80733152    0.0026040035
      5658.82      0.83519884    0.0026217190
      5664.47      0.86486670    0.0026225623
      5670.14      0.89334510    0.0026234903
      5675.81      0.92180164    0.0026244341
      5681.48      0.95029860    0.0026080336
      5687.17      0.97792458    0.0026091012
      5692.85       1.0071798    0.0026102014
      5698.55       1.0334289    0.0026113806
      5704.25       1.0596199    0.0026125819
      5709.95       1.0856003    0.0026138039
      5715.66       1.1103829    0.0026150783
      5721.38       1.1327115    0.0025990961
      5727.10       1.1529816    0.0026002356
      5732.83       1.1700880    0.0026014041
      5738.56       1.1867685    0.0026025943
      5744.30       1.1993973    0.0026038442
      5750.04       1.2112668    0.0026050952
      5755.79       1.2214586    0.0026063541
      5761.55       1.2293390    0.0026076365
      5767.31       1.2359675    0.0026250632
      5773.08       1.2415355    0.0026099129
      5778.85       1.2464674    0.0026112012
      5784.63       1.2508679    0.0026126267
      5790.41       1.2530773    0.0026142497
      5796.21       1.2540884    0.0026159198
      5802.00       1.2554036    0.0026174478
      5807.81       1.2521052    0.0026190393
      5813.61       1.2451748    0.0026050339
      5819.43       1.2392091    0.0026078232
      5825.25       1.2316990    0.0026113420
      5831.07       1.2250875    0.0026150993
      5836.90       1.2122055    0.0026189056
      5842.74       1.2022509    0.0026230271
      5848.58       1.1886203    0.0026273542
      5854.43       1.1715468    0.0026310021
      5860.29       1.1548279    0.0026337736
      5866.15       1.1381695    0.0026360115
      5872.01       1.1218558    0.0026210048
      5877.89       1.1082826    0.0026226128
      5883.76       1.0958454    0.0026237025
      5889.65       1.0868473    0.0026245473
      5895.54       1.0766759    0.0026255267
      5901.43       1.0665183    0.0026266211
      5907.34       1.0586877    0.0026277109
      5913.24       1.0523327    0.0026284666
      5919.16       1.0461613    0.0026288711
      5925.08       1.0396650    0.0026125511
      5931.00       1.0351391    0.0026125006
      5936.93       1.0319883    0.0026125475
      5942.87       1.0309916    0.0026287316
      5948.81       1.0250200    0.0026281733
      5954.76       1.0212686    0.0026281893
      5960.72       1.0126592    0.0026286579
      5966.68       1.0050176    0.0026289114
      5972.64      0.99851144    0.0026289944
      5978.62      0.99462218    0.0026137062
      5984.60      0.99208509    0.0026143580
      5990.58      0.99146045    0.0026152033
      5996.57      0.98951710    0.0026161188
      6002.57      0.98815444    0.0026172127
      6008.57      0.98780184    0.0026184094
      6014.58      0.98704841    0.0026196686
      6020.60      0.98745653    0.0026056699
      6026.62      0.98490091    0.0026069117
      6032.65      0.98033778    0.0026082927
      6038.68      0.97397054    0.0026096987
      6044.72      0.96536961    0.0026269997
      6050.76      0.95329833    0.0026282189
      6056.81      0.93948204    0.0026140497
      6062.87      0.92214662    0.0026153248
      6068.93      0.90288708    0.0026166022
      6075.00      0.88490370    0.0026178842
      6081.08      0.86446774    0.0026192955
      6087.16      0.84521381    0.0026048701
      6093.25      0.82783657    0.0026059794
      6099.34      0.81091406    0.0026233166
      6105.44      0.79793004    0.0026244677
      6111.54      0.78154324    0.0026257295
      6117.66      0.77749054    0.0026113814
      6123.78      0.77433917    0.0026123290
      6129.90      0.77369706    0.0026133764
      6136.03      0.77619055    0.0026143774
      6142.17      0.78152385    0.0026165978
      6148.31      0.78864184    0.0026173203
      6154.46      0.79540107    0.0026181348
      6160.61      0.80375699    0.0026190890
      6166.77      0.81211212    0.0026052269
      6172.94      0.82172453    0.0026071230
      6179.11      0.83196242    0.0026249732
      6185.29      0.84343946    0.0026260512
      6191.48      0.85215152    0.0026117713
      6197.67      0.85813744    0.0026137750
      6203.87      0.86481277    0.0026173091
      6210.07      0.87186344    0.0026233777
      6216.28      0.87776219    0.0026292755
      6222.50      0.88210319    0.0026359723
      6228.72      0.88688062    0.0026428090
      6234.95      0.89798337    0.0026341239
      6241.19      0.90156494    0.0026554745
      6247.42      0.90546330    0.0026589049
      6253.67      0.91086661    0.0026446259
      6259.93      0.91473290    0.0026437107
      6266.19      0.91659065    0.0026571108
      6272.46      0.91614479    0.0026370596
      6278.73      0.91517577    0.0026323058
      6285.01      0.91330069    0.0026280871
      6291.29      0.91080439    0.0026253325
      6297.58      0.90550785    0.0026235859
      6303.88      0.89746051    0.0026211605
      6310.19      0.88629042    0.0026035859
      6316.50      0.87500252    0.0026167842
      6322.81      0.86167093    0.0026002499
      6329.14      0.84734885    0.0025989824
      6335.47      0.82942654    0.0026127713
      6341.80      0.81179048    0.0025968034
      6348.14      0.79569677    0.0025959762
      6354.49      0.77822237    0.0025955213
      6360.85      0.76274474    0.0025949285
      6367.21      0.75174051    0.0025946702
      6373.57      0.74364405    0.0025796715
      6379.95      0.73668229    0.0025944697
      6386.33      0.73327920    0.0025944371
      6392.72      0.73344143    0.0025797247
      6399.11      0.73630792    0.0025953921
      6405.51      0.74323553    0.0025823327
      6411.92      0.75164766    0.0025839447
      6418.32      0.76200070    0.0025865925
      6424.74      0.77451702    0.0025872556
      6431.17      0.78986166    0.0025880050
      6437.60      0.80586599    0.0025893802
      6444.04      0.81947521    0.0025893905
      6450.48      0.83250624    0.0025747334
      6456.94      0.84528378    0.0025881086
      6463.39      0.85861033    0.0025720345
      6469.85      0.86994712    0.0025846025
      6476.33      0.88112056    0.0025680858
      6482.80      0.89002323    0.0025665102
      6489.28      0.89944442    0.0025647916
      6495.77      0.90605661    0.0025635063
      6502.27      0.91230842    0.0025618068
      6508.77      0.91838040    0.0025598001
      6515.28      0.92376445    0.0025430146
      6521.80      0.92597204    0.0025547216
      6528.32      0.92854047    0.0025379308
      6534.85      0.93007415    0.0025500073
      6541.38      0.93109852    0.0025330888
      6547.92      0.93428680    0.0025441356
      6554.47      0.93524775    0.0025272043
      6561.03      0.93582376    0.0025246458
      6567.59      0.93486928    0.0025225415
      6574.16      0.93260619    0.0025202518
      6580.73      0.93141265    0.0025182311
      6587.31      0.92993297    0.0025159655
      6593.90      0.92628497    0.0025138907
      6600.50      0.92267622    0.0024977216
      6607.10      0.91643119    0.0025092347
      6613.70      0.90999153    0.0024929736
      6620.32      0.90325368    0.0025043242
      6626.94      0.89757263    0.0024880249
      6633.57      0.89107288    0.0024991845
      6640.20      0.88357254    0.0024827966
      6646.84      0.87333922    0.0024799485
      6653.49      0.86498048    0.0024772884
      6660.14      0.85761944    0.0024741780
      6666.80      0.84824267    0.0024714761
      6673.47      0.84181576    0.0024680704
      6680.14      0.83158614    0.0024514893
      6686.82      0.82013755    0.0024616563
      6693.51      0.80667531    0.0024448538
      6700.20      0.79532147    0.0024549638
      6706.90      0.78319926    0.0024378986
      6713.61      0.77086126    0.0024342917
      6720.32      0.75745480    0.0024306336
      6727.05      0.74534795    0.0024267268
      6733.77      0.73442759    0.0024098499
      6740.51      0.72481434    0.0024188614
      6747.25      0.71836168    0.0024151957
      6754.00      0.71628255    0.0024025919
      6760.75      0.71413643    0.0024191494
      6767.51      0.71675805    0.0024079366
      6774.28      0.71926623    0.0023993946
      6781.05      0.72438853    0.0024106184
      6787.84      0.73173017    0.0024070045
      6794.62      0.73918652    0.0024256018
      6801.42      0.74779106    0.0024468127
      6808.22      0.75499682    0.0024792451
      6815.03      0.76279353    0.0025152375
      6821.85      0.77082286    0.0025329264
      6828.67      0.78118409    0.0025716035
      6835.50      0.78866058    0.0025723091
      6842.33      0.79534277    0.0025752991
      6849.17      0.79990499    0.0025806923
      6856.02      0.80687614    0.0025422907
      6862.88      0.81098303    0.0025080341
      6869.74      0.81728352    0.0024693166
      6876.61      0.82273760    0.0024384009
      6883.49      0.82714753    0.0024074975
      6890.37      0.83027369    0.0023869050
      6897.27      0.83401991    0.0023538113
      6904.16      0.83163235    0.0023421816
      6911.07      0.83104479    0.0023226481
      6917.98      0.82884872    0.0022962445
      6924.89      0.82505423    0.0022811962
      6931.82      0.82305038    0.0022676230
      6938.75      0.82044766    0.0022580132
      6945.69      0.81793663    0.0022475168
      6952.64      0.81454102    0.0022382812
      6959.59      0.81175661    0.0022187731
      6966.55      0.80629794    0.0022101340
      6973.52      0.80191579    0.0022131261
      6980.49      0.79800898    0.0022026239
      6987.47      0.79407121    0.0021684915
      6994.46      0.78985165    0.0021250669
      7001.46      0.78898463    0.0021044350
      7008.46      0.78952377    0.0020729318
      7015.46      0.78863678    0.0020425743
      7022.48      0.78757890    0.0020233275
      7029.51      0.78822184    0.0019941957
      7036.53      0.79004748    0.0019662789
      7043.57      0.78949568    0.0019409366
      7050.62      0.79018028    0.0019181351
      7057.66      0.79274817    0.0018943127
      7064.72      0.79335945    0.0018703420
      7071.79      0.79278540    0.0018471519
      7078.86      0.79232295    0.0018337019
      7085.94      0.79007840    0.0018154544
      7093.03      0.78778461    0.0018031476
      7100.12      0.78529238    0.0017944496
      7107.22      0.77982749    0.0017850222
      7114.33      0.77759335    0.0017804714
      7121.44      0.77430144    0.0017676199
      7128.56      0.77162280    0.0017469245
      7135.69      0.76936112    0.0017323047
      7142.83      0.76424734    0.0017158240
      7149.97      0.75971835    0.0016983255
      7157.12      0.75365532    0.0016795509
      7164.28      0.74950976    0.0016662095
      7171.44      0.74564402    0.0016443396
      7178.62      0.74160353    0.0016214290
      7185.80      0.73727371    0.0015981880
      7192.98      0.73363688    0.0015746685
      7200.17      0.73004831    0.0015508476
      7207.38      0.72800400    0.0015266475
      7214.58      0.72619833    0.0015019733
      7221.80      0.72495288    0.0014772163
      7229.02      0.72267138    0.0014527670
      7236.25      0.72047454    0.0014313746
      7243.49      0.71773054    0.0014072775
      7250.73      0.71706145    0.0013892008
      7257.98      0.71392861    0.0014029149
      7265.24      0.71068066    0.0014197259
      7272.51      0.70650883    0.0014403246
      7279.78      0.70247035    0.0014660357
      7287.06      0.69812921    0.0014986454
      7294.35      0.69348305    0.0015412005
      7301.64      0.68897366    0.0015984500
      7308.94      0.68504196    0.0016763863
      7316.25      0.68031266    0.0017818241
      7323.57      0.67540061    0.0019215099
      7330.89      0.66944942    0.0021031786
      7338.22      0.66500188    0.0023375706
      7345.56      0.65828973    0.0026391348
      7352.91      0.65012642    0.0030241703
      7360.26      0.64077120    0.0035111578
      7367.62      0.63030584    0.0041234282
