# starting wavelength =        3456.9024
# ending wavelength =        7255.8800
# O2 telluric scale =        0
# O2 telluric shift =        0
# H2O telluric scale =        0
# H2O telluric shift =        0
      3457.13       1.0555418     0.044072989
      3460.58       1.0220722     0.042676305
      3464.04       1.0142923     0.041534592
      3467.51       1.0174168     0.040586074
      3470.98       1.0132419     0.039509829
      3474.45       1.0126209     0.038837200
      3477.92       1.0207845     0.038255117
      3481.40       1.0300922     0.037921183
      3484.88       1.0269924     0.037539115
      3488.37       1.0293056     0.037581992
      3491.86       1.0430146     0.037629118
      3495.35       1.0329844     0.037494036
      3498.84       1.0320849     0.037289896
      3502.34       1.0352865     0.037153589
      3505.84       1.0554018     0.037196635
      3509.35       1.0415940     0.037248536
      3512.86       1.0599713     0.036861295
      3516.37       1.0852365     0.036911115
      3519.89       1.1096596     0.036777918
      3523.41       1.1219692     0.036821267
      3526.93       1.1059056     0.036626786
      3530.46       1.1317289     0.036486042
      3533.99       1.1364063     0.036542520
      3537.53       1.1600432     0.036343790
      3541.06       1.1717148     0.036208055
      3544.60       1.1814659     0.036259147
      3548.15       1.2059433     0.036317722
      3551.70       1.1881463     0.035927164
      3555.25       1.1712433     0.035983515
      3558.80       1.1705474     0.036041696
      3562.36       1.1475962     0.035652538
      3565.92       1.1348059     0.035710283
      3569.49       1.0892734     0.035769876
      3573.06       1.0700194     0.035637940
      3576.64       1.0595368     0.035438589
      3580.21       1.0618241     0.035501976
      3583.79       1.0675282     0.035362383
      3587.38       1.0643922     0.035173385
      3590.96       1.0644298     0.035235181
      3594.55       1.0703069     0.035103238
      3598.15       1.0605441     0.035163278
      3601.75       1.0420848     0.034973721
      3605.35       1.0387960     0.034834632
      3608.96       1.0369519     0.034909092
      3612.56       1.0444578     0.034713194
      3616.18       1.0310759     0.034785603
      3619.79       1.0176935     0.034645811
      3623.41       1.0066475     0.034457132
      3627.04      0.99109602     0.034528541
      3630.66      0.98853741     0.034399832
      3634.29      0.98121709     0.034204172
      3637.93      0.98079114     0.034278879
      3641.57      0.98060412     0.034356046
      3645.21      0.97848084     0.033952706
      3648.86      0.96332535     0.034030503
      3652.50      0.95254951     0.034109551
      3656.16      0.94666654     0.033928235
      3659.81      0.92793924     0.033784935
      3663.47      0.92211363     0.033870660
      3667.14      0.90846739     0.033678971
      3670.80      0.88601581     0.033767428
      3674.48      0.87687121     0.033627461
      3678.15      0.88223650     0.033443257
      3681.83      0.86208611     0.033529458
      3685.51      0.82880334     0.033620109
      3689.20      0.79226671     0.033208116
      3692.88      0.76366777     0.033295422
      3696.58      0.73548736     0.033393546
      3700.27      0.71922926     0.033203255
      3703.98      0.71931102     0.033302969
      3707.68      0.69412443     0.033163247
      3711.39      0.65937642     0.032978350
      3715.10      0.63834460     0.033079469
      3718.81      0.61567508     0.033179923
      3722.53      0.60344280     0.032760159
      3726.26      0.58667900     0.032857020
      3729.98      0.55196528     0.032675078
      3733.71      0.53669082     0.032780929
      3737.45      0.51921209     0.032889371
      3741.18      0.51463760     0.032709920
      3744.93      0.51247046     0.032565092
      3748.67      0.51157279     0.032690916
      3752.42      0.51279563     0.032497967
      3756.17      0.49970329     0.032613706
      3759.93      0.48174890     0.032435177
      3763.69      0.47903051     0.032549918
      3767.45      0.45656140     0.032423644
      3771.22      0.42977076     0.032231123
      3774.99      0.42586532     0.032353536
      3778.77      0.41574210     0.032493543
      3782.54      0.41285402     0.032299783
      3786.33      0.41940487     0.032434418
      3790.11      0.41530181     0.032258899
      3793.90      0.42889404     0.032110507
      3797.70      0.43543431     0.032266080
      3801.50      0.44909597     0.032069571
      3805.30      0.45730553     0.031882256
      3809.10      0.47957416     0.031754474
      3812.91      0.48919046     0.031563711
      3816.73      0.50597688     0.031381788
      3820.54      0.54115498     0.031253481
      3824.36      0.56705429     0.031064362
      3828.19      0.60076865     0.030616015
      3832.02      0.63744226     0.030756634
      3835.85      0.67557709     0.030573052
      3839.68      0.71109238     0.030132290
      3843.52      0.72856747     0.030269380
      3847.37      0.78147271     0.030086032
      3851.22      0.83476818     0.029650822
      3855.07      0.86430226     0.029483971
      3858.92      0.90612295     0.029607292
      3862.78      0.93947370     0.029178104
      3866.64      0.97433233     0.029010731
      3870.51       1.0183831     0.029132609
      3874.38       1.0663267     0.028708791
      3878.26       1.1064154     0.028544604
      3882.13       1.1451599     0.028385461
      3886.02       1.1813073     0.028247862
      3889.90       1.2190868     0.028082328
      3893.79       1.2417617     0.027923029
      3897.69       1.2774157     0.027791432
      3901.59       1.3054866     0.027628528
      3905.49       1.3451661     0.027469364
      3909.39       1.3800916     0.027074543
      3913.30       1.3926703     0.027178745
      3917.22       1.4161111     0.027019552
      3921.13       1.4565479     0.026637679
      3925.06       1.4714608     0.026475829
      3928.98       1.4831790     0.026578808
      3932.91       1.5117654     0.026207093
      3936.84       1.5444787     0.026044633
      3940.78       1.5534252     0.025886836
      3944.72       1.5666210     0.025989107
      3948.67       1.5813936     0.025624247
      3952.61       1.5788525     0.025464818
      3956.57       1.5863199     0.025309467
      3960.52       1.5973303     0.024949198
      3964.48       1.5941972     0.025051512
      3968.45       1.5769283     0.024896587
      3972.42       1.5771340     0.024744178
      3976.39       1.5756897     0.024390393
      3980.37       1.5857418     0.024490093
      3984.35       1.5795564     0.024337839
      3988.33       1.5683937     0.024189166
      3992.32       1.5590658     0.023843186
      3996.31       1.5629410     0.023699850
      4000.31       1.5533185     0.023790958
      4004.31       1.5493473     0.023643448
      4008.31       1.5384623     0.023305146
      4012.32       1.5212496     0.023164488
      4016.33       1.4896785     0.023025614
      4020.35       1.4542261     0.023110708
      4024.37       1.4215569     0.022777285
      4028.40       1.4015309     0.022638653
      4032.42       1.3789674     0.022502003
      4036.46       1.3487802     0.022366802
      4040.50       1.3256626     0.022049993
      4044.54       1.3042914     0.022124164
      4048.58       1.2915391     0.021988900
      4052.63       1.2867729     0.021855404
      4056.68       1.2839918     0.021723192
      4060.74       1.2776107     0.021416868
      4064.80       1.2684520     0.021282355
      4068.86       1.2588219     0.021151232
      4072.93       1.2579887     0.021224619
      4077.01       1.2386296     0.021095201
      4081.08       1.2232963     0.020801328
      4085.17       1.1998064     0.020669493
      4089.25       1.1851526     0.020540701
      4093.34       1.1589992     0.020413931
      4097.43       1.1320465     0.020288095
      4101.53       1.1234918     0.020204254
      4105.63       1.1258574     0.020075211
      4109.74       1.1223628     0.019948061
      4113.85       1.1092241     0.019823476
      4117.96       1.1183942     0.019700082
      4122.08       1.1353742     0.019577408
      4126.20       1.1319053     0.019301016
      4130.33       1.1575706     0.019181694
      4134.46       1.1750481     0.019064756
      4138.59       1.1889855     0.019131369
      4142.73       1.2066539     0.019010730
      4146.88       1.2151004     0.018890761
      4151.02       1.2221849     0.018772250
      4155.18       1.2349688     0.018507698
      4159.33       1.2495106     0.018393182
      4163.49       1.2458291     0.018279198
      4167.65       1.2480705     0.018165788
      4171.82       1.2430773     0.018053308
      4175.99       1.2456639     0.017942716
      4180.17       1.2448815     0.017833378
      4184.35       1.2386221     0.017582685
      4188.54       1.2252136     0.017472467
      4192.72       1.2116858     0.017525448
      4196.92       1.2109874     0.017416332
      4201.11       1.2030609     0.017308573
      4205.31       1.1903217     0.017201155
      4209.52       1.1978352     0.017094101
      4213.73       1.1981995     0.016987410
      4217.94       1.1985514     0.016882653
      4222.16       1.2034999     0.016651865
      4226.38       1.2151569     0.016547465
      4230.61       1.2255085     0.016443519
      4234.84       1.2385698     0.016340030
      4239.08       1.2372248     0.016237955
      4243.32       1.2303805     0.016137239
      4247.56       1.2395473     0.016036856
      4251.81       1.2353507     0.015936884
      4256.06       1.2372477     0.015837304
      4260.32       1.2424190     0.015738671
      4264.58       1.2449941     0.015641520
      4268.84       1.2458613     0.015544629
      4273.11       1.2434491     0.015330021
      4277.38       1.2421365     0.015234586
      4281.66       1.2366570     0.015140113
      4285.94       1.2279681     0.015046971
      4290.23       1.2264111     0.014954083
      4294.52       1.2262617     0.014861528
      4298.81       1.2188595     0.014769332
      4303.11       1.2137747     0.014678025
      4307.42       1.1975065     0.014588006
      4311.72       1.1737436     0.014498237
      4316.04       1.1486188     0.014408793
      4320.35       1.1185066     0.014319701
      4324.67       1.0849113     0.014231196
      4329.00       1.0565769     0.014144387
      4333.33       1.0292660     0.014057800
      4337.66       1.0142525     0.013971485
      4342.00      0.99304172     0.013885475
      4346.34      0.97151042     0.013800527
      4350.69      0.94765600     0.013716447
      4355.04      0.93268325     0.013632685
      4359.39      0.91515557     0.013549272
      4363.75      0.89844020     0.013466241
      4368.12      0.89093269     0.013264008
      4372.48      0.88060688     0.013183797
      4376.86      0.88272187     0.013103950
      4381.23      0.88050764     0.013024529
      4385.61      0.87783277     0.012945538
      4390.00      0.86603073     0.012867596
      4394.39      0.85981151     0.012790624
      4398.79      0.85434263     0.012714046
      4403.18      0.84525680     0.012637914
      4407.59      0.83399197     0.012562242
      4412.00      0.83488002     0.012487456
      4416.41      0.83708373     0.012413703
      4420.82      0.85256059     0.012228272
      4425.25      0.85615593     0.012154840
      4429.67      0.87186700     0.012081857
      4434.10      0.89139323     0.012010314
      4438.54      0.91743603     0.011939335
      4442.97      0.94270799     0.011868813
      4447.42      0.96768795     0.011798806
      4451.86      0.99517210     0.011729532
      4456.32       1.0192593     0.011661209
      4460.77       1.0486741     0.011578415
      4465.24       1.0826787     0.011509910
      4469.70       1.1120882     0.011441951
      4474.17       1.1467865     0.011374920
      4478.65       1.1734299     0.011308750
      4483.12       1.2063426     0.011243296
      4487.61       1.2297228     0.011178452
      4492.09       1.2510806     0.011017834
      4496.59       1.2708353     0.010955316
      4501.08       1.2860028     0.010893502
      4505.58       1.3041017     0.010832461
      4510.09       1.3359083     0.010772095
      4514.60       1.3644375     0.010786561
      4519.12       1.3948090     0.010725457
      4523.63       1.4091465     0.010573298
      4528.16       1.4176135     0.010514501
      4532.69       1.4230037     0.010456381
      4537.22       1.4284767     0.010399121
      4541.76       1.4439526     0.010342922
      4546.30       1.4529470     0.010195337
      4550.85       1.4696691     0.010212727
      4555.40       1.4836970     0.010156836
      4559.95       1.5039783     0.010102014
      4564.51       1.5070078     0.010048209
      4569.08       1.5175732    0.0099080966
      4573.65       1.5225050    0.0098541965
      4578.22       1.5285130    0.0098010865
      4582.80       1.5249648    0.0097492206
      4587.38       1.5218855    0.0097689411
      4591.97       1.5340577    0.0096352214
      4596.56       1.5493495    0.0095837542
      4601.16       1.5506274    0.0095333109
      4605.76       1.5478794    0.0094838980
      4610.37       1.5311983    0.0093567659
      4614.98       1.5289443    0.0093759795
      4619.59       1.5329784    0.0093270018
      4624.21       1.5350690    0.0092792454
      4628.84       1.5292446    0.0092324350
      4633.47       1.5204187    0.0091104330
      4638.10       1.5106370    0.0091300831
      4642.74       1.5073184    0.0090838081
      4647.38       1.5048846    0.0090388934
      4652.03       1.4919519    0.0089204651
      4656.68       1.4852740    0.0088780448
      4661.34       1.4769254    0.0088975429
      4666.00       1.4631504    0.0087811976
      4670.67       1.4444149    0.0087394621
      4675.33       1.4291304    0.0086990382
      4680.01       1.4164126    0.0086596587
      4684.69       1.3990576    0.0086070560
      4689.38       1.3739202    0.0085674563
      4694.07       1.3525089    0.0085288830
      4698.76       1.3318055    0.0084198011
      4703.46       1.3074861    0.0083812442
      4708.16       1.2797295    0.0084037414
      4712.87       1.2420029    0.0083674500
      4717.58       1.1982462    0.0082613530
      4722.30       1.1557159    0.0082250278
      4727.03       1.1144622    0.0082487832
      4731.75       1.0731156    0.0081466399
      4736.48       1.0398204    0.0081112099
      4741.22      0.99848003    0.0080772189
      4745.96      0.96460262    0.0080366196
      4750.71      0.92664890    0.0080024852
      4755.46      0.90000199    0.0079695440
      4760.22      0.87824040    0.0079313489
      4764.97      0.86097817    0.0078981689
      4769.74      0.85046841    0.0078662663
      4774.51      0.84230629    0.0077740834
      4779.29      0.84150472    0.0077985435
      4784.07      0.84692324    0.0077680343
      4788.85      0.84890649    0.0076779239
      4793.64      0.85415427    0.0077036183
      4798.43      0.85542904    0.0076744121
      4803.23      0.85547656    0.0075864822
      4808.03      0.86155359    0.0075603879
      4812.84      0.85264127    0.0075257530
      4817.66      0.84663008    0.0074997141
      4822.48      0.83612223    0.0074749324
      4827.30      0.82513386    0.0074416861
      4832.12      0.81302151    0.0074169506
      4836.96      0.80406308    0.0073345950
      4841.79      0.78952311    0.0073620792
      4846.63      0.78610135    0.0073389068
      4851.48      0.77848550    0.0072580051
      4856.33      0.78017231    0.0072868688
      4861.19      0.79183049    0.0072089030
      4866.05      0.79658237    0.0071859383
      4870.92      0.80608942    0.0072160067
      4875.79      0.81781723    0.0071391308
      4880.66      0.83679573    0.0071181799
      4885.55      0.86441986    0.0070949589
      4890.43      0.89332047    0.0070738124
      4895.32      0.92888788    0.0070544546
      4900.22      0.97946804    0.0070320390
      4905.12       1.0088227    0.0070129304
      4910.02       1.0451719    0.0069922423
      4914.94       1.0763711    0.0069733095
      4919.85       1.1053745    0.0069042813
      4924.77       1.1312262    0.0069360997
      4929.70       1.1490938    0.0068677286
      4934.62       1.1568582    0.0068527033
      4939.56       1.1622679    0.0068331081
      4944.50       1.1560154    0.0068186347
      4949.44       1.1504611    0.0068513053
      4954.39       1.1283773    0.0067862343
      4959.35       1.0957168    0.0067737555
      4964.31       1.0570783    0.0067560744
      4969.27       1.0185517    0.0067440710
      4974.24      0.98713882    0.0067275560
      4979.22      0.95612101    0.0067159687
      4984.20      0.92824537    0.0067010948
      4989.18      0.90461284    0.0066901092
      4994.17      0.88834749    0.0066289710
      4999.16      0.86446732    0.0066657698
      5004.16      0.85169272    0.0066059379
      5009.17      0.85081512    0.0066435764
      5014.18      0.85156117    0.0065849855
      5019.19      0.85394729    0.0066227501
      5024.21      0.86362815    0.0065652181
      5029.23      0.87897767    0.0066039502
      5034.26      0.89281219    0.0065475310
      5039.30      0.91145769    0.0064932737
      5044.34      0.93292444    0.0065310380
      5049.39      0.95808644    0.0064779830
      5054.43      0.97873582    0.0065165651
      5059.49      0.99803382    0.0064642520
      5064.55       1.0189991    0.0065032344
      5069.61       1.0412329    0.0064520558
      5074.68       1.0575479    0.0064918653
      5079.76       1.0687862    0.0064416297
      5084.84       1.0778177    0.0064816763
      5089.92       1.0876465    0.0064325774
      5095.01       1.0953210    0.0064285068
      5100.11       1.0972981    0.0064253428
      5105.21       1.1054246    0.0064214772
      5110.31       1.1055502    0.0064193000
      5115.42       1.1005913    0.0064164132
      5120.54       1.1071062    0.0063695755
      5125.66       1.1070181    0.0064126265
      5130.79       1.1049814    0.0063660679
      5135.92       1.1060105    0.0064105607
      5141.05       1.1113800    0.0063645446
      5146.20       1.1177107    0.0063657316
      5151.34       1.1208319    0.0064099712
      5156.49       1.1357540    0.0063658307
      5161.65       1.1555024    0.0064115649
      5166.81       1.1704404    0.0063674524
      5171.98       1.1860792    0.0063707646
      5177.15       1.2059354    0.0063704565
      5182.33       1.2142654    0.0063742977
      5187.51       1.2295744    0.0063329234
      5192.70       1.2524108    0.0063788586
      5197.89       1.2806009    0.0063843855
      5203.09       1.3102356    0.0063854785
      5208.29       1.3413898    0.0063909933
      5213.50       1.3680217    0.0063512218
      5218.72       1.3940535    0.0063989344
      5223.93       1.4009200    0.0063610479
      5229.16       1.4107721    0.0063667941
      5234.39       1.4166446    0.0064156858
      5239.62       1.4221759    0.0063780238
      5244.86       1.4347291    0.0063852436
      5250.11       1.4420911    0.0063913211
      5255.36       1.4488804    0.0063982405
      5260.61       1.4533182    0.0064063221
      5265.87       1.4538233    0.0064131193
      5271.14       1.4439455    0.0064213733
      5276.41       1.4342020    0.0064305194
      5281.69       1.4256151    0.0063948005
      5286.97       1.4290176    0.0064471606
      5292.26       1.4359917    0.0064112990
      5297.55       1.4474174    0.0064223343
      5302.85       1.4504984    0.0064755152
      5308.15       1.4508893    0.0064403244
      5313.46       1.4454541    0.0064523442
      5318.77       1.4363415    0.0064651040
      5324.09       1.4254388    0.0064716756
      5329.42       1.4215298    0.0064845822
      5334.75       1.4108994    0.0064982116
      5340.08       1.4050800    0.0064651759
      5345.42       1.4044505    0.0065190774
      5350.77       1.3903694    0.0065335077
      5356.12       1.3782524    0.0065017373
      5361.48       1.3671398    0.0065155444
      5366.83       1.3621316    0.0065709840
      5372.20       1.3489801    0.0065406022
      5377.58       1.3418572    0.0065550730
      5382.95       1.3465911    0.0065701164
      5388.34       1.3449665    0.0066269598
      5393.72       1.3408116    0.0065968663
      5399.12       1.3429245    0.0066124449
      5404.52       1.3432304    0.0066285204
      5409.92       1.3419023    0.0065981605
      5415.33       1.3466381    0.0066570934
      5420.75       1.3448414    0.0066736574
      5426.17       1.3483054    0.0066906644
      5431.60       1.3515064    0.0066606813
      5437.03       1.3458605    0.0066789308
      5442.47       1.3415711    0.0067385398
      5447.91       1.3346706    0.0067563063
      5453.36       1.3204316    0.0067264260
      5458.81       1.3091746    0.0067453912
      5464.27       1.2945603    0.0067647144
      5469.73       1.2799589    0.0067843847
      5475.20       1.2671003    0.0067955765
      5480.68       1.2579163    0.0068151278
      5486.16       1.2543245    0.0068349907
      5491.65       1.2409475    0.0068551337
      5497.14       1.2337499    0.0068270045
      5502.64       1.2238016    0.0068468637
      5508.14       1.2117429    0.0069083726
      5513.65       1.2054661    0.0069288614
      5519.16       1.1897014    0.0069497648
      5524.68       1.1807294    0.0069225979
      5530.20       1.1707246    0.0069430890
      5535.73       1.1583211    0.0069637678
      5541.27       1.1355966    0.0069849793
      5546.81       1.1157581    0.0070065810
      5552.36       1.1015588    0.0069792957
      5557.91       1.0827983    0.0070436904
      5563.47       1.0647815    0.0070651275
      5569.04       1.0439348    0.0070869093
      5574.60       1.0242354    0.0071088242
      5580.18       1.0173514    0.0071309255
      5585.76       1.0064828    0.0071033918
      5591.35      0.99318491    0.0071259326
      5596.94      0.97972993    0.0071485772
      5602.53      0.96483985    0.0071714118
      5608.14      0.94773402    0.0071945955
      5613.75      0.92909943    0.0072179224
      5619.36      0.90850470    0.0071904349
      5624.98      0.88082341    0.0072552659
      5630.60      0.86091481    0.0072784415
      5636.23      0.82865043    0.0073018338
      5641.87      0.79589550    0.0073252140
      5647.51      0.76385235    0.0073487699
      5653.16      0.74026911    0.0073725199
      5658.82      0.72569082    0.0073963451
      5664.47      0.70926416    0.0073702178
      5670.14      0.69511657    0.0073935892
      5675.81      0.68246727    0.0074172699
      5681.48      0.68194776    0.0074409314
      5687.17      0.68622591    0.0074646442
      5692.85      0.69075933    0.0074885919
      5698.55      0.70027866    0.0075130298
      5704.25      0.71610591    0.0075379185
      5709.95      0.73685916    0.0075629581
      5715.66      0.76261706    0.0075877103
      5721.38      0.78940573    0.0076127103
      5727.10      0.80689968    0.0076384107
      5732.83      0.82595855    0.0076135972
      5738.56      0.84601212    0.0076433526
      5744.30      0.86502841    0.0076743887
      5750.04      0.88311312    0.0077054673
      5755.79      0.90379104    0.0077375259
      5761.55      0.93556820    0.0077705641
      5767.31      0.97064726    0.0078023620
      5773.08      0.99788170    0.0078315338
      5778.85       1.0244629    0.0078588556
      5784.63       1.0472717    0.0078404550
      5790.41       1.0750833    0.0078651807
      5796.21       1.1043284    0.0078885783
      5802.00       1.1270050    0.0079109662
      5807.81       1.1523155    0.0079337247
      5813.61       1.1722985    0.0079569263
      5819.43       1.1908374    0.0079800683
      5825.25       1.2115538    0.0080020356
      5831.07       1.2222255    0.0080230440
      5836.90       1.2282243    0.0080431942
      5842.74       1.2339677    0.0080631013
      5848.58       1.2401952    0.0080831718
      5854.43       1.2448472    0.0081022320
      5860.29       1.2453151    0.0080723506
      5866.15       1.2422968    0.0080908745
      5872.01       1.2400074    0.0081113984
      5877.89       1.2372658    0.0081316292
      5883.76       1.2273129    0.0081507999
      5889.65       1.2198623    0.0081704623
      5895.54       1.2155451    0.0081915342
      5901.43       1.2142601    0.0082133958
      5907.34       1.2096756    0.0082437359
      5913.24       1.2033717    0.0082655659
      5919.16       1.1969294    0.0082877375
      5925.08       1.1859621    0.0083101494
      5931.00       1.1745298    0.0083322018
      5936.93       1.1666300    0.0083544963
      5942.87       1.1629404    0.0083302414
      5948.81       1.1635479    0.0083525650
      5954.76       1.1540215    0.0083748641
      5960.72       1.1425795    0.0083972808
      5966.68       1.1294964    0.0084197771
      5972.64       1.1203176    0.0084422254
      5978.62       1.1073804    0.0084694566
      5984.60       1.0920321    0.0084910402
      5990.58       1.0831996    0.0085126584
      5996.57       1.0694814    0.0085340352
      6002.57       1.0581662    0.0085556434
      6008.57       1.0491028    0.0085280886
      6014.58       1.0414786    0.0085484612
      6020.60       1.0298956    0.0085688125
      6026.62       1.0247582    0.0086448162
      6032.65       1.0186826    0.0086175084
      6038.68       1.0116172    0.0086367312
      6044.72       1.0108981    0.0086562292
      6050.76       1.0095507    0.0086758491
      6056.81       1.0126954    0.0086477768
      6062.87       1.0088677    0.0087224103
      6068.93       1.0061603    0.0087408769
      6075.00       1.0080434    0.0087599174
      6081.08       1.0178245    0.0087331581
      6087.16       1.0225475    0.0087563828
      6093.25       1.0282349    0.0087765209
      6099.34       1.0259606    0.0088475996
      6105.44       1.0203560    0.0088205101
      6111.54       1.0144903    0.0088465675
      6117.66       1.0019397    0.0088773562
      6123.78      0.98988850    0.0089121223
      6129.90      0.97591148    0.0089579393
      6136.03      0.95815393    0.0089953799
      6142.17      0.94431288    0.0090316759
      6148.31      0.92285991    0.0090140418
      6154.46      0.90356282    0.0090977358
      6160.61      0.88433198    0.0091173938
      6166.77      0.85924882    0.0090769360
      6172.94      0.83464365    0.0090816067
      6179.11      0.81647855    0.0090822542
      6185.29      0.80308924    0.0090819532
      6191.48      0.79767906    0.0090792532
      6197.67      0.78976183    0.0090815566
      6203.87      0.78568848    0.0090384514
      6210.07      0.78936577    0.0090970323
      6216.28      0.79176179    0.0090991731
      6222.50      0.79196419    0.0090547184
      6228.72      0.80101043    0.0091154655
      6234.95      0.81292822    0.0090710376
      6241.19      0.82208788    0.0090785991
      6247.42      0.82724878    0.0090872269
      6253.67      0.83586092    0.0090974559
      6259.93      0.84862906    0.0091058694
      6266.19      0.85895122    0.0091158646
      6272.46      0.86700579    0.0091278181
      6278.73      0.87670283    0.0091374753
      6285.01      0.88126799    0.0090961037
      6291.29      0.89117420    0.0091598309
      6297.58      0.90355714    0.0091702974
      6303.88      0.91310226    0.0091306702
      6310.19      0.92615214    0.0091991708
      6316.50      0.93414322    0.0091651821
      6322.81      0.94297710    0.0091788687
      6329.14      0.95630475    0.0091974531
      6335.47      0.96649376    0.0092079089
      6341.80      0.97457827    0.0092183794
      6348.14      0.98499406    0.0092319126
      6354.49      0.98827244    0.0092379956
      6360.85      0.98607858    0.0091919047
      6367.21      0.98551547    0.0092459486
      6373.57      0.98763433    0.0091959924
      6379.95      0.98411166    0.0092486051
      6386.33      0.97695675    0.0091976694
      6392.72      0.96070991    0.0091996302
      6399.11      0.94804256    0.0092020523
      6405.51      0.92732159    0.0092028292
      6411.92      0.91283880    0.0092022845
      6418.32      0.89317719    0.0091999544
      6424.74      0.87375268    0.0091444964
      6431.17      0.85573155    0.0091930597
      6437.60      0.83400513    0.0091388737
      6444.04      0.82175402    0.0091864125
      6450.48      0.81454261    0.0091286247
      6456.94      0.80376979    0.0091744355
      6463.39      0.79910686    0.0091185761
      6469.85      0.79549143    0.0091138777
      6476.33      0.79621667    0.0091105072
      6482.80      0.80028779    0.0091057972
      6489.28      0.81070990    0.0091019096
      6495.77      0.82390081    0.0090466255
      6502.27      0.82989445    0.0090913135
      6508.77      0.84450053    0.0090350870
      6515.28      0.85654034    0.0090780745
      6521.80      0.86958143    0.0090213676
      6528.32      0.88446694    0.0090635363
      6534.85      0.90385475    0.0090056342
      6541.38      0.92189117    0.0089963827
      6547.92      0.93509858    0.0089876682
      6554.47      0.95388658    0.0089766896
      6561.03      0.96625456    0.0089669750
      6567.59      0.98780923    0.0089546363
      6574.16      0.99654820    0.0088938464
      6580.73       1.0015968    0.0089300020
      6587.31       1.0052654    0.0088678907
      6593.90       1.0097914    0.0089032376
      6600.50       1.0132179    0.0088393465
      6607.10       1.0094078    0.0088239781
      6613.70       1.0097878    0.0088085814
      6620.32       1.0082958    0.0087911334
      6626.94      0.99953503    0.0087267133
      6633.57      0.99645169    0.0087558827
      6640.20      0.99145696    0.0087365922
      6646.84      0.98334070    0.0086715867
      6653.49      0.97606859    0.0087094148
      6660.14      0.96534118    0.0086791362
      6666.80      0.95577955    0.0086753363
      6673.47      0.94458421    0.0086444598
      6680.14      0.93797260    0.0086266281
      6686.82      0.92511823    0.0086519836
      6693.51      0.91978529    0.0086964582
      6700.20      0.90417962    0.0087799501
      6706.90      0.89126716    0.0088343066
      6713.61      0.88270185    0.0089826279
      6720.32      0.87815596    0.0090966864
      6727.05      0.87274573    0.0091284245
      6733.77      0.85747276    0.0091782041
      6740.51      0.85131625    0.0092329888
      6747.25      0.85146418    0.0091299167
      6754.00      0.85112406    0.0090306289
      6760.75      0.84893712    0.0089619520
      6767.51      0.84128540    0.0087709746
      6774.28      0.83017692    0.0086218703
      6781.05      0.82373557    0.0084652652
      6787.84      0.81041392    0.0084228659
      6794.62      0.80117764    0.0083300568
      6801.42      0.79606196    0.0082226415
      6808.22      0.78820224    0.0081005175
      6815.03      0.77403124    0.0080282342
      6821.85      0.77033656    0.0080067422
      6828.67      0.76576514    0.0079049879
      6835.50      0.76080772    0.0078439043
      6842.33      0.75824164    0.0077886398
      6849.17      0.75685053    0.0077011461
      6856.02      0.75716564    0.0076958749
      6862.88      0.75479268    0.0076442844
      6869.74      0.75682105    0.0075544711
      6876.61      0.76397030    0.0074968522
      6883.49      0.76989519    0.0073589722
      6890.37      0.77371297    0.0071918632
      6897.27      0.77393299    0.0071430370
      6904.16      0.77847065    0.0072914824
      6911.07      0.77875836    0.0068950574
      6917.98      0.78671055    0.0067249184
      6924.89      0.79838557    0.0066930258
      6931.82      0.80288525    0.0066676513
      6938.75      0.81344963    0.0066597858
      6945.69      0.82249720    0.0066261724
      6952.64      0.82270578    0.0066236024
      6959.59      0.82907077    0.0065675543
      6966.55      0.83591117    0.0064826615
      6973.52      0.84022710    0.0063722872
      6980.49      0.84637451    0.0062897928
      6987.47      0.84664736    0.0061754911
      6994.46      0.84810213    0.0060611791
      7001.46      0.84802202    0.0059363499
      7008.46      0.84330586    0.0058024518
      7015.46      0.84074401    0.0056964585
      7022.48      0.83397540    0.0055451863
      7029.51      0.82902923    0.0054174630
      7036.53      0.82243700    0.0052937537
      7043.57      0.81587791    0.0051782338
      7050.62      0.81253109    0.0050709851
      7057.66      0.80163255    0.0049726140
      7064.72      0.80264540    0.0049061297
      7071.79      0.79763691    0.0048295447
      7078.86      0.79281724    0.0047442289
      7085.94      0.78661146    0.0045861322
      7093.03      0.78746220    0.0044471726
      7100.12      0.79297029    0.0043366136
      7107.22      0.79533181    0.0042271733
      7114.33      0.79773467    0.0041177486
      7121.44      0.80034069    0.0040027217
      7128.56      0.80499899    0.0038952249
      7135.69      0.80931109    0.0037898128
      7142.83      0.80974332    0.0038099889
      7149.97      0.81100606    0.0038388892
      7157.12      0.81141748    0.0038783141
      7164.28      0.81353274    0.0039308082
      7171.44      0.81446386    0.0040005156
      7178.62      0.81488430    0.0040937418
      7185.80      0.81662846    0.0042194895
      7192.98      0.81772588    0.0043922503
      7200.17      0.81803793    0.0046322448
      7207.38      0.81635797    0.0049598334
      7214.58      0.81435732    0.0053969445
      7221.80      0.81101456    0.0059642044
      7229.02      0.80548060    0.0066886672
      7236.25      0.79914728    0.0076115156
      7243.49      0.79175015    0.0087791125
      7250.73      0.78141175     0.010244789
