# starting wavelength =        3460.8000
# ending wavelength =        7358.3500
# O2 telluric scale =        0
# O2 telluric shift =        0
# H2O telluric scale =        0
# H2O telluric shift =        0
      3464.04      0.83754723     0.026659912
      3467.51      0.81921210     0.022719175
      3470.98      0.79878565     0.019587451
      3474.45      0.78125075     0.016659824
      3477.92      0.76920139     0.014833913
      3481.40      0.75470025     0.013411386
      3484.88      0.73810255     0.012310620
      3488.37      0.72369431     0.011626967
      3491.86      0.71828376     0.010921060
      3495.35      0.71456535     0.010373465
      3498.84      0.71224193    0.0099446599
      3502.34      0.71226533    0.0096048168
      3505.84      0.71275063    0.0092628000
      3509.35      0.70318848    0.0090455545
      3512.86      0.70306072    0.0088650945
      3516.37      0.69845918    0.0087128758
      3519.89      0.70054210    0.0085412093
      3523.41      0.70031833    0.0084226416
      3526.93      0.70434898    0.0084098522
      3530.46      0.70118311    0.0083981113
      3533.99      0.69905163    0.0083838523
      3537.53      0.69324217    0.0083717605
      3541.06      0.69288132    0.0084070606
      3544.60      0.69830933    0.0084420884
      3548.15      0.69923874    0.0083803290
      3551.70      0.70241556    0.0084157190
      3555.25      0.71109285    0.0084037688
      3558.80      0.72562976    0.0084408593
      3562.36      0.73444506    0.0084248906
      3565.92      0.74725449    0.0084138612
      3569.49      0.75789351    0.0084497940
      3573.06      0.76923522    0.0084875375
      3576.64      0.78452154    0.0084232088
      3580.21      0.79794965    0.0084605562
      3583.79      0.80868677    0.0084501948
      3587.38      0.81700183    0.0084336449
      3590.96      0.82412230    0.0084718066
      3594.55      0.82887666    0.0084594302
      3598.15      0.83290469    0.0084990186
      3601.75      0.83488806    0.0084830417
      3605.35      0.82880326    0.0084717998
      3608.96      0.82859135    0.0085102300
      3612.56      0.82908504    0.0085510671
      3616.18      0.82431295    0.0084831380
      3619.79      0.81863385    0.0085236776
      3623.41      0.80865483    0.0085638084
      3627.04      0.79898102    0.0084963274
      3630.66      0.78604091    0.0085364652
      3634.29      0.77949764    0.0085784980
      3637.93      0.77338521    0.0085091365
      3641.57      0.76188157    0.0085509673
      3645.21      0.74915202    0.0085928695
      3648.86      0.75041621    0.0085806096
      3652.50      0.75779633    0.0085652547
      3656.16      0.76672099    0.0086086758
      3659.81      0.77831431    0.0086523602
      3663.47      0.79820738    0.0085809946
      3667.14      0.81940027    0.0086244579
      3670.80      0.84528124    0.0086699123
      3674.48      0.86441704    0.0085965511
      3678.15      0.88963161    0.0086420628
      3681.83      0.91129499    0.0086869254
      3685.51      0.93246676    0.0086729000
      3689.20      0.94495041    0.0086587708
      3692.88      0.95895028    0.0087067843
      3696.58      0.96430315    0.0086902504
      3700.27      0.96320276    0.0087385288
      3703.98      0.95696512    0.0087247831
      3707.68      0.94116474    0.0087097367
      3711.39      0.91882115    0.0087582410
      3715.10      0.88747846    0.0088079057
      3718.81      0.85337712    0.0087298736
      3722.53      0.81810447    0.0087789380
      3726.26      0.77378387    0.0088306700
      3729.98      0.72792934    0.0088142256
      3733.71      0.68241994    0.0088021907
      3737.45      0.64027768    0.0088525276
      3741.18      0.59438842    0.0089080401
      3744.93      0.55651761    0.0091142926
      3748.67      0.52170472    0.0089720228
      3752.42      0.48432277    0.0088672267
      3756.17      0.45741811    0.0089164124
      3759.93      0.43115694    0.0090030420
      3763.69      0.40669320    0.0090501968
      3767.45      0.38972311    0.0091050339
      3771.22      0.37412631    0.0091773691
      3774.99      0.36836125    0.0093063131
      3778.77      0.36434099    0.0094560331
      3782.54      0.36898877    0.0095060532
      3786.33      0.37579722    0.0096086310
      3790.11      0.38438108    0.0096245668
      3793.90      0.39313836    0.0095787126
      3797.70      0.40271012    0.0095914642
      3801.50      0.41294643    0.0094995496
      3805.30      0.42467309    0.0094841572
      3809.10      0.43978761    0.0093815335
      3812.91      0.45727073    0.0092608513
      3816.73      0.48057123    0.0092297886
      3820.54      0.50389431    0.0092556911
      3824.36      0.52790321    0.0092864238
      3828.19      0.55645121    0.0096059752
      3832.02      0.58520059    0.0092965064
      3835.85      0.62341490    0.0092832951
      3839.68      0.66643753    0.0093502764
      3843.52      0.71108998    0.0093338917
      3847.37      0.75777109    0.0094074033
      3851.22      0.80891931    0.0093892562
      3855.07      0.86348775    0.0093779376
      3858.92      0.91752596    0.0093578871
      3862.78      0.97945535    0.0093405817
      3866.64       1.0411768    0.0093281971
      3870.51       1.1065339    0.0093091030
      3874.38       1.1635895    0.0092918239
      3878.26       1.2181330    0.0092794095
      3882.13       1.2752730    0.0092603347
      3886.02       1.3353296    0.0091571431
      3889.90       1.3891289    0.0092304387
      3893.79       1.4423322    0.0092117259
      3897.69       1.4839936    0.0091087870
      3901.59       1.5254525    0.0090938719
      3905.49       1.5624887    0.0091633103
      3909.39       1.5914714    0.0090610152
      3913.30       1.6190882    0.0090456074
      3917.22       1.6438611    0.0091151898
      3921.13       1.6593489    0.0090129085
      3925.06       1.6774665    0.0089975481
      3928.98       1.6921654    0.0089837383
      3932.91       1.7074846    0.0089654677
      3936.84       1.7215749    0.0089493889
      3940.78       1.7276094    0.0089350981
      3944.72       1.7337279    0.0089177819
      3948.67       1.7279930    0.0089014909
      3952.61       1.7264020    0.0088865708
      3956.57       1.7338683    0.0087897190
      3960.52       1.7400141    0.0088537746
      3964.48       1.7493727    0.0088382397
      3968.45       1.7576665    0.0087435351
      3972.42       1.7659024    0.0087261261
      3976.39       1.7747828    0.0087903313
      3980.37       1.7788480    0.0087751570
      3984.35       1.7827098    0.0086799833
      3988.33       1.7888400    0.0086630496
      3992.32       1.7905580    0.0087270604
      3996.31       1.7886520    0.0086345891
      4000.31       1.7838946    0.0086169931
      4004.31       1.7765992    0.0086003774
      4008.31       1.7635791    0.0086640319
      4012.32       1.7366260    0.0085717910
      4016.33       1.7048634    0.0085543109
      4020.35       1.6697500    0.0085377401
      4024.37       1.6287069    0.0084455809
      4028.40       1.5890171    0.0085095026
      4032.42       1.5524678    0.0084921323
      4036.46       1.5139911    0.0084754441
      4040.50       1.4829987    0.0083837224
      4044.54       1.4493413    0.0083688934
      4048.58       1.4209883    0.0084303144
      4052.63       1.4007833    0.0084135236
      4056.68       1.3847411    0.0083222015
      4060.74       1.3739992    0.0083070225
      4064.80       1.3647183    0.0082923558
      4068.86       1.3447037     0.011931912
      4072.93       1.3472896     0.011682428
      4077.01       1.3407727     0.011663973
      4081.08       1.3300405     0.011648656
      4085.17       1.3107446     0.011636520
      4089.25       1.2912532     0.011403965
      4093.34       1.2596356     0.011574270
      4097.43       1.2194400     0.011555609
      4101.53       1.1819090     0.011539059
      4105.63       1.1400762     0.011526522
      4109.74       1.1176055     0.011298022
      4113.85       1.1025983     0.011466076
      4117.96       1.1007059     0.011446224
      4122.08       1.1010319     0.011428657
      4126.20       1.1087614     0.011412699
      4130.33       1.1104614     0.011400388
      4134.46       1.1090572     0.011170165
      4138.59       1.0964018     0.011149012
      4142.73       1.0689002     0.011316842
      4146.88       1.0444547     0.011299099
      4151.02       1.0213427     0.011282994
      4155.18       1.0037192     0.011067620
      4159.33      0.99040753     0.011044337
      4163.49      0.98090858     0.011022898
      4167.65      0.98126328     0.011001918
      4171.82      0.98307114     0.011167976
      4175.99      0.98277068     0.011149957
      4180.17      0.98605256     0.011132816
      4184.35      0.99526266     0.010920752
      4188.54       1.0122866     0.010898029
      4192.72       1.0353094     0.010875534
      4196.92       1.0695865     0.010854396
      4201.11       1.0935415     0.010834425
      4205.31       1.1172026     0.010815755
      4209.52       1.1297189     0.010979558
      4213.73       1.1319606     0.010778609
      4217.94       1.1248312     0.010754919
      4222.16       1.1111045     0.010731082
      4226.38       1.0971861     0.010708633
      4230.61       1.0803061     0.010687263
      4234.84       1.0645856     0.010667104
      4239.08       1.0466658     0.010646540
      4243.32       1.0345786     0.010627025
      4247.56       1.0237386     0.010607463
      4251.81       1.0156727     0.010401552
      4256.06       1.0125761     0.010571200
      4260.32       1.0188602     0.010548262
      4264.58       1.0317827     0.010526185
      4268.84       1.0369247     0.010503447
      4273.11       1.0491583     0.010481894
      4277.38       1.0582720     0.010459779
      4281.66       1.0633810     0.010438469
      4285.94       1.0633671     0.010418136
      4290.23       1.0576274     0.010397945
      4294.52       1.0595428     0.010378241
      4298.81       1.0613552     0.010174615
      4303.11       1.0697265     0.010155364
      4307.42       1.0737917     0.010135574
      4311.72       1.0830184     0.010116563
      4316.04       1.0811981     0.010097198
      4320.35       1.0775708     0.010078501
      4324.67       1.0667226     0.010058672
      4329.00       1.0497415     0.010039333
      4333.33       1.0241684     0.010020731
      4337.66      0.99841438     0.010001362
      4342.00      0.97438141    0.0099828995
      4346.34      0.95340863    0.0099628609
      4350.69      0.93853374    0.0099437163
      4355.04      0.92405172    0.0099239854
      4359.39      0.91556103    0.0099045537
      4363.75      0.91332204    0.0098857381
      4368.12      0.90773828    0.0098655600
      4372.48      0.88446045    0.0098460372
      4376.86      0.86753238    0.0098257572
      4381.23      0.84759483    0.0098062834
      4385.61      0.83110524    0.0097860862
      4390.00      0.81824639    0.0097664634
      4394.39      0.80188767    0.0097455549
      4398.79      0.79479728    0.0097251141
      4403.18      0.79343246    0.0097052658
      4407.59      0.79076647    0.0096846455
      4412.00      0.78803487    0.0096648940
      4416.41      0.79911821    0.0096437040
      4420.82      0.81152115    0.0096234334
      4425.25      0.83148497    0.0096021696
      4429.67      0.85061185    0.0095815566
      4434.10      0.87266323    0.0095619258
      4438.54      0.89647036    0.0095411963
      4442.97      0.92162817    0.0095214815
      4447.42      0.95087604    0.0095005080
      4451.86      0.98276553    0.0094804641
      4456.32       1.0187381    0.0093131206
      4460.77       1.0565236    0.0092932930
      4465.24       1.0935445    0.0092748228
      4469.70       1.1304226    0.0092549385
      4474.17       1.1646155    0.0092365479
      4478.65       1.1985369    0.0092173260
      4483.12       1.2282647    0.0091995395
      4487.61       1.2580089    0.0091817724
      4492.09       1.2878338    0.0091641227
      4496.59       1.3128001    0.0091467881
      4501.08       1.3375102    0.0092712704
      4505.58       1.3623396    0.0092503498
      4510.09       1.3851657    0.0090857948
      4514.60       1.4129317    0.0090659158
      4519.12       1.4340833    0.0090465755
      4523.63       1.4564684    0.0090267076
      4528.16       1.4804359    0.0090087366
      4532.69       1.5079965    0.0089904210
      4537.22       1.5290385    0.0089740762
      4541.76       1.5481489    0.0089574539
      4546.30       1.5766646    0.0087903641
      4550.85       1.6077021    0.0087700611
      4555.40       1.6428746    0.0088960083
      4559.95       1.6696820    0.0088771226
      4564.51       1.6958711    0.0088586170
      4569.08       1.7119557    0.0088407997
      4573.65       1.7235741    0.0088237225
      4578.22       1.7238489    0.0086635084
      4582.80       1.7192797    0.0086429359
      4587.38       1.7069463    0.0086225481
      4591.97       1.6892290    0.0087471833
      4596.56       1.6713546    0.0087282392
      4601.16       1.6527253    0.0087101722
      4605.76       1.6377948    0.0085577386
      4610.37       1.6261840    0.0085354448
      4614.98       1.6195816    0.0085146150
      4619.59       1.6207872    0.0084944289
      4624.21       1.6227581    0.0086171179
      4628.84       1.6197494    0.0086001115
      4633.47       1.5999383    0.0084489766
      4638.10       1.5820625    0.0084268083
      4642.74       1.5588914    0.0084054782
      4647.38       1.5366670    0.0083858775
      4652.03       1.5095971    0.0085080253
      4656.68       1.4826028    0.0083614750
      4661.34       1.4596590    0.0083385125
      4666.00       1.4364762    0.0083168152
      4670.67       1.4166074    0.0082964962
      4675.33       1.3906042    0.0082785991
      4680.01       1.3797147    0.0082719918
      4684.69       1.3624408    0.0082489176
      4689.38       1.3480850    0.0082274867
      4694.07       1.3360410    0.0082076557
      4698.76       1.3236089    0.0080701490
      4703.46       1.3087458    0.0081809469
      4708.16       1.2944037    0.0081581537
      4712.87       1.2850866    0.0081380033
      4717.58       1.2750579    0.0080000325
      4722.30       1.2691365    0.0079846642
      4727.03       1.2576017    0.0080890349
      4731.75       1.2448130    0.0080678349
      4736.48       1.2273421    0.0079313563
      4741.22       1.1959347    0.0079151261
      4745.96       1.1554795    0.0080195672
      4750.71       1.1111535    0.0079980885
      4755.46       1.0633713    0.0078622902
      4760.22       1.0174707    0.0078472984
      4764.97      0.97493343    0.0079487845
      4769.74      0.94335652    0.0078118264
      4774.51      0.91885445    0.0077944286
      4779.29      0.90073511    0.0077797024
      4784.07      0.89487328    0.0078789171
      4788.85      0.89893887    0.0077432046
      4793.64      0.91053407    0.0077273172
      4798.43      0.92779847    0.0077144116
      4803.23      0.95457534    0.0076922897
      4808.03      0.97605270    0.0076762345
      4812.84      0.99584573    0.0076617123
      4817.66       1.0173739    0.0076438830
      4822.48       1.0294747    0.0076256012
      4827.30       1.0351814    0.0076103500
      4832.12       1.0273033    0.0074778728
      4836.96       1.0130566    0.0075756754
      4841.79      0.99243698    0.0075595269
      4846.63      0.96830127    0.0074291294
      4851.48      0.94606014    0.0075257789
      4856.33      0.92909307    0.0075099543
      4861.19      0.92308755    0.0073808060
      4866.05      0.92489365    0.0074763458
      4870.92      0.93485888    0.0074603706
      4875.79      0.95445367    0.0073316073
      4880.66      0.97809282    0.0074265432
      4885.55       1.0005503    0.0074116085
      4890.43       1.0277195    0.0072828751
      4895.32       1.0656835    0.0073775652
      4900.22       1.0981957    0.0073632014
      4905.12       1.1323956    0.0072336767
      4910.02       1.1664601    0.0073287232
      4914.94       1.2098659    0.0072060443
      4919.85       1.2518358    0.0071852136
      4924.77       1.2910318    0.0072809525
      4929.70       1.3248398    0.0071561659
      4934.62       1.3572977    0.0071366858
      4939.56       1.3879234    0.0071290132
      4944.50       1.4048204    0.0071063397
      4949.44       1.4094928    0.0070889989
      4954.39       1.4030922    0.0070782178
      4959.35       1.3906364    0.0070584222
      4964.31       1.3594753    0.0070509593
      4969.27       1.3185907    0.0070282381
      4974.24       1.2682339    0.0069136929
      4979.22       1.2099015    0.0069994833
      4984.20       1.1517613    0.0069800688
      4989.18       1.1006861    0.0069718653
      4994.17       1.0497701    0.0069498957
      4999.16       1.0046903    0.0068374547
      5004.16      0.97250676    0.0069206023
      5009.17      0.95302405    0.0068066956
      5014.18      0.94147360    0.0068918260
      5019.19      0.93760092    0.0068718612
      5024.21      0.94301376    0.0067630805
      5029.23      0.95571689    0.0068418781
      5034.26      0.98027597    0.0067321451
      5039.30       1.0010146    0.0068125060
      5044.34       1.0221389    0.0067020265
      5049.39       1.0455921    0.0067831079
      5054.43       1.0734333    0.0066717513
      5059.49       1.0974518    0.0067535598
      5064.55       1.1167066    0.0066418405
      5069.61       1.1362141    0.0066306449
      5074.68       1.1517262    0.0066125359
      5079.76       1.1685968    0.0066006480
      5084.84       1.1807508    0.0065829848
      5089.92       1.1892709    0.0065708624
      5095.01       1.1930665    0.0065535554
      5100.11       1.1967166    0.0065413721
      5105.21       1.1996233    0.0065249869
      5110.31       1.2025247    0.0065124201
      5115.42       1.2071825    0.0064955938
      5120.54       1.2097453    0.0064835766
      5125.66       1.2095257    0.0064664945
      5130.79       1.2107806    0.0064549706
      5135.92       1.2114158    0.0064382504
      5141.05       1.2101956    0.0064269931
      5146.20       1.2047468    0.0064092461
      5151.34       1.2047899    0.0063052993
      5156.49       1.2084310    0.0063808560
      5161.65       1.2149510    0.0062762308
      5166.81       1.2260640    0.0063529905
      5171.98       1.2356668    0.0062476427
      5177.15       1.2511734    0.0063251054
      5182.33       1.2715311    0.0062196283
      5187.51       1.2903684    0.0062979689
      5192.70       1.3082734    0.0061915311
      5197.89       1.3280676    0.0061813118
      5203.09       1.3508647    0.0062544094
      5208.29       1.3753572    0.0061520780
      5213.50       1.3980194    0.0062273020
      5218.72       1.4138688    0.0061236150
      5223.93       1.4292467    0.0061149924
      5229.16       1.4472332    0.0060962196
      5234.39       1.4552628    0.0060854681
      5239.62       1.4616072    0.0060692039
      5244.86       1.4630174    0.0060569736
      5250.11       1.4757346    0.0060487943
      5255.36       1.4886433    0.0060288795
      5260.61       1.4997446    0.0060190473
      5265.87       1.5089887    0.0059231838
      5271.14       1.5173510    0.0059897910
      5276.41       1.5277969    0.0059815448
      5281.69       1.5315685    0.0059628021
      5286.97       1.5274470    0.0059518298
      5292.26       1.5155240    0.0058588066
      5297.55       1.5068889    0.0059238629
      5302.85       1.4926626    0.0059139559
      5308.15       1.4773177    0.0058198295
      5313.46       1.4635798    0.0058854481
      5318.77       1.4562624    0.0057956492
      5324.09       1.4500509    0.0057815489
      5329.42       1.4451748    0.0058473738
      5334.75       1.4394345    0.0057573159
      5340.08       1.4277387    0.0057438764
      5345.42       1.4211222    0.0058093025
      5350.77       1.4102055    0.0057198283
      5356.12       1.3977162    0.0057059863
      5361.48       1.3889486    0.0057713386
      5366.83       1.3864332    0.0056826669
      5372.20       1.3803729    0.0056688025
      5377.58       1.3727817    0.0057333727
      5382.95       1.3698229    0.0056461554
      5388.34       1.3636277    0.0056320946
      5393.72       1.3678166    0.0056205613
      5399.12       1.3726948    0.0056105263
      5404.52       1.3842792    0.0055959563
      5409.92       1.3970999    0.0055838550
      5415.33       1.4069248    0.0054971823
      5420.75       1.4137377    0.0055607538
      5426.17       1.4097603    0.0055475294
      5431.60       1.4073759    0.0054608148
      5437.03       1.3987293    0.0055263043
      5442.47       1.3902133    0.0055122407
      5447.91       1.3785685    0.0055002981
      5453.36       1.3674745    0.0054146814
      5458.81       1.3588750    0.0054784943
      5464.27       1.3441495    0.0054654564
      5469.73       1.3355566    0.0054537515
      5475.20       1.3240646    0.0053686715
      5480.68       1.3175928    0.0053592443
      5486.16       1.3093270    0.0054193457
      5491.65       1.3020050    0.0053335320
      5497.14       1.2890823    0.0053229967
      5502.64       1.2769000    0.0053136516
      5508.14       1.2684040    0.0053740475
      5513.65       1.2650832    0.0052885589
      5519.16       1.2595688    0.0052778529
      5524.68       1.2551832    0.0052681910
      5530.20       1.2508248    0.0052594198
      5535.73       1.2460664    0.0052511543
      5541.27       1.2436062    0.0052335389
      5546.81       1.2440732    0.0052232109
      5552.36       1.2391666    0.0052136384
      5557.91       1.2376812    0.0052047355
      5563.47       1.2366518    0.0051256954
      5569.04       1.2238954    0.0051795674
      5574.60       1.2084497    0.0051690819
      5580.18       1.1820327    0.0051593624
      5585.76       1.1449980    0.0051504021
      5591.35       1.1075324    0.0050736938
      5596.94       1.0691228    0.0050627087
      5602.53       1.0275833    0.0050521044
      5608.14      0.98663723    0.0051060662
      5613.75      0.94629479    0.0050963354
      5619.36      0.90008167    0.0050872052
      5624.98      0.85556403    0.0050125848
      5630.60      0.81745305    0.0050016295
      5636.23      0.78775682    0.0049912380
      5641.87      0.77433334    0.0049810886
      5647.51      0.78402837    0.0049713963
      5653.16      0.80942465    0.0050248178
      5658.82      0.84645820    0.0050156776
      5664.47      0.88226993    0.0049434152
      5670.14      0.91193462    0.0049327884
      5675.81      0.92825561    0.0049224337
      5681.48      0.93606787    0.0049123528
      5687.17      0.93316875    0.0049025504
      5692.85      0.92862450    0.0048929891
      5698.55      0.93071078    0.0048836194
      5704.25      0.93997549    0.0048746547
      5709.95      0.95156325    0.0048022661
      5715.66      0.96304079    0.0047933796
      5721.38      0.97844920    0.0048475584
      5727.10      0.99472459    0.0048376106
      5732.83       1.0060744    0.0048280080
      5738.56       1.0177385    0.0048184292
      5744.30       1.0288186    0.0048090766
      5750.04       1.0439125    0.0047996491
      5755.79       1.0604053    0.0047903854
      5761.55       1.0778300    0.0047812857
      5767.31       1.0911801    0.0047723373
      5773.08       1.1046905    0.0047633429
      5778.85       1.1143226    0.0046927087
      5784.63       1.1208352    0.0046840650
      5790.41       1.1241131    0.0046754575
      5796.21       1.1237497    0.0046669143
      5802.00       1.1257571    0.0046588617
      5807.81       1.1250546    0.0046513139
      5813.61       1.1308191    0.0046446468
      5819.43       1.1350503    0.0046398896
      5825.25       1.1361678    0.0046383972
      5831.07       1.1312348    0.0046392341
      5836.90       1.1306070    0.0046409827
      5842.74       1.1341474    0.0046398229
      5848.58       1.1395904    0.0046337556
      5854.43       1.1478548    0.0046240936
      5860.29       1.1567809    0.0046146339
      5866.15       1.1716811    0.0046053087
      5872.01       1.1835665    0.0045949125
      5877.89       1.1855517    0.0045845173
      5883.76       1.1784806    0.0045762051
      5889.65       1.1739796    0.0045690200
      5895.54       1.1729225    0.0045624163
      5901.43       1.1721915    0.0044992303
      5907.34       1.1686789    0.0044881113
      5913.24       1.1671596    0.0044760739
      5919.16       1.1662604    0.0044654947
      5925.08       1.1646073    0.0044561973
      5931.00       1.1551286    0.0044463375
      5936.93       1.1446381    0.0044360203
      5942.87       1.1310440    0.0044258414
      5948.81       1.1221212    0.0044160921
      5954.76       1.1109476    0.0044067755
      5960.72       1.0983761    0.0044488070
      5966.68       1.0916984    0.0043866247
      5972.64       1.0831596    0.0043782802
      5978.62       1.0784349    0.0043706220
      5984.60       1.0746155    0.0043635846
      5990.58       1.0692162    0.0043566033
      5996.57       1.0672466    0.0043498050
      6002.57       1.0667817    0.0043433492
      6008.57       1.0669506    0.0043373990
      6014.58       1.0657178    0.0042772357
      6020.60       1.0628771    0.0042698159
      6026.62       1.0525263    0.0043163848
      6032.65       1.0406423    0.0043097211
      6038.68       1.0322068    0.0043032720
      6044.72       1.0220875    0.0042968994
      6050.76       1.0178474    0.0042910963
      6056.81       1.0163688    0.0042325731
      6062.87       1.0204192    0.0042256100
      6068.93       1.0306233    0.0042189155
      6075.00       1.0383024    0.0042652969
      6081.08       1.0469094    0.0042592899
      6087.16       1.0514133    0.0042035392
      6093.25       1.0593369    0.0041963519
      6099.34       1.0636539    0.0041894788
      6105.44       1.0712280    0.0041829838
      6111.54       1.0774680    0.0041771864
      6117.66       1.0794139    0.0041753729
      6123.78       1.0749450    0.0041680493
      6129.90       1.0600024    0.0041611637
      6136.03       1.0418132    0.0041547466
      6142.17       1.0155007    0.0041491458
      6148.31      0.98836490    0.0041474539
      6154.46      0.95940008    0.0041403644
      6160.61      0.94757679    0.0029237433
      6166.77      0.92545239    0.0029048718
      6172.94      0.90502988    0.0029016953
      6179.11      0.88723412    0.0028980207
      6185.29      0.87126496    0.0029123141
      6191.48      0.86126120    0.0028949196
      6197.67      0.85331835    0.0028958830
      6203.87      0.84760624    0.0028983163
      6210.07      0.84517261    0.0028851639
      6216.28      0.84443313    0.0029057781
      6222.50      0.84482388    0.0029085588
      6228.72      0.84710605    0.0028934652
      6234.95      0.85227328    0.0028929519
      6241.19      0.85945043    0.0029080001
      6247.42      0.87136700    0.0029036375
      6253.67      0.88304112    0.0028793034
      6259.93      0.89372474    0.0028714442
      6266.19      0.90602868    0.0028794727
      6272.46      0.91827165    0.0028538960
      6278.73      0.93132235    0.0028473256
      6285.01      0.94473521    0.0028423660
      6291.29      0.95919570    0.0028363312
      6297.58      0.97134747    0.0028301982
      6303.88      0.98235238    0.0028088578
      6310.19      0.99360810    0.0028046291
      6316.50       1.0031846    0.0028161050
      6322.81       1.0111390    0.0027957719
      6329.14       1.0168833    0.0027922457
      6335.47       1.0190907    0.0028045221
      6341.80       1.0177171    0.0027851447
      6348.14       1.0150549    0.0027824255
      6354.49       1.0100743    0.0027636660
      6360.85       1.0031190    0.0027771658
      6367.21      0.99257173    0.0027750722
      6373.57      0.97806592    0.0027567115
      6379.95      0.96351819    0.0027709273
      6386.33      0.94805986    0.0027540725
      6392.72      0.93376975    0.0027535205
      6399.11      0.92224295    0.0027547486
      6405.51      0.91475466    0.0027545568
      6411.92      0.90765396    0.0027541694
      6418.32      0.90278457    0.0027542669
      6424.74      0.90055315    0.0027535246
      6431.17      0.90315654    0.0027532912
      6437.60      0.90636027    0.0027514581
      6444.04      0.91287378    0.0027339356
      6450.48      0.92047875    0.0027467367
      6456.94      0.92948904    0.0027284483
      6463.39      0.93798842    0.0027259199
      6469.85      0.94898037    0.0027231756
      6476.33      0.95716786    0.0027211915
      6482.80      0.96440238    0.0027193398
      6489.28      0.96929162    0.0027173830
      6495.77      0.97436750    0.0027155140
      6502.27      0.97946649    0.0027124992
      6508.77      0.98114709    0.0027102099
      6515.28      0.98452146    0.0027074305
      6521.80      0.98689039    0.0026903303
      6528.32      0.98745821    0.0026878779
      6534.85      0.98458352    0.0026853294
      6541.38      0.98377328    0.0026827937
      6547.92      0.98199494    0.0026812304
      6554.47      0.98043853    0.0026794764
      6561.03      0.97760753    0.0026785924
      6567.59      0.97570994    0.0026770917
      6574.16      0.97348018    0.0026765282
      6580.73      0.97300587    0.0026752374
      6587.31      0.97346239    0.0026747651
      6593.90      0.97447562    0.0026735713
      6600.50      0.97456351    0.0026584141
      6607.10      0.97388048    0.0026576686
      6613.70      0.97348300    0.0026571839
      6620.32      0.97503950    0.0026565357
      6626.94      0.97475728    0.0026562129
      6633.57      0.97367030    0.0026555862
      6640.20      0.97278325    0.0026406426
      6646.84      0.96992269    0.0026548543
      6653.49      0.96617167    0.0026399066
      6660.14      0.96268772    0.0026543038
      6666.80      0.95957536    0.0026541060
      6673.47      0.95615134    0.0026395267
      6680.14      0.95026774    0.0026537843
      6686.82      0.94455499    0.0026391843
      6693.51      0.93834121    0.0026536931
      6700.20      0.93252389    0.0026390553
      6706.90      0.92754618    0.0026395215
      6713.61      0.92244785    0.0026391606
      6720.32      0.91521778    0.0026395942
      6727.05      0.90615427    0.0026256425
      6733.77      0.89597348    0.0026402721
      6740.51      0.88745199    0.0026446963
      6747.25      0.87678498    0.0026416131
      6754.00      0.86603729    0.0026601218
      6760.75      0.85592429    0.0026438914
      6767.51      0.84593556    0.0026475832
      6774.28      0.83830547    0.0026600495
      6781.05      0.82975215    0.0026850282
      6787.84      0.82206199    0.0027203278
      6794.62      0.81605726    0.0027545672
      6801.42      0.81101859    0.0028013895
      6808.22      0.80671168    0.0028480787
      6815.03      0.80402943    0.0028686820
      6821.85      0.80205028    0.0029114690
      6828.67      0.79943888    0.0029070585
      6835.50      0.79967424    0.0029053133
      6842.33      0.79727715    0.0028872934
      6849.17      0.79317520    0.0028631350
      6856.02      0.78917189    0.0028282569
      6862.88      0.78593400    0.0027940978
      6869.74      0.78429354    0.0027564695
      6876.61      0.78098442    0.0027571605
      6883.49      0.78040722    0.0027415837
      6890.37      0.78066335    0.0027455624
      6897.27      0.78086548    0.0026991599
      6904.16      0.78162448    0.0026999546
      6911.07      0.78197535    0.0026876806
      6917.98      0.78309262    0.0026974424
      6924.89      0.78597290    0.0027134078
      6931.82      0.78797455    0.0027152721
      6938.75      0.79062948    0.0027475799
      6945.69      0.79138878    0.0027620851
      6952.64      0.79300542    0.0027704852
      6959.59      0.79580747    0.0027551575
      6966.55      0.79855703    0.0027474716
      6973.52      0.80015037    0.0027173926
      6980.49      0.80228756    0.0026718730
      6987.47      0.80695130    0.0026422069
      6994.46      0.81217170    0.0026000080
      7001.46      0.81604698    0.0025623572
      7008.46      0.81996411    0.0025302096
      7015.46      0.82251093    0.0025027105
      7022.48      0.82450148    0.0024836317
      7029.51      0.82697443    0.0024757485
      7036.53      0.83061409    0.0024910093
      7043.57      0.83047325    0.0024393938
      7050.62      0.83070666    0.0024224220
      7057.66      0.82805063    0.0024062571
      7064.72      0.82054241    0.0023923685
      7071.79      0.81316054    0.0023918807
      7078.86      0.80702703    0.0023896214
      7085.94      0.80421879    0.0023807617
      7093.03      0.80044920    0.0023835456
      7100.12      0.79662786    0.0023844854
      7107.22      0.79303138    0.0023918158
      7114.33      0.79219319    0.0023907104
      7121.44      0.79398446    0.0023885225
      7128.56      0.79235866    0.0023840380
      7135.69      0.79249054    0.0023781771
      7142.83      0.79176108    0.0023705521
      7149.97      0.79207241    0.0023688463
      7157.12      0.79435165    0.0023570850
      7164.28      0.79532464    0.0023436111
      7171.44      0.79589616    0.0023294258
      7178.62      0.79685370    0.0023067122
      7185.80      0.79991531    0.0022916996
      7192.98      0.80324435    0.0022761378
      7200.17      0.80486744    0.0022600099
      7207.38      0.80708844    0.0022437919
      7214.58      0.81022611    0.0022281475
      7221.80      0.81283413    0.0022132053
      7229.02      0.81479143    0.0021984604
      7236.25      0.81616935    0.0021901870
      7243.49      0.81687388    0.0022105071
      7250.73      0.81810330    0.0022421019
      7257.98      0.81638991    0.0022788778
      7265.24      0.81481070    0.0023227705
      7272.51      0.81285212    0.0023765695
      7279.78      0.81106358    0.0024446152
      7287.06      0.81291003    0.0025341386
      7294.35      0.81578102    0.0026542303
      7301.64      0.81829113    0.0028145143
      7308.94      0.82114087    0.0030260083
      7316.25      0.82176362    0.0033018746
      7323.57      0.82320627    0.0036592708
      7330.89      0.82532538    0.0041226733
      7338.22      0.82720324    0.0047182591
      7345.56      0.82773096    0.0054783363
      7352.91      0.82659510    0.0064412254
