# starting wavelength =        3427.9100
# ending wavelength =        7278.6600
# O2 telluric scale =        0
# O2 telluric shift =        0
# H2O telluric scale =        0
# H2O telluric shift =        0
      3429.59       2.5305784      0.23874552
      3433.02       2.5945313      0.20246368
      3436.45       2.6250445      0.17360037
      3439.89       2.6565758      0.15482564
      3443.33       2.7036190      0.13638339
      3446.78       2.7119186      0.12197003
      3450.22       2.7080281      0.11072422
      3453.67       2.7341544      0.10050368
      3457.13       2.7309986     0.094095266
      3460.58       2.6759624     0.089102279
      3464.04       2.6145981     0.085199119
      3467.51       2.5923675     0.082098904
      3470.98       2.5769564     0.079629556
      3474.45       2.5685640     0.077448674
      3477.92       2.5385755     0.075645290
      3481.40       2.5434992     0.074125459
      3484.88       2.5571464     0.072344737
      3488.37       2.5340862     0.071247711
      3491.86       2.5053761     0.070293711
      3495.35       2.4918197     0.070394272
      3498.84       2.5128624     0.070063405
      3502.34       2.4764940     0.069819414
      3505.84       2.4471049     0.069935692
      3509.35       2.4384388     0.069709256
      3512.86       2.4222004     0.069360863
      3516.37       2.4033598     0.069479604
      3519.89       2.4334391     0.069238282
      3523.41       2.4455956     0.069365327
      3526.93       2.4209139     0.069024515
      3530.46       2.3981206     0.068790557
      3533.99       2.4339760     0.068910892
      3537.53       2.4208005     0.068674902
      3541.06       2.3892226     0.068342195
      3544.60       2.3728181     0.068468211
      3548.15       2.3663466     0.068240317
      3551.70       2.3182265     0.067898826
      3555.25       2.3207904     0.068034008
      3558.80       2.3349716     0.067791719
      3562.36       2.3551007     0.067932989
      3565.92       2.3400407     0.067595534
      3569.49       2.3216355     0.067364363
      3573.06       2.3050392     0.067496361
      3576.64       2.2998587     0.067643047
      3580.21       2.2491798     0.066931817
      3583.79       2.2357119     0.067075240
      3587.38       2.2634532     0.067218303
      3590.96       2.2696125     0.066510668
      3594.55       2.2857459     0.066654010
      3598.15       2.2824053     0.066804539
      3601.75       2.3128491     0.066092364
      3605.35       2.3280975     0.066240274
      3608.96       2.3993663     0.066392472
      3612.56       2.4441011     0.066156625
      3616.18       2.4734988     0.065830665
      3619.79       2.4838563     0.065988285
      3623.41       2.4983841     0.065768576
      3627.04       2.5276297     0.065427169
      3630.66       2.5645045     0.065587308
      3634.29       2.5727357     0.065755936
      3637.93       2.5624167     0.065027800
      3641.57       2.5639803     0.065195055
      3645.21       2.5266922     0.065362635
      3648.86       2.4548787     0.064638035
      3652.50       2.3875156     0.064801900
      3656.16       2.3031611     0.064984871
      3659.81       2.2506837     0.064654289
      3663.47       2.1707984     0.064427574
      3667.14       2.1182355     0.064598160
      3670.80       1.9993997     0.064281785
      3674.48       1.8818005     0.064461543
      3678.15       1.7534194     0.064240862
      3681.83       1.6399620     0.063905060
      3685.51       1.5093963     0.064094386
      3689.20       1.3913116     0.064293671
      3692.88       1.2730558     0.063535804
      3696.58       1.1337177     0.063737901
      3700.27       1.0507043     0.063932095
      3703.98      0.99893435     0.063618579
      3707.68      0.94885180     0.063820673
      3711.39      0.91859606     0.063599360
      3715.10      0.89540877     0.063263124
      3718.81      0.89241190     0.063474978
      3722.53      0.88561515     0.063702938
      3726.26      0.90608574     0.063374431
      3729.98      0.88229133     0.063148313
      3733.71      0.85080685     0.063362170
      3737.45      0.81889635     0.063044241
      3741.18      0.83615030     0.063281378
      3744.93      0.86784337     0.062956305
      3748.67      0.90758458     0.062726929
      3752.42      0.97786503     0.062954655
      3756.17       1.0300438     0.062639078
      3759.93       1.0487969     0.062889420
      3763.69       1.0906313     0.063141149
      3767.45       1.1022656     0.062335779
      3771.22       1.1410193     0.062577264
      3774.99       1.1361300     0.062261552
      3778.77       1.1529087     0.062528800
      3782.54       1.1807293     0.062793977
      3786.33       1.2543971     0.062483512
      3790.11       1.3251338     0.062760115
      3793.90       1.3980759     0.061912598
      3797.70       1.4570365     0.062202160
      3801.50       1.5442435     0.062479385
      3805.30       1.6272681     0.062164498
      3809.10       1.6911664     0.062469067
      3812.91       1.7254173     0.062140642
      3816.73       1.7864129     0.061916337
      3820.54       1.8881526     0.061580387
      3824.36       1.9613488     0.061259111
      3828.19       2.0106796     0.061032825
      3832.02       2.0272499     0.060701218
      3835.85       2.0076039     0.059856240
      3839.68       2.0020400     0.060159621
      3843.52       2.0231737     0.059833723
      3847.37       2.0371097     0.059001075
      3851.22       2.0437859     0.059296225
      3855.07       2.0729166     0.058975202
      3858.92       2.0906144     0.058154028
      3862.78       2.1022507     0.058444983
      3866.64       2.1279899     0.058127779
      3870.51       2.1253715     0.057314993
      3874.38       2.1706228     0.057024466
      3878.26       2.2374200     0.057289293
      3882.13       2.2881566     0.056486193
      3886.02       2.3090894     0.056196014
      3889.90       2.3646043     0.056459994
      3893.79       2.3970065     0.055666021
      3897.69       2.4475562     0.055376799
      3901.59       2.5204802     0.055098266
      3905.49       2.5181344     0.054855349
      3909.39       2.5001706     0.054566233
      3913.30       2.5217900     0.054287595
      3917.22       2.5527046     0.053530563
      3921.13       2.5698105     0.053766809
      3925.06       2.6126471     0.053486752
      3928.98       2.6258235     0.052749551
      3932.91       2.5953520     0.052977777
      3936.84       2.5817217     0.052696827
      3940.78       2.5859573     0.051981469
      3944.72       2.5577634     0.051693478
      3948.67       2.5717097     0.051413142
      3952.61       2.5708452     0.051643730
      3956.57       2.5819024     0.050937071
      3960.52       2.5792779     0.050654412
      3964.48       2.5606272     0.050379276
      3968.45       2.5376233     0.050192990
      3972.42       2.5432722     0.049909667
      3976.39       2.5337011     0.049633330
      3980.37       2.4751154     0.049363464
      3984.35       2.4592369     0.049180786
      3988.33       2.4589379     0.048901492
      3992.32       2.4705796     0.048629673
      3996.31       2.4726890     0.047957827
      4000.31       2.5011569     0.047699324
      4004.31       2.4883630     0.047912287
      4008.31       2.4547151     0.047643016
      4012.32       2.4342012     0.046982754
      4016.33       2.3722465     0.046725935
      4020.35       2.2917204     0.046475076
      4024.37       2.2366974     0.046675443
      4028.40       2.1726248     0.046024374
      4032.42       2.1313784     0.045770761
      4036.46       2.0581257     0.045520591
      4040.50       2.0099124     0.045275208
      4044.54       1.9719801     0.045034116
      4048.58       1.9438003     0.044832445
      4052.63       1.9237238     0.044584481
      4056.68       1.8941956     0.044340516
      4060.74       1.8738055     0.044099452
      4064.80       1.8602767     0.043500754
      4068.86       1.8743419     0.043255914
      4072.93       1.8867949     0.043424843
      4077.01       1.8961256     0.043185434
      4081.08       1.8745720     0.042948385
      4085.17       1.8646982     0.042370162
      4089.25       1.8419108     0.042129598
      4093.34       1.8062227     0.041892071
      4097.43       1.8025853     0.041656687
      4101.53       1.8183759     0.041820971
      4105.63       1.8119208     0.041267578
      4109.74       1.8161154     0.041030273
      4113.85       1.7798669     0.040796757
      4117.96       1.7747457     0.040565229
      4122.08       1.7711767     0.040337252
      4126.20       1.7437630     0.040111543
      4130.33       1.7335474     0.039566949
      4134.46       1.7108946     0.039732653
      4138.59       1.7068987     0.039504427
      4142.73       1.6770316     0.039278795
      4146.88       1.6519488     0.039054976
      4151.02       1.6143282     0.038834267
      4155.18       1.5820472     0.038304645
      4159.33       1.5704129     0.038089810
      4163.49       1.5664373     0.037876639
      4167.65       1.5689844     0.037665131
      4171.82       1.5901902     0.037455528
      4175.99       1.6092387     0.037247683
      4180.17       1.6305695     0.037383461
      4184.35       1.6343143     0.036871834
      4188.54       1.6318351     0.036662761
      4192.72       1.6475757     0.036454763
      4196.92       1.6597903     0.036249086
      4201.11       1.6742950     0.036044743
      4205.31       1.6839103     0.035841741
      4209.52       1.6837454     0.035640218
      4213.73       1.6818487     0.035440214
      4217.94       1.6773561     0.034966441
      4222.16       1.6503078     0.034765936
      4226.38       1.6341105     0.034567469
      4230.61       1.6137100     0.034369902
      4234.84       1.6001229     0.034174280
      4239.08       1.5878038     0.033979082
      4243.32       1.5533401     0.033785859
      4247.56       1.5512161     0.033593838
      4251.81       1.5286358     0.033403130
      4256.06       1.5236364     0.033213081
      4260.32       1.5117873     0.033024698
      4264.58       1.5044185     0.032583636
      4268.84       1.4906602     0.032709798
      4273.11       1.4847859     0.032522478
      4277.38       1.4563519     0.032335503
      4281.66       1.4402826     0.032150170
      4285.94       1.4436038     0.031966114
      4290.23       1.4213699     0.031783284
      4294.52       1.4261604     0.031601505
      4298.81       1.4431138     0.031420649
      4303.11       1.4402131     0.031240839
      4307.42       1.4381968     0.031062303
      4311.72       1.4148032     0.030885461
      4316.04       1.4069433     0.030431679
      4320.35       1.3688722     0.030258378
      4324.67       1.3299916     0.030086239
      4329.00       1.3178986     0.029915460
      4333.33       1.3089637     0.029745021
      4337.66       1.3028449     0.029575943
      4342.00       1.3001202     0.029407157
      4346.34       1.2885304     0.029016502
      4350.69       1.2797403     0.028851460
      4355.04       1.2681245     0.028687427
      4359.39       1.2503616     0.028524371
      4363.75       1.2421231     0.028362456
      4368.12       1.2398870     0.028201965
      4372.48       1.2513053     0.028041970
      4376.86       1.2665619     0.027882868
      4381.23       1.2954177     0.027725467
      4385.61       1.3019389     0.027568674
      4390.00       1.2981743     0.027413077
      4394.39       1.3111991     0.027258762
      4398.79       1.3376450     0.027105599
      4403.18       1.3504482     0.026953501
      4407.59       1.3720471     0.026551932
      4412.00       1.4271914     0.026599259
      4416.41       1.4691899     0.026448611
      4420.82       1.4958500     0.026299016
      4425.25       1.5343753     0.026150330
      4429.67       1.5563816     0.026002730
      4434.10       1.5753862     0.025856201
      4438.54       1.5949151     0.025710969
      4442.97       1.5952406     0.025567189
      4447.42       1.6198825     0.025424121
      4451.86       1.6269787     0.025057979
      4456.32       1.6615117     0.024916222
      4460.77       1.6743575     0.024775241
      4465.24       1.7060664     0.024635517
      4469.70       1.7146398     0.024496823
      4474.17       1.7175123     0.024359304
      4478.65       1.7482061     0.024223253
      4483.12       1.7692793     0.024088340
      4487.61       1.7697117     0.023747175
      4492.09       1.7657061     0.023615932
      4496.59       1.7576063     0.023658415
      4501.08       1.7621088     0.023525156
      4505.58       1.7611515     0.023393129
      4510.09       1.7724770     0.023262353
      4514.60       1.7668245     0.023133091
      4519.12       1.7708246     0.022806367
      4523.63       1.7625654     0.022681005
      4528.16       1.7597299     0.022557041
      4532.69       1.7675176     0.022434528
      4537.22       1.7602736     0.022313628
      4541.76       1.7710844     0.022194286
      4546.30       1.7818518     0.022034023
      4550.85       1.8009580     0.021913585
      4555.40       1.7941100     0.021794394
      4559.95       1.7904425     0.021676804
      4564.51       1.8157815     0.021560690
      4569.08       1.8122742     0.021257580
      4573.65       1.8013811     0.021141146
      4578.22       1.7778492     0.021026661
      4582.80       1.7635620     0.021065429
      4587.38       1.7588658     0.020953477
      4591.97       1.7440318     0.020663289
      4596.56       1.7215832     0.020551017
      4601.16       1.6744955     0.020440062
      4605.76       1.6436572     0.020331196
      4610.37       1.6078671     0.020371190
      4614.98       1.5796400     0.020092590
      4619.59       1.5581955     0.019983931
      4624.21       1.5323258     0.019877116
      4628.84       1.5199071     0.019772280
      4633.47       1.5186275     0.019504848
      4638.10       1.5033010     0.019542586
      4642.74       1.4919084     0.019438281
      4647.38       1.4839326     0.019335961
      4652.03       1.4811085     0.019075022
      4656.68       1.4612360     0.018977252
      4661.34       1.4379729     0.018881795
      4666.00       1.4070703     0.018914615
      4670.67       1.3747988     0.018660471
      4675.33       1.3344176     0.018565900
      4680.01       1.2790182     0.018473678
      4684.69       1.2148111     0.018383292
      4689.38       1.1437802     0.018260705
      4694.07       1.1034408     0.018169256
      4698.76       1.0585241     0.018080226
      4703.46       1.0301552     0.017838577
      4708.16       1.0099051     0.017874832
      4712.87      0.98871211     0.017786594
      4717.58      0.98693159     0.017700903
      4722.30      0.99466895     0.017465452
      4727.03      0.99570628     0.017502796
      4731.75       1.0085798     0.017418231
      4736.48       1.0254917     0.017190564
      4741.22       1.0272916     0.017106006
      4745.96       1.0472297     0.017144912
      4750.71       1.0458517     0.016924481
      4755.46       1.0373713     0.016841170
      4760.22       1.0187220     0.016760381
      4764.97      0.98729123     0.016666027
      4769.74      0.94289245     0.016584365
      4774.51      0.90934734     0.016505256
      4779.29      0.87157160     0.016296941
      4784.07      0.82817343     0.016335227
      4788.85      0.79933385     0.016258025
      4793.64      0.78247450     0.016053771
      4798.43      0.76956143     0.015982629
      4803.23      0.76070287     0.016018399
      4808.03      0.77413346     0.015818330
      4812.84      0.79384090     0.015749350
      4817.66      0.82022041     0.015786002
      4822.48      0.85562972     0.015590459
      4827.30      0.89334544     0.015523804
      4832.12      0.93021709     0.015437182
      4836.96      0.98175926     0.015370122
      4841.79       1.0164757     0.015305903
      4846.63       1.0565078     0.015221794
      4851.48       1.0959487     0.015157164
      4856.33       1.1269215     0.015095656
      4861.19       1.1473562     0.015013529
      4866.05       1.1604055     0.014951833
      4870.92       1.1573561     0.014771197
      4875.79       1.1530436     0.014812550
      4880.66       1.1595475     0.014753792
      4885.55       1.1485622     0.014575922
      4890.43       1.1379617     0.014618967
      4895.32       1.1237880     0.014446401
      4900.22       1.0971069     0.014387922
      4905.12       1.0624943     0.014320828
      4910.02       1.0228016     0.014262265
      4914.94      0.97857575     0.014207060
      4919.85      0.93358920     0.014140841
      4924.77      0.89108918     0.014085674
      4929.70      0.85474901     0.013926427
      4934.62      0.82658769     0.013968164
      4939.56      0.81967261     0.013810178
      4944.50      0.81753237     0.013854266
      4949.44      0.83221720     0.013697463
      4954.39      0.85405667     0.013650271
      4959.35      0.88446056     0.013588450
      4964.31      0.91299193     0.013541778
      4969.27      0.97261887     0.013586201
      4974.24       1.0148628     0.013436691
      4979.22       1.0574964     0.013393918
      4984.20       1.0982936     0.013334880
      4989.18       1.1268812     0.013292897
      4994.17       1.1391154     0.013236434
      4999.16       1.1621813     0.013195001
      5004.16       1.1687109     0.013140725
      5009.17       1.1679018     0.013100196
      5014.18       1.1753814     0.012958866
      5019.19       1.1704439     0.013008924
      5024.21       1.1639540     0.012869767
      5029.23       1.1546601     0.012920520
      5034.26       1.1423008     0.012783968
      5039.30       1.1380254     0.012835332
      5044.34       1.1495586     0.012701059
      5049.39       1.1589778     0.012752964
      5054.43       1.1755243     0.012620684
      5059.49       1.1750296     0.012493890
      5064.55       1.1876244     0.012543297
      5069.61       1.1859667     0.012418248
      5074.68       1.1898962     0.012468530
      5079.76       1.1906484     0.012345343
      5084.84       1.2068678     0.012396292
      5089.92       1.2155347     0.012275583
      5095.01       1.2420915     0.012327178
      5100.11       1.2676911     0.012208563
      5105.21       1.2902706     0.012171938
      5110.31       1.3179095     0.012144297
      5115.42       1.3361724     0.012108812
      5120.54       1.3495345     0.012082928
      5125.66       1.3530574     0.012048414
      5130.79       1.3776007     0.012024262
      5135.92       1.3863386     0.011990589
      5141.05       1.4035011     0.011878720
      5146.20       1.4154554     0.011935612
      5151.34       1.4213113     0.011824625
      5156.49       1.4157942     0.011883285
      5161.65       1.4241239     0.011854596
      5166.81       1.4292271     0.011747648
      5171.98       1.4221081     0.011805854
      5177.15       1.4232022     0.011699641
      5182.33       1.4282891     0.011759896
      5187.51       1.4271112     0.011654272
      5192.70       1.4391782     0.011632556
      5197.89       1.4433207     0.011611883
      5203.09       1.4338840     0.011590395
      5208.29       1.4337079     0.011571634
      5213.50       1.4315989     0.011551018
      5218.72       1.4352852     0.011532609
      5223.93       1.4263608     0.011435196
      5229.16       1.4187685     0.011496340
      5234.39       1.3995141     0.011402156
      5239.62       1.3963987     0.011384169
      5244.86       1.3920598     0.011447331
      5250.11       1.3857704     0.011354168
      5255.36       1.3773943     0.011338892
      5260.61       1.3855189     0.011327284
      5265.87       1.3779299     0.011311989
      5271.14       1.3644356     0.011298872
      5276.41       1.3611561     0.011288117
      5281.69       1.3457943     0.011274927
      5286.97       1.3349160     0.011186875
      5292.26       1.3231102     0.011254409
      5297.55       1.3138551     0.011243214
      5302.85       1.2985637     0.011156917
      5308.15       1.2906204     0.011149487
      5313.46       1.2833525     0.011216458
      5318.77       1.2723503     0.011131913
      5324.09       1.2525668     0.011126035
      5329.42       1.2339328     0.011194804
      5334.75       1.2207735     0.011111667
      5340.08       1.2095714     0.011107187
      5345.42       1.2026880     0.011104354
      5350.77       1.1903462     0.011096093
      5356.12       1.1652351     0.011092856
      5361.48       1.1549672     0.011091163
      5366.83       1.1287874     0.011012636
      5372.20       1.1121009     0.011083117
      5377.58       1.0906200     0.011082570
      5382.95       1.0650370     0.011006696
      5388.34       1.0535703     0.011005884
      5393.72       1.0506845     0.011078453
      5399.12       1.0529061     0.011005383
      5404.52       1.0401353     0.011005664
      5409.92       1.0462194     0.011006990
      5415.33       1.0426170     0.011008856
      5420.75       1.0419588     0.011009919
      5426.17       1.0322556     0.011012278
      5431.60       1.0248323     0.011015635
      5437.03       1.0351687     0.010945192
      5442.47       1.0532828     0.011022522
      5447.91       1.0577884     0.011026556
      5453.36       1.0555531     0.011031816
      5458.81       1.0493906     0.010962553
      5464.27       1.0508592     0.010969695
      5469.73       1.0468182     0.010977567
      5475.20       1.0430398     0.011054835
      5480.68       1.0316231     0.010986729
      5486.16       1.0342719     0.010995141
      5491.65       1.0265505     0.011004517
      5497.14       1.0292490     0.011014751
      5502.64       1.0193614     0.010949022
      5508.14      0.99935024     0.011027349
      5513.65      0.98369579     0.011038111
      5519.16      0.96510127     0.011049393
      5524.68      0.94538207     0.010986940
      5530.20      0.91685265     0.010997819
      5535.73      0.91687811     0.011009378
      5541.27      0.91760697     0.011021695
      5546.81      0.90909918     0.011103470
      5552.36      0.89871786     0.011043859
      5557.91      0.88841070     0.011056418
      5563.47      0.88488802     0.011069539
      5569.04      0.88176738     0.011083434
      5574.60      0.87944604     0.011097821
      5580.18      0.87822161     0.011037610
      5585.76      0.89136272     0.011052988
      5591.35      0.89500223     0.011068899
      5596.94      0.88687535     0.011085371
      5602.53      0.89195753     0.011170168
      5608.14      0.88714666     0.011186482
      5613.75      0.87893312     0.011203177
      5619.36      0.87448432     0.011144109
      5624.98      0.88019729     0.011161561
      5630.60      0.86848513     0.011179430
      5636.23      0.86132476     0.011197693
      5641.87      0.86485337     0.011216382
      5647.51      0.85365921     0.011235480
      5653.16      0.85003231     0.011254964
      5658.82      0.84088900     0.011198621
      5664.47      0.83396909     0.011217805
      5670.14      0.82990786     0.011237259
      5675.81      0.83243513     0.011256947
      5681.48      0.84119372     0.011277102
      5687.17      0.84553744     0.011297470
      5692.85      0.84589453     0.011318074
      5698.55      0.83229163     0.011338953
      5704.25      0.82690104     0.011360260
      5709.95      0.82168339     0.011306146
      5715.66      0.80848635     0.011328388
      5721.38      0.79515516     0.011351490
      5727.10      0.78654080     0.011375115
      5732.83      0.77734597     0.011398167
      5738.56      0.77966130     0.011421722
      5744.30      0.78447816     0.011446613
      5750.04      0.79032052     0.011474533
      5755.79      0.79002955     0.011506036
      5761.55      0.80339676     0.011539507
      5767.31      0.81605208     0.011573188
      5773.08      0.84612684     0.011608189
      5778.85      0.87528580     0.011644912
      5784.63      0.91142635     0.011679830
      5790.41      0.95152829     0.011710733
      5796.21      0.97924696     0.011739070
      5802.00       1.0070088     0.011766015
      5807.81       1.0319787     0.011791012
      5813.61       1.0674532     0.011814106
      5819.43       1.0913528     0.011836090
      5825.25       1.0963442     0.011858607
      5831.07       1.1054158     0.011882101
      5836.90       1.1145856     0.011905464
      5842.74       1.1117293     0.011927274
      5848.58       1.1103116     0.011877690
      5854.43       1.0990098     0.011896729
      5860.29       1.0761502     0.011915606
      5866.15       1.0546935     0.011934826
      5872.01       1.0262753     0.011952637
      5877.89       1.0080721     0.011969184
      5883.76      0.99111640     0.011987439
      5889.65      0.97168301     0.012008370
      5895.54      0.95179903     0.012029395
      5901.43      0.93125893     0.011979504
      5907.34      0.92134423     0.011999284
      5913.24      0.91317888     0.012021013
      5919.16      0.89646366     0.012044082
      5925.08      0.88751386     0.012067601
      5931.00      0.87520362     0.012091702
      5936.93      0.85513861     0.012116558
      5942.87      0.84958725     0.012073401
      5948.81      0.84404773     0.012098577
      5954.76      0.82651198     0.012124076
      5960.72      0.80969729     0.012149664
      5966.68      0.80121856     0.012252861
      5972.64      0.79135131     0.012277992
      5978.62      0.78730825     0.012233797
      5984.60      0.77964265     0.012259038
      5990.58      0.78186156     0.012284456
      5996.57      0.78651877     0.012310096
      6002.57      0.78663988     0.012335958
      6008.57      0.78696312     0.012361810
      6014.58      0.78652268     0.012315370
      6020.60      0.78635455     0.012340047
      6026.62      0.78664445     0.012444115
      6032.65      0.77965200     0.012469409
      6038.68      0.77603387     0.012424255
      6044.72      0.77844058     0.012447930
      6050.76      0.77263644     0.012471945
      6056.81      0.76910277     0.012496106
      6062.87      0.75627679     0.012520414
      6068.93      0.75033727     0.012554639
      6075.00      0.74275885     0.012577649
      6081.08      0.73829225     0.012600859
      6087.16      0.72926355     0.012624567
      6093.25      0.72557518     0.012579116
      6099.34      0.71343911     0.012606153
      6105.44      0.70185460     0.012713488
      6111.54      0.69590796     0.012739496
      6117.66      0.69151339     0.012690884
      6123.78      0.68657462     0.012717932
      6129.90      0.67546487     0.012752027
      6136.03      0.66866799     0.012802578
      6142.17      0.66315097     0.012848868
      6148.31      0.65689788     0.012899638
      6154.46      0.65291915     0.012883426
      6160.61      0.65045920     0.012931440
      6166.77      0.64168639     0.013059234
      6172.94      0.63242736     0.013097257
      6179.11      0.62588558     0.013050294
      6185.29      0.61481648     0.013067028
      6191.48      0.59845166     0.013156322
      6197.67      0.58727485     0.013078747
      6203.87      0.57469394     0.013073475
      6210.07      0.57087584     0.013069185
      6216.28      0.55644310     0.013075270
      6222.50      0.53796740     0.013083641
      6228.72      0.51999217     0.013090886
      6234.95      0.50738402     0.013021942
      6241.19      0.49018706     0.013105855
      6247.42      0.48808252     0.013042138
      6253.67      0.48775152     0.013052279
      6259.93      0.48722057     0.013140135
      6266.19      0.49612441     0.013078207
      6272.46      0.50665203     0.013090406
      6278.73      0.51983042     0.013104406
      6285.01      0.54012766     0.013121157
      6291.29      0.55669928     0.013135976
      6297.58      0.57695064     0.013077529
      6303.88      0.59286484     0.013170525
      6310.19      0.61490304     0.013185979
      6316.50      0.64757078     0.013127812
      6322.81      0.67771855     0.013224461
      6329.14      0.69829014     0.013173711
      6335.47      0.71018807     0.013196516
      6341.80      0.72023504     0.013229350
      6348.14      0.72547463     0.013247932
      6354.49      0.74154312     0.013266814
      6360.85      0.75135631     0.013292380
      6367.21      0.76031463     0.013307629
      6373.57      0.75932335     0.013327390
      6379.95      0.76193634     0.013334451
      6386.33      0.76898945     0.013267743
      6392.72      0.76635992     0.013348079
      6399.11      0.76529264     0.013277829
      6405.51      0.76435877     0.013282566
      6411.92      0.76397783     0.013289577
      6418.32      0.76354263     0.013295722
      6424.74      0.76604792     0.013303166
      6431.17      0.76866795     0.013305649
      6437.60      0.77467988     0.013232467
      6444.04      0.77666324     0.013307004
      6450.48      0.77640809     0.013232382
      6456.94      0.78759894     0.013308563
      6463.39      0.79878657     0.013233781
      6469.85      0.79699236     0.013304124
      6476.33      0.80161974     0.013227430
      6482.80      0.80195434     0.013224325
      6489.28      0.80196457     0.013226076
      6495.77      0.80367536     0.013224297
      6502.27      0.80234706     0.013226261
      6508.77      0.79178252     0.013224016
      6515.28      0.77763195     0.013225387
      6521.80      0.76853466     0.013222205
      6528.32      0.75574039     0.013221621
      6534.85      0.74750159     0.013145758
      6541.38      0.74132129     0.013215534
      6547.92      0.73356334     0.013138848
      6554.47      0.72218358     0.013207167
      6561.03      0.72251810     0.013129403
      6567.59      0.72164418     0.013123957
      6574.16      0.73188657     0.013117107
      6580.73      0.74400090     0.013109537
      6587.31      0.74894171     0.013102053
      6593.90      0.76543050     0.013092453
      6600.50      0.78231097     0.013011476
      6607.10      0.79223434     0.013072303
      6613.70      0.80703562     0.012989521
      6620.32      0.81816752     0.013049293
      6626.94      0.82576108     0.012964524
      6633.57      0.82790286     0.012951575
      6640.20      0.83220589     0.012936559
      6646.84      0.82743246     0.012921231
      6653.49      0.82511308     0.012835710
      6660.14      0.82448764     0.012887853
      6666.80      0.82309515     0.012871611
      6673.47      0.81026150     0.012800597
      6680.14      0.80216883     0.012888802
      6686.82      0.79759613     0.012842978
      6693.51      0.78674552     0.012802945
      6700.20      0.77831161     0.012787410
      6706.90      0.76624129     0.012825051
      6713.61      0.75547832     0.012916137
      6720.32      0.75688212     0.013022554
      6727.05      0.74684939     0.013190307
      6733.77      0.74503380     0.013295605
      6740.51      0.74071081     0.013530737
      6747.25      0.73659145     0.013691681
      6754.00      0.73543410     0.013707584
      6760.75      0.73220306     0.013737964
      6767.51      0.72752653     0.013778424
      6774.28      0.71735617     0.013583634
      6781.05      0.71202597     0.013406218
      6787.84      0.69651756     0.013198363
      6794.62      0.67856415     0.013026848
      6801.42      0.65812572     0.012846648
      6808.22      0.65202161     0.012723635
      6815.03      0.64531001     0.012547185
      6821.85      0.64255583     0.012480290
      6828.67      0.63905006     0.012361104
      6835.50      0.63653693     0.012212187
      6842.33      0.63385276     0.012123723
      6849.17      0.63413708     0.012111575
      6856.02      0.62592677     0.011981702
      6862.88      0.61363472     0.011914996
      6869.74      0.60733301     0.011855132
      6876.61      0.60253697     0.011741675
      6883.49      0.60535878     0.011752774
      6890.37      0.60881169     0.011690949
      6897.27      0.60714096     0.011502810
      6904.16      0.60063940     0.011379107
      6911.07      0.58539879     0.011190745
      6917.98      0.58735226     0.011006773
      6924.89      0.58875354     0.010887934
      6931.82      0.59229204     0.010713052
      6938.75      0.59880411     0.010498941
      6945.69      0.61353000     0.010333805
      6952.64      0.62799976     0.010225950
      6959.59      0.64505320     0.010075844
      6966.55      0.65838280    0.0099355430
      6973.52      0.66791194    0.0098405199
      6980.49      0.67519591    0.0096981290
      6987.47      0.68558033    0.0095578358
      6994.46      0.68724208    0.0094254429
      7001.46      0.68454127    0.0092765064
      7008.46      0.67750672    0.0092282813
      7015.46      0.67125900    0.0091612617
      7022.48      0.67018457    0.0090925145
      7029.51      0.67886251    0.0090119050
      7036.53      0.67430734    0.0089225946
      7043.57      0.67678501    0.0088642226
      7050.62      0.67626543    0.0087648876
      7057.66      0.66360986    0.0086548132
      7064.72      0.64323805    0.0085391476
      7071.79      0.63999071    0.0084166345
      7078.86      0.63594477    0.0082869250
      7085.94      0.63830861    0.0081264524
      7093.03      0.64527511    0.0079838513
      7100.12      0.64079267    0.0078761855
      7107.22      0.63997821    0.0077304916
      7114.33      0.63470626    0.0075872150
      7121.44      0.63497339    0.0074429557
      7128.56      0.63937870    0.0072960413
      7135.69      0.64270107    0.0071479277
      7142.83      0.64265660    0.0070015828
      7149.97      0.64109542    0.0068584831
      7157.12      0.64199275    0.0067195017
      7164.28      0.63967577    0.0067372116
      7171.44      0.63814704    0.0068003738
      7178.62      0.63832402    0.0068811282
      7185.80      0.63591965    0.0069836239
      7192.98      0.63407122    0.0071153790
      7200.17      0.63268204    0.0072870312
      7207.38      0.62764947    0.0075145431
      7214.58      0.62311252    0.0078237320
      7221.80      0.62042868    0.0083251023
      7229.02      0.61566439    0.0089267973
      7236.25      0.61350190    0.0097290167
      7243.49      0.61025760     0.010771752
      7250.73      0.60640691     0.012097520
      7257.98      0.59866123     0.013780407
      7265.24      0.59217951     0.015907380
      7272.51      0.58699820     0.018582190
