# starting wavelength =        3460.8000
# ending wavelength =        7358.3500
# O2 telluric scale =        0
# O2 telluric shift =        0
# H2O telluric scale =        0
# H2O telluric shift =        0
      3464.04      0.33795782     0.063596236
      3467.51      0.35863098     0.054122248
      3470.98      0.35469797     0.046598535
      3474.45      0.35015558     0.039578341
      3477.92      0.33730184     0.035192476
      3481.40      0.32804497     0.031745616
      3484.88      0.32082754     0.029125316
      3488.37      0.31008344     0.026827706
      3491.86      0.33837900     0.024761175
      3495.35      0.35821519     0.023506434
      3498.84      0.36054392     0.022669061
      3502.34      0.36071636     0.022079320
      3505.84      0.36242948     0.021499591
      3509.35      0.36075149     0.021191242
      3512.86      0.36774534     0.020952430
      3516.37      0.37080922     0.020763227
      3519.89      0.36134991     0.020548975
      3523.41      0.36520817     0.020395169
      3526.93      0.36209547     0.020476160
      3530.46      0.38228214     0.020551385
      3533.99      0.39045284     0.020596948
      3537.53      0.40477607     0.020635535
      3541.06      0.38984346     0.020753683
      3544.60      0.39273482     0.020879115
      3548.15      0.38187754     0.020658218
      3551.70      0.38336677     0.020670983
      3555.25      0.39417072     0.020512593
      3558.80      0.38145347     0.020472342
      3562.36      0.40085503     0.020214710
      3565.92      0.38782238     0.019988821
      3569.49      0.38804096     0.019815835
      3573.06      0.38944352     0.019672045
      3576.64      0.39494746     0.019254982
      3580.21      0.39350489     0.019107790
      3583.79      0.39731561     0.018876435
      3587.38      0.38967125     0.018620330
      3590.96      0.38671873     0.018526553
      3594.55      0.39618702     0.018393476
      3598.15      0.40759056     0.018473727
      3601.75      0.41529897     0.018650106
      3605.35      0.43934112     0.018930947
      3608.96      0.44427980     0.018586540
      3612.56      0.45157130     0.018295323
      3616.18      0.45534368     0.018086275
      3619.79      0.44668779     0.018109686
      3623.41      0.44580723     0.018131707
      3627.04      0.45232888     0.017925446
      3630.66      0.45077055     0.017947348
      3634.29      0.45691270     0.017972825
      3637.93      0.45649141     0.017764370
      3641.57      0.46297647     0.017789270
      3645.21      0.47041106     0.017813783
      3648.86      0.47739437     0.017738071
      3652.50      0.47674929     0.017631221
      3656.16      0.45936851     0.017658238
      3659.81      0.45254190     0.017685302
      3663.47      0.44308032     0.017476744
      3667.14      0.44778311     0.017503190
      3670.80      0.43590593     0.017533180
      3674.48      0.43577488     0.017322392
      3678.15      0.41687873     0.017352313
      3681.83      0.41787606     0.017380371
      3685.51      0.40611940     0.017277797
      3689.20      0.41040501     0.017200105
      3692.88      0.41796541     0.017233800
      3696.58      0.42520457     0.017126839
      3700.27      0.43341411     0.017160340
      3703.98      0.43202017     0.017083895
      3707.68      0.42617403     0.016980591
      3711.39      0.41903517     0.017013789
      3715.10      0.41081181     0.017048670
      3718.81      0.40290816     0.016836040
      3722.53      0.39156529     0.016869548
      3726.26      0.38446137     0.016907641
      3729.98      0.37234427     0.016802495
      3733.71      0.36724538     0.016730605
      3737.45      0.36011996     0.016765255
      3741.18      0.34556121     0.016663717
      3744.93      0.34029009     0.016702422
      3748.67      0.33503091     0.016633447
      3752.42      0.31819302     0.016526068
      3756.17      0.30018214     0.016564887
      3759.93      0.28560635     0.016610341
      3763.69      0.27629808     0.016505264
      3767.45      0.25970447     0.016435647
      3771.22      0.25082127     0.016330065
      3774.99      0.24191237     0.016372962
      3778.77      0.23763282     0.016420412
      3782.54      0.25624799     0.016316662
      3786.33      0.25941594     0.016365847
      3790.11      0.26157720     0.016289543
      3793.90      0.26936914     0.016188467
      3797.70      0.26384196     0.016239276
      3801.50      0.26467690     0.016136570
      3805.30      0.26804267     0.016189055
      3809.10      0.26982989     0.016112578
      3812.91      0.26208371     0.016012460
      3816.73      0.26442244     0.016067294
      3820.54      0.27092420     0.016119597
      3824.36      0.27601368     0.016020383
      3828.19      0.28361523     0.016078150
      3832.02      0.29080309     0.015976792
      3835.85      0.29491789     0.015906038
      3839.68      0.30627705     0.015960739
      3843.52      0.32340326     0.015860723
      3847.37      0.34233483     0.015925580
      3851.22      0.36738718     0.015822828
      3855.07      0.38575206     0.015755919
      3858.92      0.41342891     0.015650795
      3862.78      0.44671681     0.015550836
      3866.64      0.47247563     0.015483067
      3870.51      0.49922245     0.015381001
      3874.38      0.51569938     0.015282466
      3878.26      0.53246413     0.015215573
      3882.13      0.55336412     0.015114933
      3886.02      0.56380111     0.014889243
      3889.90      0.57551045     0.014951441
      3893.79      0.59838731     0.014852782
      3897.69      0.61664547     0.014630430
      3901.59      0.63499083     0.014539430
      3905.49      0.64893902     0.014594646
      3909.39      0.66061210     0.014376147
      3913.30      0.67241998     0.014285693
      3917.22      0.68781060     0.014340594
      3921.13      0.69327355     0.014124985
      3925.06      0.70341342     0.014035878
      3928.98      0.70251190     0.013949675
      3932.91      0.71323270     0.013878410
      3936.84      0.72340020     0.013789514
      3940.78      0.71613962     0.013703807
      3944.72      0.71136834     0.013635062
      3948.67      0.71099641     0.013547128
      3952.61      0.70797596     0.013461775
      3956.57      0.69682540     0.013263351
      3960.52      0.68923310     0.013308583
      3964.48      0.68489848     0.013223551
      3968.45      0.68686292     0.013031016
      3972.42      0.68966911     0.012944615
      3976.39      0.69618320     0.012989571
      3980.37      0.69901086     0.012906810
      3984.35      0.70700089     0.012717088
      3988.33      0.71520660     0.012633159
      3992.32      0.72752247     0.012677330
      3996.31      0.73937538     0.012494052
      4000.31      0.75838191     0.012410493
      4004.31      0.77370505     0.012328804
      4008.31      0.79559533     0.012371952
      4012.32      0.80906439     0.012192384
      4016.33      0.82437418     0.012110748
      4020.35      0.83991350     0.012030855
      4024.37      0.84723777     0.011854434
      4028.40      0.84983061     0.011897893
      4032.42      0.84509850     0.011818105
      4036.46      0.84076315     0.011739762
      4040.50      0.83535644     0.011567255
      4044.54      0.82994765     0.011492835
      4048.58      0.82033983     0.011532280
      4052.63      0.81063115     0.011455532
      4056.68      0.79957669     0.011286794
      4060.74      0.78826546     0.011213543
      4064.80      0.77417380     0.011141406
      4068.86      0.75795823     0.011178137
      4072.93      0.74282163     0.011012800
      4077.01      0.72484637     0.010940639
      4081.08      0.70655070     0.010869540
      4085.17      0.68742929     0.010799867
      4089.25      0.66890208     0.010642657
      4093.34      0.64785642     0.010674810
      4097.43      0.62492109     0.010604834
      4101.53      0.59319183     0.010535848
      4105.63      0.57353423     0.010467909
      4109.74      0.55113219     0.010316029
      4113.85      0.53030178     0.010247705
      4117.96      0.51488248     0.010279052
      4122.08      0.50024657     0.010212032
      4126.20      0.48938603     0.010145768
      4130.33      0.48687898     0.010000202
      4134.46      0.48724862    0.0099334660
      4138.59      0.48774694    0.0098678885
      4142.73      0.48858925    0.0098030622
      4146.88      0.48694796    0.0098336516
      4151.02      0.48291022    0.0096952619
      4155.18      0.48006199    0.0096302501
      4159.33      0.47691087    0.0095662152
      4163.49      0.47214458    0.0095027800
      4167.65      0.46685746    0.0094404580
      4171.82      0.45835163    0.0093785575
      4175.99      0.45456878    0.0092441061
      4180.17      0.44424803    0.0091841292
      4184.35      0.44105897    0.0092140124
      4188.54      0.43519738    0.0091528491
      4192.72      0.43097134    0.0090927304
      4196.92      0.43267035    0.0090331613
      4201.11      0.43522523    0.0089033674
      4205.31      0.44249567    0.0088454698
      4209.52      0.45519253    0.0087881841
      4213.73      0.46668058    0.0087315622
      4217.94      0.47603479    0.0086752653
      4222.16      0.48185378    0.0086199311
      4226.38      0.49202700    0.0085647124
      4230.61      0.49522926    0.0085215048
      4234.84      0.50445002    0.0084659812
      4239.08      0.50691248    0.0084114190
      4243.32      0.50967530    0.0083570939
      4247.56      0.50812890    0.0083034085
      4251.81      0.50804246    0.0082503109
      4256.06      0.50793699    0.0081974831
      4260.32      0.50241292    0.0081452506
      4264.58      0.49777233    0.0080319913
      4268.84      0.49186804    0.0079802228
      4273.11      0.48681496    0.0079287506
      4277.38      0.48845992    0.0078779477
      4281.66      0.48544490    0.0078274582
      4285.94      0.48725416    0.0077775624
      4290.23      0.49170422    0.0077280978
      4294.52      0.49407059    0.0076789774
      4298.81      0.49739429    0.0076305456
      4303.11      0.49975906    0.0075821666
      4307.42      0.50693727    0.0075346390
      4311.72      0.50807195    0.0074872412
      4316.04      0.51353914    0.0073836292
      4320.35      0.51678151    0.0073374358
      4324.67      0.51828298    0.0072916725
      4329.00      0.52196418    0.0072462764
      4333.33      0.53031302    0.0072012449
      4337.66      0.53754028    0.0071568086
      4342.00      0.54189954    0.0071125933
      4346.34      0.54598999    0.0070687782
      4350.69      0.54889010    0.0070251930
      4355.04      0.55022460    0.0069821905
      4359.39      0.55324637    0.0069395264
      4363.75      0.55477851    0.0068971826
      4368.12      0.55753358    0.0068553487
      4372.48      0.56014128    0.0068135491
      4376.86      0.55811946    0.0067723952
      4381.23      0.55579699    0.0067314700
      4385.61      0.54962550    0.0066910783
      4390.00      0.54337693    0.0066509068
      4394.39      0.53495218    0.0066111115
      4398.79      0.53042020    0.0065717435
      4403.18      0.52243816    0.0065325711
      4407.59      0.51252200    0.0064939767
      4412.00      0.50941209    0.0064556139
      4416.41      0.50758861    0.0064176588
      4420.82      0.50275937    0.0063800252
      4425.25      0.49992798    0.0063427984
      4429.67      0.49554872    0.0063059329
      4434.10      0.49093371    0.0062694273
      4438.54      0.49117409    0.0062333776
      4442.97      0.49802698    0.0061423919
      4447.42      0.50693101    0.0061073213
      4451.86      0.51981446    0.0060726715
      4456.32      0.53236253    0.0060384242
      4460.77      0.54653483    0.0060045683
      4465.24      0.56814633    0.0059711118
      4469.70      0.58919239    0.0059379704
      4474.17      0.61343963    0.0059051960
      4478.65      0.64062051    0.0058728632
      4483.12      0.66562579    0.0058409224
      4487.61      0.69276155    0.0058094207
      4492.09      0.71738659    0.0057265325
      4496.59      0.74404202    0.0056955483
      4501.08      0.76636066    0.0056647870
      4505.58      0.78903784    0.0056345045
      4510.09      0.81064774    0.0056045818
      4514.60      0.82818648    0.0055751383
      4519.12      0.84739233    0.0055460598
      4523.63      0.87012140    0.0055173093
      4528.16      0.89214711    0.0054420840
      4532.69      0.91082185    0.0054548909
      4537.22      0.92819295    0.0054268291
      4541.76      0.94511703    0.0053991019
      4546.30      0.96540851    0.0053717425
      4550.85      0.98703738    0.0053448891
      4555.40       1.0042378    0.0053184334
      4559.95       1.0249000    0.0052474032
      4564.51       1.0458291    0.0052220507
      4569.08       1.0606408    0.0051971707
      4573.65       1.0756532    0.0051727004
      4578.22       1.0888740    0.0051486425
      4582.80       1.1043875    0.0051611821
      4587.38       1.1162673    0.0050934611
      4591.97       1.1249847    0.0050699785
      4596.56       1.1292811    0.0050469104
      4601.16       1.1296638    0.0050242861
      4605.76       1.1318147    0.0050022835
      4610.37       1.1307354    0.0049374575
      4614.98       1.1252072    0.0049155369
      4619.59       1.1131625    0.0049304180
      4624.21       1.0953999    0.0049092307
      4628.84       1.0777596    0.0048886712
      4633.47       1.0595891    0.0048274969
      4638.10       1.0372423    0.0048069842
      4642.74       1.0148406    0.0047869344
      4647.38      0.99540004    0.0047673240
      4652.03      0.97280556    0.0047838793
      4656.68      0.94856771    0.0047257500
      4661.34      0.92796412    0.0047066809
      4666.00      0.89800913    0.0066312677
      4670.67      0.89388471    0.0066034358
      4675.33      0.88388443    0.0065779331
      4680.01      0.87814360    0.0065581825
      4684.69      0.86574599    0.0065294443
      4689.38      0.85700151    0.0065024035
      4694.07      0.85150083    0.0064769987
      4698.76      0.85306986    0.0063577874
      4703.46      0.84345019    0.0064345896
      4708.16      0.83219487    0.0064080994
      4712.87      0.82798485    0.0063840672
      4717.58      0.82666616    0.0062668779
      4722.30      0.81904828    0.0062474703
      4727.03      0.81778733    0.0063208311
      4731.75      0.82036250    0.0062975605
      4736.48      0.82208107    0.0061837771
      4741.22      0.82468352    0.0061652394
      4745.96      0.82010203    0.0062400221
      4750.71      0.81007652    0.0062180849
      4755.46      0.80331603    0.0061069595
      4760.22      0.79412120    0.0060908855
      4764.97      0.77739140    0.0061647976
      4769.74      0.75818873    0.0060543180
      4774.51      0.73694710    0.0060375088
      4779.29      0.71127202    0.0060231019
      4784.07      0.68681749    0.0060967462
      4788.85      0.66314067    0.0059891296
      4793.64      0.64268638    0.0059749272
      4798.43      0.61987201    0.0059633627
      4803.23      0.59803451    0.0059454023
      4808.03      0.58013486    0.0059314011
      4812.84      0.57438160    0.0059196636
      4817.66      0.58505667    0.0059056963
      4822.48      0.60450995    0.0058917952
      4827.30      0.63688101    0.0058805542
      4832.12      0.68584971    0.0057792520
      4836.96      0.72315277    0.0058562492
      4841.79      0.75613209    0.0058453550
      4846.63      0.77562869    0.0057467880
      4851.48      0.77958385    0.0058241693
      4856.33      0.77673571    0.0058145479
      4861.19      0.76607410    0.0057180035
      4866.05      0.74553182    0.0057958320
      4870.92      0.73927338    0.0057870952
      4875.79      0.73780728    0.0056918289
      4880.66      0.73220297    0.0057705239
      4885.55      0.74011629    0.0057635760
      4890.43      0.75234360    0.0056692380
      4895.32      0.76937292    0.0057491133
      4900.22      0.78569143    0.0057435687
      4905.12      0.80394403    0.0056494394
      4910.02      0.82070479    0.0057309858
      4914.94      0.84251348    0.0056427925
      4919.85      0.86898990    0.0056333098
      4924.77      0.90041285    0.0057168224
      4929.70      0.93265476    0.0056276604
      4934.62      0.96576858    0.0056201457
      4939.56       1.0153905    0.0056250017
      4944.50       1.0571125    0.0056155626
      4949.44       1.0895374    0.0056106074
      4954.39       1.1223420    0.0056141950
      4959.35       1.1453400    0.0056078777
      4964.31       1.1654524    0.0056149592
      4969.27       1.1670535    0.0056068805
      4974.24       1.1445941    0.0055274182
      4979.22       1.1157434    0.0056084244
      4984.20       1.0869851    0.0056037882
      4989.18       1.0368981    0.0056122597
      4994.17      0.98810944    0.0056061232
      4999.16      0.94426065    0.0055290834
      5004.16      0.90397695    0.0056104953
      5009.17      0.87062539    0.0055325254
      5014.18      0.82991660    0.0056166114
      5019.19      0.79605888    0.0056133868
      5024.21      0.76834482    0.0055398963
      5029.23      0.74573339    0.0056203110
      5034.26      0.72848593    0.0055462435
      5039.30      0.72387660    0.0056290197
      5044.34      0.71943475    0.0055544627
      5049.39      0.71756219    0.0056389390
      5054.43      0.71882883    0.0055637554
      5059.49      0.71908290    0.0056499331
      5064.55      0.72530810    0.0055745349
      5069.61      0.73391315    0.0055808562
      5074.68      0.74736199    0.0055869553
      5079.76      0.76186393    0.0055932090
      5084.84      0.78281242    0.0056003102
      5089.92      0.79916948    0.0056068442
      5095.01      0.81465710    0.0056148806
      5100.11      0.82500038    0.0056218072
      5105.21      0.84272137    0.0056312567
      5110.31      0.85765105    0.0056383356
      5115.42      0.87483502    0.0056479951
      5120.54      0.88627759    0.0056559957
      5125.66      0.89896433    0.0056660228
      5130.79      0.91892708    0.0056748758
      5135.92      0.93576809    0.0056858095
      5141.05      0.94622066    0.0056953536
      5146.20      0.95430551    0.0057059146
      5151.34      0.96465121    0.0056364333
      5156.49      0.96807454    0.0057275408
      5161.65      0.96819612    0.0056572317
      5166.81      0.96771401    0.0057505803
      5171.98      0.97348054    0.0056793949
      5177.15      0.97967770    0.0057745100
      5182.33      0.97439688    0.0057029340
      5187.51      0.97511476    0.0058000530
      5192.70      0.98303736    0.0057272840
      5197.89      0.98369862    0.0057470231
      5203.09      0.98686032    0.0058411024
      5208.29      0.99939043    0.0057716337
      5213.50       1.0167016    0.0058688809
      5218.72       1.0328285    0.0057977787
      5223.93       1.0461035    0.0058203516
      5229.16       1.0607348    0.0058256800
      5234.39       1.0712341    0.0058467302
      5239.62       1.0831201    0.0058547304
      5244.86       1.0890509    0.0058747789
      5250.11       1.0976750    0.0058990718
      5255.36       1.1038870    0.0059039138
      5260.61       1.1072080    0.0059270484
      5265.87       1.1154814    0.0058611144
      5271.14       1.1264970    0.0059561366
      5276.41       1.1495671    0.0059815477
      5281.69       1.1631012    0.0059881224
      5286.97       1.1837101    0.0060112024
      5292.26       1.1953711    0.0059468848
      5297.55       1.2059915    0.0060431976
      5302.85       1.2048593    0.0060680034
      5308.15       1.2132438    0.0060017133
      5313.46       1.2265610    0.0061003670
      5318.77       1.2431303    0.0060380241
      5324.09       1.2616984    0.0060587250
      5329.42       1.2738120    0.0061593374
      5334.75       1.2812732    0.0060958553
      5340.08       1.2784489    0.0061175286
      5345.42       1.2711113    0.0062196956
      5350.77       1.2526466    0.0061558628
      5356.12       1.2276472    0.0061777804
      5361.48       1.2083405    0.0062814368
      5366.83       1.1866464    0.0062174850
      5372.20       1.1700248    0.0062397803
      5377.58       1.1558306    0.0063443048
      5382.95       1.1376033    0.0062809386
      5388.34       1.1209945    0.0063033965
      5393.72       1.1031878    0.0063288176
      5399.12       1.0870947    0.0063464122
      5404.52       1.0824732    0.0063686474
      5409.92       1.0794218    0.0063937958
      5415.33       1.0909418    0.0063283438
      5420.75       1.1161288    0.0064358751
      5426.17       1.1557536    0.0064600478
      5431.60       1.1965712    0.0063933324
      5437.03       1.2477601    0.0065048499
      5442.47       1.3015528    0.0065282995
      5447.91       1.3622681    0.0065543502
      5453.36       1.4245699    0.0064871803
      5458.81       1.4710340    0.0065991004
      5464.27       1.5126464    0.0066240759
      5469.73       1.5472426    0.0066507398
      5475.20       1.5691089    0.0065823962
      5480.68       1.5728078    0.0066114913
      5486.16       1.5668786    0.0067217572
      5491.65       1.5476256    0.0066510784
      5497.14       1.5219125    0.0066789473
      5502.64       1.4910427    0.0067084489
      5508.14       1.4505765    0.0068213038
      5513.65       1.4151233    0.0067490076
      5519.16       1.3832718    0.0067768939
      5524.68       1.3585278    0.0068061658
      5530.20       1.3257796    0.0068366867
      5535.73       1.2969911    0.0068679349
      5541.27       1.2744993    0.0068763412
      5546.81       1.2535155    0.0069048694
      5552.36       1.2468841    0.0069344481
      5557.91       1.2468108    0.0069650059
      5563.47       1.2513582    0.0068958001
      5569.04       1.2609096    0.0070054695
      5574.60       1.2829138    0.0070338584
      5580.18       1.3045968    0.0070633325
      5585.76       1.3291785    0.0070938620
      5591.35       1.3546877    0.0070251274
      5596.94       1.3776362    0.0070522783
      5602.53       1.3997008    0.0088513312
      5608.14       1.4043746    0.0086977381
      5613.75       1.3921755    0.0087346018
      5619.36       1.3751319    0.0087743304
      5624.98       1.3436121    0.0088169659
      5630.60       1.2810486    0.0090144214
      5636.23       1.2042827    0.0090478700
      5641.87       1.1167144    0.0088892921
      5647.51       1.0405659    0.0089264303
      5653.16       1.0059812    0.0089635777
      5658.82       1.0189739    0.0090012539
      5664.47       1.0509382    0.0090415199
      5670.14       1.0650529    0.0090828092
      5675.81       1.0465934    0.0091239415
      5681.48      0.99105438    0.0091183169
      5687.17      0.90853798    0.0091529846
      5692.85      0.84227813    0.0091878062
      5698.55      0.81335207    0.0092234716
      5704.25      0.80680746    0.0092610685
      5709.95      0.82151259    0.0092985438
      5715.66      0.82492688    0.0093356714
      5721.38      0.81609718    0.0093723835
      5727.10      0.81683155    0.0094116978
      5732.83      0.82449319    0.0076982690
      5738.56      0.83332518    0.0077257422
      5744.30      0.84882967    0.0077534670
      5750.04      0.87420301    0.0077809434
      5755.79      0.89937317    0.0078085481
      5761.55      0.93388505    0.0078362414
      5767.31      0.97270598    0.0078640819
      5773.08       1.0141098    0.0078916994
      5778.85       1.0584667    0.0078112351
      5784.63       1.0987537    0.0078385977
      5790.41       1.1367213    0.0078658532
      5796.21       1.1818170    0.0078930498
      5802.00       1.2153571    0.0079208782
      5807.81       1.2558509    0.0079494089
      5813.61       1.2991187    0.0079792611
      5819.43       1.3484319    0.0080122368
      5825.25       1.3894225    0.0080507252
      5831.07       1.4233778    0.0080932903
      5836.90       1.4473542    0.0081375623
      5842.74       1.4732090    0.0081767969
      5848.58       1.4896274    0.0082073266
      5854.43       1.4954321    0.0082312180
      5860.29       1.4959199    0.0082551051
      5866.15       1.4958952    0.0082789433
      5872.01       1.5040004    0.0083006668
      5877.89       1.5020918    0.0083221271
      5883.76       1.4992441    0.0083469866
      5889.65       1.5013905    0.0083736530
      5895.54       1.5170713    0.0084013424
      5901.43       1.5279411    0.0083290969
      5907.34       1.5347731    0.0083474283
      5913.24       1.5366220    0.0083636293
      5919.16       1.5363903    0.0083822856
      5925.08       1.5381564    0.0084031013
      5931.00       1.5359699    0.0084225331
      5936.93       1.5204289    0.0084407547
      5942.87       1.4992984    0.0084589392
      5948.81       1.4845682    0.0084776290
      5954.76       1.4602390    0.0084968463
      5960.72       1.4262732    0.0086198488
      5966.68       1.3990639    0.0085403948
      5972.64       1.3719140    0.0085604489
      5978.62       1.3488193    0.0085815254
      5984.60       1.3229379    0.0086035437
      5990.58       1.2980447    0.0086253744
      5996.57       1.2680642    0.0086472678
      6002.57       1.2468005    0.0086695217
      6008.57       1.2202862    0.0061442453
      6014.58       1.2042371    0.0061589034
      6020.60       1.1890831    0.0061735399
      6026.62       1.1761316    0.0061534556
      6032.65       1.1647367    0.0061679486
      6038.68       1.1523720    0.0061824459
      6044.72       1.1403294    0.0061967384
      6050.76       1.1332335    0.0062110246
      6056.81       1.1244222    0.0062252703
      6062.87       1.1149658    0.0062028526
      6068.93       1.1075416    0.0064136067
      6075.00       1.0981755    0.0062985990
      6081.08       1.0863408    0.0062808974
      6087.16       1.0771691    0.0063144023
      6093.25       1.0671921    0.0063503284
      6099.34       1.0604354    0.0064279646
      6105.44       1.0567873    0.0065089026
      6111.54       1.0588592    0.0066256431
      6117.66       1.0688794    0.0066546240
      6123.78       1.0824482    0.0066950996
      6129.90       1.1056378    0.0067030402
      6136.03       1.1292302    0.0066865728
      6142.17       1.1528105    0.0066151537
      6148.31       1.1721451    0.0065658124
      6154.46       1.1924524    0.0065387780
      6160.61       1.2121943    0.0064826742
      6166.77       1.2274245    0.0064121866
      6172.94       1.2381360    0.0063947296
      6179.11       1.2475277    0.0064223863
      6185.29       1.2545469    0.0066415029
      6191.48       1.2568248    0.0064385752
      6197.67       1.2549148    0.0064571447
      6203.87       1.2496009    0.0064787455
      6210.07       1.2433580    0.0064671243
      6216.28       1.2366841    0.0065311311
      6222.50       1.2297243    0.0065529559
      6228.72       1.2247574    0.0065360712
      6234.95       1.2192310    0.0065499381
      6241.19       1.2149534    0.0066007292
      6247.42       1.2142545    0.0066052420
      6253.67       1.2103420    0.0065654389
      6259.93       1.2005072    0.0065609294
      6266.19       1.1886584    0.0065939762
      6272.46       1.1795501    0.0065494187
      6278.73       1.1700423    0.0065465237
      6285.01       1.1590150    0.0065470541
      6291.29       1.1475948    0.0065474100
      6297.58       1.1381001    0.0065441956
      6303.88       1.1283942    0.0065066699
      6310.19       1.1187921    0.0065070694
      6316.50       1.1097784    0.0065448615
      6322.81       1.1037529    0.0065081375
      6329.14       1.0998602    0.0065089730
      6335.47       1.0964081    0.0065474552
      6341.80       1.0944318    0.0065114260
      6348.14       1.0939421    0.0065129235
      6354.49       1.0934327    0.0064772830
      6360.85       1.0968488    0.0065169093
      6367.21       1.0986984    0.0065186511
      6373.57       1.0965015    0.0064824404
      6379.95       1.0910951    0.0065224931
      6386.33       1.0871471    0.0064887681
      6392.72       1.0846360    0.0064924073
      6399.11       1.0876604    0.0065009189
      6405.51       1.0927343    0.0065045392
      6411.92       1.0965726    0.0065073170
      6418.32       1.1016409    0.0065116008
      6424.74       1.1059539    0.0065126371
      6431.17       1.1105095    0.0065149891
      6437.60       1.1165957    0.0065125179
      6444.04       1.1241093    0.0064725448
      6450.48       1.1329705    0.0065039901
      6456.94       1.1471404    0.0064611189
      6463.39       1.1654447    0.0064551373
      6469.85       1.1834950    0.0064480440
      6476.33       1.2035079    0.0064423889
      6482.80       1.2257399    0.0064361948
      6489.28       1.2430780    0.0064296297
      6495.77       1.2574537    0.0064228386
      6502.27       1.2731315    0.0064121319
      6508.77       1.2881919    0.0064033630
      6515.28       1.3025195    0.0063919660
      6521.80       1.3168488    0.0063465747
      6528.32       1.3276987    0.0063359518
      6534.85       1.3330709    0.0063232827
      6541.38       1.3342323    0.0063114841
      6547.92       1.3315560    0.0062998617
      6554.47       1.3290832    0.0062888749
      6561.03       1.3220034    0.0062775526
      6567.59       1.3184204    0.0062661321
      6574.16       1.3164482    0.0062542595
      6580.73       1.3169821    0.0062422851
      6587.31       1.3211735    0.0062293031
      6593.90       1.3258079    0.0062164955
      6600.50       1.3338053    0.0061693550
      6607.10       1.3408842    0.0061538082
      6613.70       1.3428571    0.0061410893
      6620.32       1.3426680    0.0061244168
      6626.94       1.3388300    0.0061109823
      6633.57       1.3281069    0.0060929978
      6640.20       1.3145203    0.0060431264
      6646.84       1.2972811    0.0060596048
      6653.49       1.2750418    0.0060086579
      6660.14       1.2511873    0.0060241230
      6666.80       1.2253351    0.0060035635
      6673.47       1.2050608    0.0059517802
      6680.14       1.1862524    0.0059646546
      6686.82       1.1697593    0.0059117545
      6693.51       1.1574279    0.0059236945
      6700.20       1.1526122    0.0058696493
      6706.90       1.1539688    0.0058463209
      6713.61       1.1604462    0.0058254665
      6720.32       1.1689619    0.0058006159
      6727.05       1.1755022    0.0057460126
      6733.77       1.1821215    0.0057536733
      6740.51       1.1855687    0.0057359678
      6747.25       1.1851158    0.0057054116
      6754.00       1.1817484    0.0057197770
      6760.75       1.1739204    0.0056565542
      6767.51       1.1669620    0.0056336543
      6774.28       1.1548658    0.0056360926
      6781.05       1.1396613    0.0056583087
      6787.84       1.1224473    0.0057005965
      6794.62       1.1039519    0.0057452519
      6801.42       1.0880612    0.0058065449
      6808.22       1.0689513    0.0058636339
      6815.03       1.0492273    0.0058673401
      6821.85       1.0299679    0.0059137331
      6828.67       1.0111236    0.0058617164
      6835.50      0.99271342    0.0058100643
      6842.33      0.97705240    0.0057267354
      6849.17      0.95962707    0.0056422958
      6856.02      0.94369107    0.0055297280
      6862.88      0.93226006    0.0054199114
      6869.74      0.92578589    0.0053066846
      6876.61      0.92232639    0.0052651877
      6883.49      0.92079275    0.0051887702
      6890.37      0.92243343    0.0050862994
      6897.27      0.93839841    0.0050145786
      6904.16      0.95605630    0.0049848640
      6911.07      0.97314790    0.0049033266
      6917.98      0.99193986    0.0048446162
      6924.89       1.0102012    0.0047894799
      6931.82       1.0289950    0.0047174707
      6938.75       1.0467164    0.0046965191
      6945.69       1.0602965    0.0046461433
      6952.64       1.0716075    0.0045951129
      6959.59       1.0813198    0.0045228022
      6966.55       1.0881205    0.0044679177
      6973.52       1.0958757    0.0043929057
      6980.49       1.0975755    0.0042897253
      6987.47       1.0952194    0.0042152995
      6994.46       1.0951390    0.0041161319
      7001.46       1.0877371    0.0040192379
      7008.46       1.0797736    0.0039240714
      7015.46       1.0691926    0.0038407677
      7022.48       1.0560817    0.0037493796
      7029.51       1.0429187    0.0036633925
      7036.53       1.0333947    0.0036023511
      7043.57       1.0253410    0.0035195089
      7050.62       1.0149708    0.0034359780
      7057.66       1.0032466    0.0033532854
      7064.72      0.98688333    0.0032734020
      7071.79      0.96989792    0.0032187436
      7078.86      0.95477588    0.0031563936
      7085.94      0.94641402    0.0030935526
      7093.03      0.93539229    0.0030393711
      7100.12      0.92431396    0.0029795528
      7107.22      0.91283203    0.0029317415
      7114.33      0.90247624    0.0028671213
      7121.44      0.89751829    0.0028028333
      7128.56      0.88955776    0.0027382606
      7135.69      0.88832011    0.0026764592
      7142.83      0.89029485    0.0026176821
      7149.97      0.89233162    0.0025749926
      7157.12      0.89893232    0.0025217861
      7164.28      0.90675756    0.0024723762
      7171.44      0.92062549    0.0024278136
      7178.62      0.93357544    0.0023825773
      7185.80      0.94761072    0.0023464442
      7192.98      0.96374038    0.0023135631
      7200.17      0.97819088    0.0022832670
      7207.38      0.99084979    0.0022554760
      7214.58       1.0035399    0.0022302926
      7221.80       1.0142220    0.0022072819
      7229.02       1.0224085    0.0021855807
      7236.25       1.0287316    0.0021712438
      7243.49       1.0365025    0.0021881898
      7250.73       1.0446453    0.0022167147
      7257.98       1.0498719    0.0022505838
      7265.24       1.0555371    0.0022915060
      7272.51       1.0585927    0.0023420609
      7279.78       1.0601690    0.0024063225
      7287.06       1.0619858    0.0024911517
      7294.35       1.0631819    0.0026054607
      7301.64       1.0622539    0.0027593292
      7308.94       1.0588529    0.0029646403
      7316.25       1.0509753    0.0032328639
      7323.57       1.0426977    0.0035805096
      7330.89       1.0339441    0.0040313860
      7338.22       1.0250113    0.0046108794
      7345.56       1.0173857    0.0053503118
      7352.91       1.0126705    0.0062867825
