# starting wavelength =        3359.3400
# ending wavelength =        7168.4700
# O2 telluric scale =        0
# O2 telluric shift =        0
# H2O telluric scale =        0
# H2O telluric shift =        0
      3361.71       1.1757162      0.11930028
      3365.07       1.1604049      0.10382985
      3368.44       1.1473130     0.089289221
      3371.81       1.1379536     0.077751814
      3375.18       1.1421233     0.068672507
      3378.56       1.1589407     0.061578676
      3381.94       1.1791294     0.055120813
      3385.32       1.1952431     0.051069437
      3388.70       1.2223580     0.047926605
      3392.09       1.2342154     0.045479607
      3395.48       1.2594529     0.043558706
      3398.88       1.2774402     0.042102023
      3402.28       1.3028557     0.040776311
      3405.68       1.3155084     0.039690140
      3409.09       1.3251930     0.038785344
      3412.49       1.3221220     0.037754543
      3415.91       1.3145320     0.037110099
      3419.32       1.3211674     0.036551265
      3422.74       1.3211164     0.036226192
      3426.17       1.3145472     0.036026253
      3429.59       1.3257807     0.035878787
      3433.02       1.3494950     0.035911923
      3436.45       1.3515789     0.035773516
      3439.89       1.3423647     0.035565628
      3443.33       1.3513095     0.035426363
      3446.78       1.3446679     0.035456689
      3450.22       1.3426950     0.035494161
      3453.67       1.3391388     0.035113495
      3457.13       1.3655009     0.035148552
      3460.58       1.3464101     0.035186568
      3464.04       1.3339638     0.035042732
      3467.51       1.3248480     0.034844681
      3470.98       1.3096951     0.034700363
      3474.45       1.2999199     0.034740834
      3477.92       1.3012302     0.034779053
      3481.40       1.2982970     0.034398987
      3484.88       1.3065668     0.034437985
      3488.37       1.2938507     0.034479750
      3491.86       1.3219101     0.034343566
      3495.35       1.3263710     0.034138048
      3498.84       1.3368974     0.034001636
      3502.34       1.3312616     0.034039097
      3505.84       1.3246934     0.033843925
      3509.35       1.3095750     0.033700311
      3512.86       1.3201461     0.033747468
      3516.37       1.3139558     0.033790853
      3519.89       1.3224635     0.033409643
      3523.41       1.2965912     0.033452865
      3526.93       1.2867585     0.033503046
      3530.46       1.2733025     0.033117355
      3533.99       1.2694425     0.033166189
      3537.53       1.2661389     0.033214960
      3541.06       1.2500622     0.033076371
      3544.60       1.2407450     0.032880266
      3548.15       1.2205874     0.032932494
      3551.70       1.2184068     0.032984392
      3555.25       1.2212456     0.032595799
      3558.80       1.2058838     0.032647026
      3562.36       1.2221321     0.032703325
      3565.92       1.2402940     0.032312780
      3569.49       1.2303612     0.032368446
      3573.06       1.2359741     0.032424048
      3576.64       1.2383131     0.032286096
      3580.21       1.2415992     0.032090689
      3583.79       1.2415748     0.032152674
      3587.38       1.2386854     0.032212453
      3590.96       1.2251444     0.031822175
      3594.55       1.2213825     0.031880565
      3598.15       1.2082865     0.031949328
      3601.75       1.1915213     0.031751469
      3605.35       1.1879139     0.031617842
      3608.96       1.1818030     0.031676859
      3612.56       1.1768831     0.031484886
      3616.18       1.1800802     0.031551306
      3619.79       1.1850122     0.031420657
      3623.41       1.1642130     0.031219694
      3627.04       1.1642995     0.031288357
      3630.66       1.1516851     0.031364991
      3634.29       1.1423768     0.030957661
      3637.93       1.1384664     0.031035772
      3641.57       1.1446166     0.031107028
      3645.21       1.1553191     0.030919357
      3648.86       1.1550731     0.030778666
      3652.50       1.1639504     0.030588800
      3656.16       1.1760870     0.030667906
      3659.81       1.1751474     0.030746052
      3663.47       1.1737590     0.030560278
      3667.14       1.1673737     0.030414225
      3670.80       1.1553400     0.030505918
      3674.48       1.1449875     0.030306467
      3678.15       1.1222549     0.030391286
      3681.83       1.1042473     0.030485455
      3685.51       1.0917004     0.030060808
      3689.20       1.0734084     0.030159137
      3692.88       1.0622341     0.029963571
      3696.58       1.0275537     0.030057450
      3700.27       1.0325534     0.030158309
      3703.98       1.0375834     0.029964694
      3707.68       1.0255860     0.029832976
      3711.39       1.0282466     0.029923751
      3715.10       1.0459539     0.029733449
      3718.81       1.0749304     0.029841892
      3722.53       1.1024040     0.029646494
      3726.26       1.1313715     0.029754727
      3729.98       1.1446570     0.029610582
      3733.71       1.1654243     0.029417322
      3737.45       1.1823009     0.029536911
      3741.18       1.2010952     0.029340608
      3744.93       1.2263697     0.029455967
      3748.67       1.2417123     0.029018915
      3752.42       1.2575401     0.028827410
      3756.17       1.2580636     0.028702566
      3759.93       1.2618739     0.028506696
      3763.69       1.2636258     0.028318235
      3767.45       1.2651722     0.028192208
      3771.22       1.2546673     0.027999140
      3774.99       1.2823966     0.027813066
      3778.77       1.2813084     0.027686791
      3782.54       1.2728757     0.027496223
      3786.33       1.2824978     0.027078217
      3790.11       1.2943303     0.027185921
      3793.90       1.3134100     0.026998004
      3797.70       1.3196304     0.026588521
      3801.50       1.3215873     0.026416813
      3805.30       1.3345172     0.026513260
      3809.10       1.3373242     0.026110436
      3812.91       1.3426133     0.025939540
      3816.73       1.3413232     0.026033728
      3820.54       1.3392304     0.025636005
      3824.36       1.3479880     0.025465526
      3828.19       1.3390093     0.025300044
      3832.02       1.3428936     0.025165612
      3835.85       1.3536768     0.024995571
      3839.68       1.3526172     0.024829686
      3843.52       1.3512600     0.024699278
      3847.37       1.3603317     0.024529619
      3851.22       1.3431143     0.024365510
      3855.07       1.3393511     0.024000651
      3858.92       1.3394879     0.024075702
      3862.78       1.3309490     0.023913510
      3866.64       1.3345921     0.023559010
      3870.51       1.3289120     0.023393321
      3874.38       1.3316228     0.023466083
      3878.26       1.3381052     0.023306338
      3882.13       1.3283534     0.022956119
      3886.02       1.3231790     0.022793684
      3889.90       1.3243589     0.022863456
      3893.79       1.3350458     0.022525144
      3897.69       1.3280109     0.022361558
      3901.59       1.3202766     0.022201916
      3905.49       1.3302305     0.022046515
      3909.39       1.3397721     0.021939172
      3913.30       1.3374020     0.021781627
      3917.22       1.3422492     0.021627540
      3921.13       1.3353307     0.021301069
      3925.06       1.3281624     0.021371203
      3928.98       1.3454613     0.021215731
      3932.91       1.3518728     0.021062952
      3936.84       1.3596681     0.020742789
      3940.78       1.3698811     0.020596238
      3944.72       1.3647050     0.020657819
      3948.67       1.3535191     0.020506682
      3952.61       1.3399464     0.020191837
      3956.57       1.3290221     0.020046600
      3960.52       1.3181053     0.019904313
      3964.48       1.3144694     0.019960694
      3968.45       1.2967310     0.019654679
      3972.42       1.2739218     0.019513224
      3976.39       1.2617304     0.019373492
      3980.37       1.2576710     0.019235286
      3984.35       1.2648225     0.019098893
      3988.33       1.2544360     0.018990679
      3992.32       1.2487867     0.018851343
      3996.31       1.2522927     0.018713721
      4000.31       1.2636287     0.018577779
      4004.31       1.2782053     0.018296956
      4008.31       1.2832636     0.018159196
      4012.32       1.2866204     0.018023819
      4016.33       1.2819039     0.018067169
      4020.35       1.2644406     0.017934899
      4024.37       1.2598690     0.017667098
      4028.40       1.2664178     0.017534756
      4032.42       1.2615481     0.017403208
      4036.46       1.2545910     0.017273025
      4040.50       1.2448182     0.017144126
      4044.54       1.2353429     0.017058074
      4048.58       1.2259483     0.016927161
      4052.63       1.2260586     0.016797550
      4056.68       1.2119153     0.016669217
      4060.74       1.2121586     0.016541292
      4064.80       1.2065877     0.016415238
      4068.86       1.1999678     0.016165114
      4072.93       1.1912090     0.016043283
      4077.01       1.1869675     0.015922920
      4081.08       1.1767751     0.015959571
      4085.17       1.1740061     0.015837446
      4089.25       1.1735861     0.015715891
      4093.34       1.1732110     0.015475051
      4097.43       1.1674952     0.015356251
      4101.53       1.1688853     0.015238423
      4105.63       1.1718742     0.015121456
      4109.74       1.1728167     0.015005331
      4113.85       1.1818334     0.014889846
      4117.96       1.1810483     0.014774985
      4122.08       1.1752894     0.014661527
      4126.20       1.1731104     0.014574497
      4130.33       1.1755498     0.014461096
      4134.46       1.1715863     0.014348950
      4138.59       1.1751917     0.014238055
      4142.73       1.1756208     0.014127371
      4146.88       1.1716471     0.014017385
      4151.02       1.1713403     0.013908094
      4155.18       1.1709486     0.013799442
      4159.33       1.1723437     0.013591459
      4163.49       1.1777122     0.013483465
      4167.65       1.1775771     0.013376208
      4171.82       1.1804186     0.013269192
      4175.99       1.1777557     0.013163118
      4180.17       1.1766402     0.013058212
      4184.35       1.1749913     0.012954397
      4188.54       1.1784463     0.012851620
      4192.72       1.1794094     0.012749856
      4196.92       1.1659703     0.012648851
      4201.11       1.1608697     0.012548133
      4205.31       1.1556313     0.012448019
      4209.52       1.1542519     0.012257640
      4213.73       1.1520589     0.012159357
      4217.94       1.1527897     0.012061700
      4222.16       1.1492398     0.011964605
      4226.38       1.1456751     0.011867680
      4230.61       1.1455510     0.011771516
      4234.84       1.1358350     0.011676310
      4239.08       1.1385568     0.011582012
      4243.32       1.1439119     0.011488553
      4247.56       1.1553510     0.011395925
      4251.81       1.1617086     0.011304149
      4256.06       1.1637270     0.011212746
      4260.32       1.1679568     0.011121717
      4264.58       1.1745457     0.011031212
      4268.84       1.1771019     0.010941203
      4273.11       1.1807518     0.010851757
      4277.38       1.1788830     0.010762619
      4281.66       1.1807062     0.010674016
      4285.94       1.1808160     0.010586102
      4290.23       1.1893669     0.010499050
      4294.52       1.1919689     0.010412822
      4298.81       1.1980298     0.010327411
      4303.11       1.1956268     0.010242775
      4307.42       1.1956940     0.010158940
      4311.72       1.2033162     0.010075525
      4316.04       1.1970880    0.0099925040
      4320.35       1.2025610    0.0098171900
      4324.67       1.2085803    0.0097360516
      4329.00       1.2154622    0.0096554489
      4333.33       1.2141066    0.0095752393
      4337.66       1.2181840    0.0094954795
      4342.00       1.2268752    0.0094166274
      4346.34       1.2286632    0.0093386357
      4350.69       1.2287307    0.0092614688
      4355.04       1.2318108    0.0091851071
      4359.39       1.2311371    0.0091095539
      4363.75       1.2295506    0.0090346783
      4368.12       1.2301758    0.0088755816
      4372.48       1.2334828    0.0088014924
      4376.86       1.2359380    0.0087279307
      4381.23       1.2418811    0.0086550055
      4385.61       1.2411889    0.0085826710
      4390.00       1.2439007    0.0085106675
      4394.39       1.2481526    0.0084394025
      4398.79       1.2429324    0.0083690223
      4403.18       1.2439562    0.0082994766
      4407.59       1.2436592    0.0082129478
      4412.00       1.2458405    0.0081440429
      4416.41       1.2469141    0.0080759651
      4420.82       1.2499028    0.0080085625
      4425.25       1.2461169    0.0079415976
      4429.67       1.2401175    0.0078752974
      4434.10       1.2392153    0.0078095790
      4438.54       1.2378628    0.0076739298
      4442.97       1.2344420    0.0076099569
      4447.42       1.2278852    0.0075467104
      4451.86       1.2238777    0.0074843574
      4456.32       1.2240626    0.0074717437
      4460.77       1.2280896    0.0074093099
      4465.24       1.2317386    0.0072807728
      4469.70       1.2402425    0.0072206057
      4474.17       1.2466729    0.0071612851
      4478.65       1.2505561    0.0071025771
      4483.12       1.2567633    0.0070444948
      4487.61       1.2600309    0.0069216006
      4492.09       1.2693216    0.0068640176
      4496.59       1.2729813    0.0068534205
      4501.08       1.2752156    0.0067966815
      4505.58       1.2755395    0.0067408991
      4510.09       1.2716758    0.0066860453
      4514.60       1.2718671    0.0065699982
      4519.12       1.2682933    0.0065159138
      4523.63       1.2658361    0.0064627051
      4528.16       1.2572728    0.0064541846
      4532.69       1.2576471    0.0063445504
      4537.22       1.2527980    0.0062921870
      4541.76       1.2523802    0.0062405708
      4546.30       1.2513621    0.0061897447
      4550.85       1.2561206    0.0061397134
      4555.40       1.2526227    0.0060767340
      4559.95       1.2576080    0.0060267931
      4564.51       1.2503134    0.0059777636
      4569.08       1.2479251    0.0059297487
      4573.65       1.2477903    0.0058307563
      4578.22       1.2516383    0.0057849908
      4582.80       1.2552390    0.0057765473
      4587.38       1.2570288    0.0057306514
      4591.97       1.2515910    0.0056353647
      4596.56       1.2477508    0.0055914215
      4601.16       1.2407107    0.0055483140
      4605.76       1.2279054    0.0054911016
      4610.37       1.2177272    0.0054479233
      4614.98       1.2146571    0.0054057799
      4619.59       1.2068755    0.0053646345
      4624.21       1.2014083    0.0053103093
      4628.84       1.1936632    0.0052695762
      4633.47       1.1845831    0.0052298216
      4638.10       1.1771522    0.0051446067
      4642.74       1.1653259    0.0051054888
      4647.38       1.1661108    0.0051008737
      4652.03       1.1438550    0.0050631347
      4656.68       1.1330108    0.0049808936
      4661.34       1.1258898    0.0049435874
      4666.00       1.1190985    0.0049398765
      4670.67       1.1170280    0.0048608147
      4675.33       1.1114376    0.0048247054
      4680.01       1.1035458    0.0047896077
      4684.69       1.0925981    0.0047461432
      4689.38       1.0778366    0.0047114715
      4694.07       1.0664969    0.0046778229
      4698.76       1.0600411    0.0046368594
      4703.46       1.0547067    0.0046034271
      4708.16       1.0436141    0.0045709540
      4712.87       1.0403484    0.0045012456
      4717.58       1.0354137    0.0044994952
      4722.30       1.0345157    0.0044681312
      4727.03       1.0285300    0.0044007044
      4731.75       1.0216197    0.0043717249
      4736.48       1.0203971    0.0043701264
      4741.22       1.0077492    0.0043051665
      4745.96       1.0026485    0.0042777559
      4750.71      0.99993110    0.0042415957
      4755.46      0.99503208    0.0042146733
      4760.22      0.99238660    0.0041887044
      4764.97      0.98329299    0.0041540802
      4769.74      0.97561103    0.0041284081
      4774.51      0.96703187    0.0040686457
      4779.29      0.96488508    0.0040703739
      4784.07      0.96242672    0.0040461334
      4788.85      0.96415279    0.0039884583
      4793.64      0.96709575    0.0039914195
      4798.43      0.96507986    0.0039360354
      4803.23      0.96334328    0.0039130215
      4808.03      0.97063329    0.0039172926
      4812.84      0.97422073    0.0038636180
      4817.66      0.97508800    0.0038420640
      4822.48      0.97915081    0.0038161532
      4827.30      0.98294077    0.0037949831
      4832.12      0.98200843    0.0037449507
      4836.96      0.98512902    0.0037499250
      4841.79      0.98817591    0.0037304269
      4846.63      0.98613763    0.0037072768
      4851.48      0.98626543    0.0036883611
      4856.33      0.98809828    0.0036418345
      4861.19      0.99355393    0.0036485406
      4866.05       1.0020757    0.0036030553
      4870.92       1.0077810    0.0035871310
      4875.79       1.0108876    0.0035661275
      4880.66       1.0190389    0.0035506273
      4885.55       1.0257941    0.0035584004
      4890.43       1.0269843    0.0035159231
      4895.32       1.0316037    0.0035247738
      4900.22       1.0370731    0.0034833759
      4905.12       1.0420914    0.0034703030
      4910.02       1.0473556    0.0034528430
      4914.94       1.0489198    0.0034404548
      4919.85       1.0530914    0.0034243137
      4924.77       1.0562846    0.0034126077
      4929.70       1.0567991    0.0033743590
      4934.62       1.0619003    0.0033863381
      4939.56       1.0627755    0.0033491035
      4944.50       1.0610406    0.0033616106
      4949.44       1.0592905    0.0033256548
      4954.39       1.0583145    0.0033388625
      4959.35       1.0552080    0.0033040761
      4964.31       1.0471595    0.0032939806
      4969.27       1.0428623    0.0032846429
      4974.24       1.0384672    0.0032756543
      4979.22       1.0360701    0.0032670853
      4984.20       1.0308105    0.0032363820
      4989.18       1.0292672    0.0032514332
      4994.17       1.0334668    0.0032221592
      4999.16       1.0384535    0.0032385809
      5004.16       1.0432330    0.0032112756
      5009.17       1.0537467    0.0032294860
      5014.18       1.0666170    0.0032041507
      5019.19       1.0783325    0.0032017062
      5024.21       1.0871964    0.0032003429
      5029.23       1.1071637    0.0031992757
      5034.26       1.1136895    0.0031989379
      5039.30       1.1199801    0.0031983684
      5044.34       1.1273985    0.0031983605
      5049.39       1.1301150    0.0031976526
      5054.43       1.1350108    0.0031748695
      5059.49       1.1333619    0.0031972271
      5064.55       1.1358732    0.0031745185
      5069.61       1.1309919    0.0031972577
      5074.68       1.1320123    0.0031973073
      5079.76       1.1267230    0.0031750712
      5084.84       1.1258838    0.0031973629
      5089.92       1.1259555    0.0031749724
      5095.01       1.1273583    0.0031975278
      5100.11       1.1263452    0.0031747609
      5105.21       1.1308429    0.0031753186
      5110.31       1.1288349    0.0031743803
      5115.42       1.1267215    0.0031747739
      5120.54       1.1273672    0.0031757211
      5125.66       1.1318584    0.0031744608
      5130.79       1.1305302    0.0031753369
      5135.92       1.1333733    0.0031535754
      5141.05       1.1344033    0.0031754488
      5146.20       1.1401793    0.0031543324
      5151.34       1.1529658    0.0031549553
      5156.49       1.1583696    0.0031773080
      5161.65       1.1677833    0.0031566252
      5166.81       1.1743211    0.0031587878
      5171.98       1.1852146    0.0031607324
      5177.15       1.1834138    0.0031641892
      5182.33       1.2007457    0.0031690728
      5187.51       1.2127477    0.0031729421
      5192.70       1.2235748    0.0031792252
      5197.89       1.2282278    0.0031637781
      5203.09       1.2316686    0.0031923718
      5208.29       1.2314848    0.0032005798
      5213.50       1.2286857    0.0031861407
      5218.72       1.2278304    0.0032157919
      5223.93       1.2235705    0.0032250170
      5229.16       1.2192372    0.0032114127
      5234.39       1.2119764    0.0032221557
      5239.62       1.2039980    0.0032529587
      5244.86       1.2005190    0.0032400628
      5250.11       1.1936708    0.0032517866
      5255.36       1.1811330    0.0032596093
      5260.61       1.1708224    0.0032716022
      5265.87       1.1652914    0.0032840205
      5271.14       1.1590760    0.0032727114
      5276.41       1.1531622    0.0033051888
      5281.69       1.1616733    0.0033184158
      5286.97       1.1592833    0.0033322413
      5292.26       1.1617900    0.0033214173
      5297.55       1.1632316    0.0033554357
      5302.85       1.1655461    0.0033700022
      5308.15       1.1655300    0.0033601474
      5313.46       1.1691125    0.0033748451
      5318.77       1.1689931    0.0033900032
      5324.09       1.1687300    0.0034012931
      5329.42       1.1656372    0.0034164340
      5334.75       1.1595449    0.0034320965
      5340.08       1.1518312    0.0034482616
      5345.42       1.1437549    0.0034394159
      5350.77       1.1341357    0.0034767590
      5356.12       1.1246423    0.0034935244
      5361.48       1.1171487    0.0034848514
      5366.83       1.1083387    0.0035024234
      5372.20       1.1010298    0.0035203808
      5377.58       1.0908487    0.0035589304
      5382.95       1.0798306    0.0035503983
      5388.34       1.0709309    0.0035686330
      5393.72       1.0648565    0.0035872823
      5399.12       1.0554008    0.0036063306
      5404.52       1.0454664    0.0035987318
      5409.92       1.0380549    0.0036384499
      5415.33       1.0303469    0.0036579281
      5420.75       1.0190156    0.0036778105
      5426.17       1.0079993    0.0036980598
      5431.60      0.99620452    0.0036908056
      5437.03      0.98669067    0.0037106992
      5442.47      0.97776975    0.0037309325
      5447.91      0.96694933    0.0037729116
      5453.36      0.96016062    0.0037668272
      5458.81      0.95432474    0.0037873877
      5464.27      0.94899651    0.0038082461
      5469.73      0.94343811    0.0038293901
      5475.20      0.94058418    0.0038508675
      5480.68      0.93023108    0.0038726594
      5486.16      0.92363152    0.0038660698
      5491.65      0.91902760    0.0038879564
      5497.14      0.91084326    0.0039323479
      5502.64      0.90075954    0.0039543987
      5508.14      0.89161829    0.0039766952
      5513.65      0.88208935    0.0039992230
      5519.16      0.86886685    0.0039925920
      5524.68      0.85527057    0.0040153950
      5530.20      0.84240416    0.0040384307
      5535.73      0.82987329    0.0040617185
      5541.27      0.81805717    0.0040849666
      5546.81      0.80699264    0.0041083476
      5552.36      0.79562168    0.0041319294
      5557.91      0.78806294    0.0041252054
      5563.47      0.78353312    0.0041486329
      5569.04      0.77836279    0.0041722209
      5574.60      0.77409006    0.0041959701
      5580.18      0.76922171    0.0042432177
      5585.76      0.77025189    0.0042674353
      5591.35      0.77165635    0.0042918455
      5596.94      0.77676917    0.0043161827
      5602.53      0.78359092    0.0043103018
      5608.14      0.79347208    0.0043344346
      5613.75      0.80449339    0.0043587205
      5619.36      0.81276435    0.0043832100
      5624.98      0.82309345    0.0044080365
      5630.60      0.83757929    0.0044332246
      5636.23      0.85593259    0.0044584594
      5641.87      0.86621692    0.0044836452
      5647.51      0.87957598    0.0045091761
      5653.16      0.88802546    0.0045351723
      5658.82      0.90134102    0.0045624965
      5664.47      0.90941075    0.0045912286
      5670.14      0.91629102    0.0046204653
      5675.81      0.92163914    0.0046499415
      5681.48      0.92614237    0.0046558947
      5687.17      0.92623372    0.0046519828
      5692.85      0.93297543    0.0046808286
      5698.55      0.93585670    0.0047084179
      5704.25      0.93877441    0.0047353187
      5709.95      0.93910653    0.0047614417
      5715.66      0.94287167    0.0047866461
      5721.38      0.94514079    0.0048110748
      5727.10      0.94698535    0.0048352246
      5732.83      0.95047720    0.0048596879
      5738.56      0.95069414    0.0048844450
      5744.30      0.95204314    0.0049089391
      5750.04      0.94771139    0.0049327473
      5755.79      0.94765409    0.0049559988
      5761.55      0.94411442    0.0049787393
      5767.31      0.95220199    0.0049729419
      5773.08      0.95461465    0.0049951597
      5778.85      0.95301960    0.0050165647
      5784.63      0.95701323    0.0050376476
      5790.41      0.96082139    0.0050598044
      5796.21      0.96323483    0.0050828767
      5802.00      0.96735373    0.0051403253
      5807.81      0.96720213    0.0051625913
      5813.61      0.96666181    0.0051856577
      5819.43      0.96829693    0.0051810888
      5825.25      0.96857865    0.0052044660
      5831.07      0.96983142    0.0052279848
      5836.90      0.96569232    0.0052517407
      5842.74      0.95806464    0.0052757440
      5848.58      0.94871975    0.0052997411
      5854.43      0.94071220    0.0052952421
      5860.29      0.92836592    0.0053191223
      5866.15      0.91550493    0.0053430985
      5872.01      0.90483125    0.0053670295
      5877.89      0.90147799    0.0053910168
      5883.76      0.89104365    0.0054503865
      5889.65      0.87738918    0.0054444235
      5895.54      0.87120261    0.0054677323
      5901.43      0.86775873    0.0054910388
      5907.34      0.86226977    0.0055143489
      5913.24      0.85672326    0.0055376789
      5919.16      0.85472627    0.0055304169
      5925.08      0.85116041    0.0055528579
      5931.00      0.84946647    0.0055753506
      5936.93      0.84804465    0.0056350716
      5942.87      0.84402534    0.0056576081
      5948.81      0.83782971    0.0056492790
      5954.76      0.83368087    0.0056709045
      5960.72      0.82856947    0.0056925421
      5966.68      0.82315115    0.0057142127
      5972.64      0.81790341    0.0057054331
      5978.62      0.81217089    0.0057642355
      5984.60      0.80663831    0.0057851121
      5990.58      0.80013867    0.0058059386
      5996.57      0.79552469    0.0057964310
      6002.57      0.78972436    0.0058194993
      6008.57      0.78387085    0.0058800701
      6014.58      0.78320358    0.0059000117
      6020.60      0.77901208    0.0058888464
      6026.62      0.77508827    0.0059122766
      6032.65      0.76672510    0.0059387452
      6038.68      0.75838615    0.0059758135
      6044.72      0.75217718    0.0060072475
      6050.76      0.74458046    0.0060400633
      6056.81      0.73626832    0.0060730775
      6062.87      0.72641140    0.0060720571
      6068.93      0.71722658    0.0061400158
      6075.00      0.70734511    0.0061641043
      6081.08      0.70166140    0.0061488459
      6087.16      0.70003077    0.0061625245
      6093.25      0.69253195    0.0062113102
      6099.34      0.68797478    0.0061823078
      6105.44      0.68452484    0.0061869907
      6111.54      0.68443027    0.0061932801
      6117.66      0.68143623    0.0062078970
      6123.78      0.68129389    0.0062189542
      6129.90      0.68217835    0.0062276384
      6136.03      0.68405159    0.0062029677
      6142.17      0.68533966    0.0062516534
      6148.31      0.68605593    0.0062622155
      6154.46      0.68946782    0.0062395739
      6160.61      0.69224073    0.0062514562
      6166.77      0.69716583    0.0062660546
      6172.94      0.70143932    0.0062777666
      6179.11      0.70164982    0.0062902713
      6185.29      0.70444131    0.0063056124
      6191.48      0.70419312    0.0063181475
      6197.67      0.70755883    0.0062959707
      6203.87      0.71303246    0.0063462426
      6210.07      0.71703443    0.0063588275
      6216.28      0.71965386    0.0063367217
      6222.50      0.72067129    0.0063890927
      6228.72      0.72272033    0.0063706033
      6234.95      0.72648439    0.0063860116
      6241.19      0.72992829    0.0064062517
      6247.42      0.73019972    0.0064187099
      6253.67      0.73289048    0.0064314020
      6259.93      0.73506364    0.0064479009
      6266.19      0.73668365    0.0064580855
      6272.46      0.74071096    0.0064322721
      6278.73      0.74631437    0.0064764823
      6285.01      0.75075891    0.0064467449
      6291.29      0.74960163    0.0064887129
      6297.58      0.74880171    0.0064574834
      6303.88      0.74811316    0.0064624107
      6310.19      0.74734002    0.0064688933
      6316.50      0.74558686    0.0064738666
      6322.81      0.74413683    0.0064794132
      6329.14      0.74202893    0.0064818074
      6335.47      0.74087747    0.0064474012
      6341.80      0.73815497    0.0064852214
      6348.14      0.74082234    0.0064505171
      6354.49      0.74216999    0.0064885858
      6360.85      0.74367390    0.0064522456
      6367.21      0.74427472    0.0064871800
      6373.57      0.74625034    0.0064506388
      6379.95      0.75122240    0.0064497535
      6386.33      0.75678165    0.0064509167
      6392.72      0.76367467    0.0064498829
      6399.11      0.77065227    0.0064504623
      6405.51      0.77839391    0.0064488971
      6411.92      0.78472951    0.0064485164
      6418.32      0.79313698    0.0064108027
      6424.74      0.80093522    0.0064441222
      6431.17      0.80983985    0.0064057501
      6437.60      0.81143057    0.0064380728
      6444.04      0.81559508    0.0063987974
      6450.48      0.82053036    0.0064297956
      6456.94      0.82504425    0.0063895385
      6463.39      0.82777502    0.0063837747
      6469.85      0.83120545    0.0063779053
      6476.33      0.82977586    0.0063705170
      6482.80      0.83050189    0.0063639185
      6489.28      0.82705818    0.0063553305
      6495.77      0.82452316    0.0063121151
      6502.27      0.82208480    0.0063376307
      6508.77      0.81369229    0.0062930363
      6515.28      0.80513515    0.0063175749
      6521.80      0.80278535    0.0062715713
      6528.32      0.79725052    0.0062594533
      6534.85      0.79252833    0.0062475553
      6541.38      0.78830329    0.0062339421
      6547.92      0.78188205    0.0061870184
      6554.47      0.77773040    0.0062060904
      6561.03      0.77486142    0.0061927904
      6567.59      0.77289243    0.0061601161
      6574.16      0.77182073    0.0061975701
      6580.73      0.77158186    0.0061559372
      6587.31      0.77260460    0.0061280845
      6593.90      0.77785450    0.0061571170
      6600.50      0.77926712    0.0061466200
      6607.10      0.78367532    0.0061914474
      6613.70      0.78486084    0.0062421853
      6620.32      0.78528751    0.0063180767
      6626.94      0.78568304    0.0063987945
      6633.57      0.77941019    0.0064293948
      6640.20      0.77615247    0.0065108180
      6646.84      0.77623417    0.0064912220
      6653.49      0.77012464    0.0064745717
      6660.14      0.76504632    0.0064660956
      6666.80      0.75791263    0.0063490236
      6673.47      0.74777595    0.0062436721
      6680.14      0.73916591    0.0061310702
      6686.82      0.72750579    0.0060440235
      6693.51      0.71408652    0.0059564721
      6700.20      0.70173062    0.0058893939
      6706.90      0.69279584    0.0057883150
      6713.61      0.68327250    0.0057099117
      6720.32      0.68028544    0.0056834348
      6727.05      0.67857128    0.0056020124
      6733.77      0.67518615    0.0055462376
      6740.51      0.67649613    0.0054941122
      6747.25      0.67804849    0.0054550830
      6754.00      0.68095250    0.0054086191
      6760.75      0.67842770    0.0053642109
      6767.51      0.67748030    0.0053203468
      6774.28      0.68146233    0.0052511965
      6781.05      0.68510535    0.0052357381
      6787.84      0.68825827    0.0051847294
      6794.62      0.68799898    0.0050774113
      6801.42      0.68757501    0.0049510371
      6808.22      0.68947589    0.0048787218
      6815.03      0.68837925    0.0047778195
      6821.85      0.68630473    0.0046791974
      6828.67      0.68882233    0.0045823131
      6835.50      0.68693590    0.0045129732
      6842.33      0.68918437    0.0044203505
      6849.17      0.69218674    0.0043339303
      6856.02      0.69699043    0.0042731459
      6862.88      0.70001213    0.0041739233
      6869.74      0.69622227    0.0040886542
      6876.61      0.68949674    0.0040055842
      6883.49      0.68066300    0.0039266810
      6890.37      0.67360904    0.0038765986
      6897.27      0.66425972    0.0038187393
      6904.16      0.65597997    0.0037659230
      6911.07      0.65206596    0.0037075138
      6917.98      0.64648345    0.0036425184
      6924.89      0.64233388    0.0035924370
      6931.82      0.63632378    0.0035207575
      6938.75      0.63414411    0.0034451264
      6945.69      0.62999888    0.0033564728
      6952.64      0.62774328    0.0032766809
      6959.59      0.62580800    0.0031978150
      6966.55      0.62075186    0.0031339011
      6973.52      0.61944823    0.0030492980
      6980.49      0.61610118    0.0029637738
      6987.47      0.61634094    0.0028794261
      6994.46      0.61667216    0.0027975077
      7001.46      0.61626907    0.0027187115
      7008.46      0.61718649    0.0026434939
      7015.46      0.61780780    0.0025721619
      7022.48      0.62088658    0.0025058150
      7029.51      0.62209690    0.0024450351
      7036.53      0.62594619    0.0023895722
      7043.57      0.62791241    0.0023495291
      7050.62      0.63163648    0.0023026211
      7057.66      0.63212669    0.0023190102
      7064.72      0.63121976    0.0023418466
      7071.79      0.63071912    0.0023679002
      7078.86      0.63030267    0.0024076195
      7085.94      0.62924956    0.0024599417
      7093.03      0.62803891    0.0025298016
      7100.12      0.62805381    0.0026248894
      7107.22      0.62755113    0.0027541888
      7114.33      0.62907553    0.0029273571
      7121.44      0.62763428    0.0031548083
      7128.56      0.62659789    0.0034485242
      7135.69      0.62410480    0.0038263671
      7142.83      0.62044379    0.0043108308
      7149.97      0.61603178    0.0049255421
      7157.12      0.61044029    0.0057026692
      7164.28      0.60330125    0.0066744084
