# starting wavelength =        4183.9061
# ending wavelength =        7162.6700
# O2 telluric scale =        0
# O2 telluric shift =        0
# H2O telluric scale =        0
# H2O telluric shift =        0
      4184.35       11.663393       2.6775519
      4188.54       11.437288       2.6517675
      4192.72       9.4308075       2.6349369
      4196.92       8.7545551       2.6182104
      4201.11       8.8455089       2.6015875
      4205.31       7.4474688       2.5850678
      4209.52       7.1618376       2.5686505
      4213.73       6.4624136       2.5523355
      4217.94       5.6200211       2.5227733
      4222.16       5.0423058       2.5066838
      4226.38       4.0045526       2.4906990
      4230.61       4.5676931       2.4668325
      4234.84       5.2426745       2.4511024
      4239.08       4.7234514       2.4354714
      4243.32       3.9624039       3.4291120
      4247.56       3.0892871       3.4072164
      4251.81       2.9427790       3.3854262
      4256.06       3.0574890       3.3636727
      4260.32       2.7442767       3.3419850
      4264.58       4.7358372       3.3205165
      4268.84       4.1056712       3.2992475
      4273.11       4.4749945       3.2781737
      4277.38       3.9855940       3.2572803
      4281.66       3.7513848       3.2365736
      4285.94       2.5872177       3.2160023
      4290.23       4.2522412       2.2551307
      4294.52       4.2523323       2.2291071
      4298.81       4.0794347       2.2148452
      4303.11       4.0833347       2.1937327
      4307.42       4.3352488       2.1796980
      4311.72       4.2822536       2.1657558
      4316.04       4.3022820       2.1519061
      4320.35       3.7754378       2.1381493
      4324.67       3.7510603       2.1244630
      4329.00       3.1797868       2.1108666
      4333.33       3.3801563       2.0973483
      4337.66       3.0088913       2.0839263
      4342.00       2.8475284       2.0600277
      4346.34       2.5807895       2.0468647
      4350.69       2.6051063       2.0337929
      4355.04       2.0177840       2.0208131
      4359.39       1.7599915       2.0079261
      4363.75       1.9889640       1.9951310
      4368.12       1.7974351       1.9824275
      4372.48       1.8870625       1.9595998
      4376.86       2.0363316       1.9470810
      4381.23       1.8277304       1.9346474
      4385.61       1.6642962       1.9223023
      4390.00       1.4896834       1.9100353
      4394.39      0.81736432       1.8978626
      4398.79      0.44980655       1.8916243
      4403.18      0.50996924       1.8701164
      4407.59      0.37582353       1.8581825
      4412.00      0.29317882      -1.8463394
      4416.41      0.10326854      -1.8345875
      4420.82     -0.12072867      -1.8229260
      4425.25    -0.079219059      -1.8113559
      4429.67     -0.18861920      -1.7908289
      4434.10     -0.33530969      -1.7794746
      4438.54     -0.14011717      -1.7682212
      4442.97    -0.031880588      -1.7570680
      4447.42     -0.15847079      -1.7459946
      4451.86     -0.22648126      -1.7262215
      4456.32     -0.30877074      -1.7153144
      4460.77     -0.50056099      -1.7044990
      4465.24     -0.33728937      -1.6937754
      4469.70     -0.50969980      -1.6831415
      4474.17     -0.18193419      -1.6693768
      4478.65     -0.22759115      -1.6588677
      4483.12     0.044968656      -1.6484504
      4487.61     -0.53473905       1.6381094
      4492.09     -0.66562436       1.6278590
      4496.59     -0.35520188       1.6097038
      4501.08     -0.17906993       1.5996955
      4505.58      0.34033115       1.5897775
      4510.09      0.35639010       1.5799539
      4514.60     0.053245257       1.5623080
      4519.12      0.27214602       1.5572808
      4523.63      0.47720362       1.5476686
      4528.16       1.1265546       1.5381500
      4532.69       1.4272585       1.5211670
      4537.22       1.1705368       1.5117892
      4541.76       1.3352764       1.5024898
      4546.30       1.3842355       1.4932821
      4550.85       1.4180564       1.4769558
      4555.40       1.9851414       1.4723098
      4559.95       2.0089083       1.4633164
      4564.51       2.6627870       1.4544135
      4569.08       3.2150806       1.4385917
      4573.65       3.5584629       1.4299265
      4578.22       3.6782946       1.4213549
      4582.80       3.4163939       1.4058870
      4587.38       3.0417328       1.4015874
      4591.97       3.0642024       1.3932209
      4596.56       3.3690706       1.3849308
      4601.16       3.9886947       1.3699755
      4605.76       3.9841781       1.3618285
      4610.37       4.2291364       1.3578092
      4614.98       4.7051074       1.3433282
      4619.59       4.7283549       1.3353801
      4624.21       5.0600739       1.3275290
      4628.84       4.9522014       1.3134985
      4633.47       4.4428714       1.3058803
      4638.10       4.5426379       1.3020549
      4642.74       4.9218091       1.2883618
      4647.38       5.1793398       1.2809457
      4652.03       4.8196284       1.2736092
      4656.68       4.5527874       1.2602426
      4661.34       4.2455690       1.2567315
      4666.00       4.2165088       1.2496140
      4670.67       4.2602055       1.2366507
      4675.33       3.6554396       1.2296488
      4680.01       3.1729930       1.2263581
      4684.69       2.3441840       1.2137700
      4689.38       1.6664693       1.2069691
      4694.07       1.3601486       1.2002664
      4698.76       1.3539815       1.1881259
      4703.46       1.0333890       1.1849953
      4708.16      0.96146123       1.1730225
      4712.87      0.49247245       1.1666482
      4717.58      0.20908940       1.1603769
      4722.30      0.52504945       1.1520582
      4727.03      0.37753086       1.1458911
      4731.75       1.0060883       1.1345034
      4736.48      0.81411693       1.1317731
      4741.22      0.66298282       1.1258071
      4745.96      0.78245940       1.1307882
      4750.71      0.50522361       1.1420160
      4755.46      0.13412599       1.1583180
      4760.22    -0.025526235       1.1755037
      4764.97    -0.084088397       1.1924858
      4769.74      0.16975430       1.2178463
      4774.51      0.74055646       1.2473775
      4779.29       1.1201354       1.2760536
      4784.07       1.5107930       1.1665359
      4788.85       1.4492908       1.1060335
      4793.64       1.4825686       1.1049554
      4798.43       1.5089580       1.1138532
      4803.23       1.6065696       1.1223114
      4808.03       1.8752442       1.1410713
      4812.84       1.6847225       1.1541247
      4817.66       1.5804122       1.1813421
      4822.48       2.6656329       1.1974717
      4827.30       3.0102530       1.2204747
      4832.12       2.8456911       1.2401301
      4836.96       1.9874013       1.2596290
      4841.79       2.1452854       1.2679336
      4846.63       2.1986082       1.2840307
      4851.48       1.5262694       1.2810726
      4856.33       1.2428423       1.2833825
      4861.19       1.4514215       1.2619234
      4866.05       1.5949442       1.2308762
      4870.92       1.7322399       1.2043261
      4875.79       2.2294847       1.1736995
      4880.66       2.6936642       1.1434966
      4885.55       2.4772391       1.1074942
      4890.43       2.1856810       1.0808596
      4895.32       2.0375428       1.0480645
      4900.22       2.2841911       1.0209933
      4905.12       2.1101613      0.99600508
      4910.02       2.3452516      0.96956053
      4914.94       2.6075451      0.95614989
      4919.85       2.2785249      0.93771767
      4924.77       2.5797214      0.92866818
      4929.70       2.6705652      0.94334905
      4934.62       2.4905441      0.98947347
      4939.56       2.4592754       1.0102717
      4944.50       2.6320097      0.97894185
      4949.44       2.6076375      0.95258618
      4954.39       2.5181054      0.93380490
      4959.35       2.6859801      0.91291737
      4964.31       2.4569253      0.89414322
      4969.27       2.3997698      0.88016316
      4974.24       2.5499337      0.86483385
      4979.22       2.5650516      0.85920299
      4984.20       2.4657310      0.85286566
      4989.18       2.3554124      0.85259325
      4994.17       2.2318486      0.84640853
      4999.16       2.1443456      0.84283869
      5004.16       1.7539527      0.84020021
      5009.17       1.5333855      0.83676130
      5014.18       1.7886433      0.83422421
      5019.19       1.4307628      0.83090764
      5024.21       1.2243944      0.82516447
      5029.23      0.99571357      0.82528067
      5034.26       1.0582535      0.81965360
      5039.30       1.1001117      0.81732618
      5044.34      0.96479065      0.81437228
      5049.39       1.1517008      0.80900568
      5054.43       1.1409217      0.80932371
      5059.49       1.0106342      0.80410173
      5064.55      0.98783007      0.80140555
      5069.61      0.86644092      0.79941881
      5074.68      0.72073968      0.79682486
      5079.76      0.45544652      0.79494532
      5084.84      0.42808805      0.79245358
      5089.92      0.45074742      0.78758801
      5095.01      0.58685962      0.78828972
      5100.11      0.45906068      0.78353320
      5105.21      0.46384968      0.78135606
      5110.31      0.45352046      0.77969673
      5115.42      0.24299296      0.77762315
      5120.54      0.51710868      0.77564640
      5125.66      0.28737624      0.77409363
      5130.79      0.22880300      0.77220457
      5135.92      0.28962878      0.76791958
      5141.05      0.34424630      0.76895522
      5146.20      0.25158721      0.76480185
      5151.34      0.29395885      0.76310621
      5156.49      0.29219811      0.76468589
      5161.65      0.18928338      0.77509398
      5166.81      0.55501713      0.76640854
      5171.98      0.68078680      0.75845640
      5177.15      0.58137736      0.75735697
      5182.33      0.44716438      0.75248184
      5187.51      0.14993235      0.75154865
      5192.70      0.16640719      0.74948985
      5197.89      0.33246388      0.75334191
      5203.09      0.19549435      0.75260704
      5208.29      0.37352066       1.0706845
      5213.50      0.27881203       1.0970268
      5218.72      0.77887831       1.0495444
      5223.93      0.83554691       1.0515146
      5229.16      0.78366902       1.0536519
      5234.39      0.70385708       1.0697806
      5239.62      0.54877677       1.0937377
      5244.86      0.61978916       1.1073413
      5250.11      0.45502961       1.1249996
      5255.36      0.41434353       1.1372932
      5260.61      0.30382125       1.1437630
      5265.87     -0.22078746       1.1364352
      5271.14     -0.31923110       1.1239860
      5276.41     -0.25151918       1.1000161
      5281.69     -0.33493093       1.0862407
      5286.97     -0.53349129       1.0654054
      5292.26     -0.26846581       1.0424996
      5297.55     -0.37735090       1.0300820
      5302.85     -0.24509888       1.0352758
      5308.15    -0.078788623       1.0440720
      5313.46      0.56952826       1.0562864
      5318.77      0.86025975       1.0254653
      5324.09       1.0022741       1.0254397
      5329.42       1.2610084       1.0253009
      5334.75       1.3789045       1.0252916
      5340.08       1.6674516       1.0254116
      5345.42       1.8273009       1.0186934
      5350.77       1.4887414       1.0257028
      5356.12       1.2147825       1.0258626
      5361.48      0.94399069       1.0261354
      5366.83      0.81205770       1.0195354
      5372.20      0.58594163       1.0200223
      5377.58      0.43993152       1.0271396
      5382.95     -0.21762881       1.0276224
      5388.34     -0.67067531       1.0211790
      5393.72     -0.59822564       1.0218495
      5399.12     -0.52403288       1.0226199
      5404.52     -0.17075061       1.0234934
      5409.92     0.086626534       1.0236215
      5415.33      0.30619537       1.0243942
      5420.75      0.53992792       1.0252610
      5426.17       1.0134060      -1.0262161
      5431.60      0.87050004       1.0202970
      5437.03       1.2864284       1.0212318
      5442.47       1.4400038       1.0222429
      5447.91       1.3148079       1.0297292
      5453.36       1.2308867       1.0309041
      5458.81       1.2984677       1.0252841
      5464.27       1.1201072       1.0263883
      5469.73       1.0203641       1.0275395
      5475.20      0.58212221       1.0287644
      5480.68      0.44237449       1.0300562
      5486.16      0.11322093       1.0244480
      5491.65     0.016689396       1.0258474
      5497.14      0.47626600       1.0273017
      5502.64      0.57495680       1.0351581
      5508.14      0.63384727       1.0366186
      5513.65      0.76053157       1.0381437
      5519.16      0.69349652       1.0326181
      5524.68      0.59695847       1.0341611
      5530.20      0.70295368       1.0357580
      5535.73       1.0093182       1.0374018
      5541.27       1.3796322       1.0390880
      5546.81       1.5563346       1.0408136
      5552.36       1.7322440       1.0425800
      5557.91       1.8315470       1.0373369
      5563.47       1.9986202       1.0390872
      5569.04       2.0040983       1.0408846
      5574.60       2.0907832       1.0426732
      5580.18       1.9068149       1.0444848
      5585.76       1.6626518       1.0463350
      5591.35       1.7753806       1.0545058
      5596.94       1.7276001       1.0564272
      5602.53       1.7221533       1.0583774
      5608.14       1.5221907       1.0535065
      5613.75       1.3578809       1.0554532
      5619.36       1.0380889       1.0574540
      5624.98      0.92939367       1.0595499
      5630.60      0.80760504       1.0616700
      5636.23      0.59950861       1.0637994
      5641.87       1.0317492       1.0659083
      5647.51       1.0012814       1.0680853
      5653.16       1.1944279       1.0704257
      5658.82       1.2043438       1.0730993
      5664.47       1.1756577       1.0699708
      5670.14       1.3047876       1.0730566
      5675.81       1.0309134       1.0762160
      5681.48      0.62699263       1.0795435
      5687.17      0.43967550       1.0828338
      5692.85      0.42012513       1.0858044
      5698.55      0.67517063      -1.0811535
      5704.25      0.39660066      -1.0836731
      5709.95     -0.15999886       1.0860521
      5715.66     -0.48474750       1.0882458
      5721.38     -0.47823350       1.0902654
      5727.10     -0.65571781       1.0922258
      5732.83     -0.31379466      -1.0942648
      5738.56     -0.36260396      -1.0963606
      5744.30     -0.75166206      -1.0983551
      5750.04     -0.17235438      -1.1002110
      5755.79      0.24403513       1.1019508
      5761.55      0.53461097       1.0968945
      5767.31      0.87143778       1.0984912
      5773.08       1.2120626       1.1000841
      5778.85       1.7479706       1.1015136
      5784.63       1.8579247       1.1028866
      5790.41       1.8722753       1.1117187
      5796.21       2.2252206       1.1134913
      5802.00       2.1086981       1.1151153
      5807.81       2.3131144       1.1167153
      5813.61      0.99250250       1.1120510
      5819.43      0.25588192       1.1138920
      5825.25      0.67195899       1.1158001
      5831.07      0.62457426      -1.1177409
      5836.90     -0.35875581       1.1197374
      5842.74     -0.43858916       1.1217960
      5848.58     -0.98092630       1.1238482
      5854.43     -0.70167361       1.1194967
      5860.29     -0.71606572      -1.1215247
      5866.15     -0.66895051      -1.1235734
      5872.01     -0.86601831      -1.1256382
      5877.89     -0.63745975      -1.1277105
      5883.76     -0.20684796      -1.1367286
      5889.65    -0.071003379      -1.1322244
      5895.54      0.10442670      -1.1341847
      5901.43    -0.098250750      -1.1500546
      5907.34    0.0072636738      -1.1854858
      5913.24     -0.20213069      -1.1547348
      5919.16     -0.45353530       1.1355419
      5925.08     -0.74730167       1.1462353
      5931.00     -0.30143582       1.1733033
      5936.93      0.52857151       1.1973190
      5942.87    -0.043690766       1.2224760
      5948.81     -0.44936608       1.2374434
      5954.76      0.26737795       1.2556645
      5960.72      0.41328100       1.2676009
      5966.68       1.0695810       1.2665565
      5972.64      0.38192571       1.2573952
      5978.62      0.28922744       1.2405269
      5984.60      0.16956184       1.2200729
      5990.58      0.58817828       1.1985960
      5996.57      0.71356670       1.1717977
      6002.57      0.31301021       1.1582408
      6008.57      0.34668782       1.1649305
      6014.58      0.12044010       1.1895075
      6020.60      0.61299032       1.2010410
      6026.62      0.80077596       1.1687600
      6032.65       1.2006057       1.1640774
      6038.68       1.8468047       1.1680944
      6044.72       1.8660362       1.1717139
      6050.76       2.1095772       1.1755941
      6056.81       1.7023222       1.1730768
      6062.87       1.7535411       1.1763912
      6068.93       1.9786280       1.1866719
      6075.00       1.8680825       1.1887849
      6081.08       2.0768086       1.1829378
      6087.16       2.2660681       1.1830505
      6093.25       1.3971246       1.1896033
      6099.34       1.3682087       1.1812216
      6105.44       1.4260034       1.1796915
      6111.54       1.0465850       1.1784676
      6117.66       1.3495480       1.1781315
      6123.78       1.3634583       1.1778028
      6129.90      0.74633942       1.1770798
      6136.03       1.3555506       1.1697352
      6142.17       1.3162444       1.1761473
      6148.31       1.5432610       1.1691214
      6154.46       1.5845281       1.1688702
      6160.61       1.3578013       1.1753981
      6166.77       1.4429051       1.1684923
      6172.94       1.5658918       1.1683508
      6179.11       1.7315091       1.1683303
      6185.29       1.5911873       1.1682178
      6191.48       1.8669174       1.1682129
      6197.67       1.9870151       1.1614592
      6203.87       1.5521036       1.1681360
      6210.07       1.5283381       1.1614760
      6216.28       1.9321311       1.1613897
      6222.50       1.2844253       1.1683810
      6228.72       1.0841213       1.1623476
      6234.95       1.4755141       1.1628453
      6241.19      0.45872112       1.1635936
      6247.42      0.27924633       1.1635479
      6253.67     -0.13971331       1.1570539
      6259.93     -0.62887234       1.1918784
      6266.19     -0.50857562       1.1761504
      6272.46     -0.51360289       1.1613777
      6278.73     -0.30885880      -1.1646140
      6285.01     -0.65677400      -1.1688673
      6291.29     -0.83910424      -1.1870305
      6297.58      -1.5692355       1.1955682
      6303.88      -1.4075640      -1.2075235
      6310.19     -0.67649700      -1.2172237
      6316.50     -0.91081961       1.2223061
      6322.81     -0.52093660       1.2198316
      6329.14      0.19535642       1.2109731
      6335.47    -0.063451279       1.1919475
      6341.80    0.0096675560       1.1816615
      6348.14      0.75624092       1.1590802
      6354.49       1.0032626       1.1474857
      6360.85       1.3102869       1.1284756
      6367.21       1.5316235       1.1255935
      6373.57       1.3090350       1.1212112
      6379.95       2.0880751       1.1380599
      6386.33       1.9254012       1.1177368
      6392.72       1.7312785       1.1091002
      6399.11       1.6726278       1.1061057
      6405.51       1.1260610       1.1034287
      6411.92      0.97342459       1.1003031
      6418.32      0.80523982       1.0911618
      6424.74       1.3395326       1.0940277
      6431.17       1.1958550       1.0847322
      6437.60       1.4031272       1.0873551
      6444.04       1.3147653       1.0779237
      6450.48       1.0826583       1.0802654
      6456.94       1.2239905       1.0706461
      6463.39       1.1241337       1.0664751
      6469.85       1.0068537       1.0629729
      6476.33       1.0297972       1.0585068
      6482.80       1.5710898       1.0548321
      6489.28      0.94923362       1.0500715
      6495.77      0.70514178       1.0399323
      6502.27      0.70601715       1.0411665
      6508.77     0.084975126       1.0307751
      6515.28     -0.31451886       1.0256886
      6521.80      0.18852935       1.0211991
      6528.32      0.25692075       1.0157911
      6534.85      0.29033899       1.0111306
      6541.38      0.95582492       1.0053933
      6547.92       1.0010951     -0.99959445
      6554.47      0.95223134      0.99452404
      6561.03      0.95846113     -0.98874973
      6567.59      0.57627640     -0.98038680
      6574.16      0.78574372     -0.98327498
      6580.73      0.57990677     -0.97349422
      6587.31     -0.31430472     -0.96519900
      6593.90     -0.67511874     -0.96633709
      6600.50     -0.74296505     -0.96138971
      6607.10     -0.79683649     -0.96463776
      6613.70      -1.2622931     -0.96560407
      6620.32      -1.3554617     -0.99129190
      6626.94      -1.4714922     -0.98708632
      6633.57      -1.6470048     -0.98408018
      6640.20      -2.4660738     -0.99600176
      6646.84      -1.1744372      -1.0034019
      6653.49      -1.5209897       1.0022357
      6660.14     -0.51107439      0.99984210
      6666.80      0.64351859      0.99327601
      6673.47       1.7073978      0.97805723
      6680.14       1.9607449      0.95791674
      6686.82       1.9742100      0.92867358
      6693.51       2.6343296      0.91280119
      6700.20       2.8408142      0.89107554
      6706.90       2.6155539      0.86414315
      6713.61       2.3715034      0.83961233
      6720.32       2.0199697      0.82351432
      6727.05      0.73035939      0.80244954
      6733.77       1.3993971      0.78666491
      6740.51       1.7682966      0.77579824
      6747.25       1.9912584      0.76687960
      6754.00       2.7389065      0.75552389
      6760.75       3.0941665      0.74088765
      6767.51       2.6662514      0.72917310
      6774.28       2.6146042      0.71447145
      6781.05       1.9436640      0.70213347
      6787.84       2.3032196      0.68691895
      6794.62       2.5856657      0.66678879
      6801.42       2.5343057      0.64688637
      6808.22       1.9808789      0.63176561
      6815.03       1.8191260      0.61244613
      6821.85       1.8544911      0.59172024
      6828.67       1.3529270      0.57706290
      6835.50       1.1782730      0.55848443
      6842.33       1.0464098      0.54046847
      6849.17      0.79206122      0.52332755
      6856.02      0.53178653      0.50991309
      6862.88      0.34211857      0.49271751
      6869.74      0.36845495      0.47532834
      6876.61      0.58024958      0.45816874
      6883.49       1.0670997     -0.44471038
      6890.37      0.85235799     -0.42869826
      6897.27      0.71044299     -0.41583673
      6904.16      0.86397613     -0.40333735
      6911.07    0.0078805786     -0.38982165
      6917.98     0.057656888     -0.37819860
      6924.89    -0.047982010     -0.36385506
      6931.82     -0.11582702     -0.35011281
      6938.75    -0.095921016     -0.33701731
      6945.69      0.16749809     -0.32482233
      6952.64     -0.32258827     -0.31375973
      6959.59     -0.17549454     -0.30565887
      6966.55     -0.46418065     -0.29655147
      6973.52     -0.66905690     -0.28800877
      6980.49     -0.66289813     -0.28089645
      6987.47     -0.34221325     -0.27476577
      6994.46     -0.11645645     -0.26949333
      7001.46     -0.12059400     -0.26492086
      7008.46     -0.23529561      0.26090521
      7015.46      0.24806767     -0.25732194
      7022.48      0.46507842     -0.25497657
      7029.51      0.58282911     -0.25209232
      7036.53      0.66520152     -0.24945592
      7043.57      0.60291706     -0.24694562
      7050.62      0.60658816     -0.24886625
      7057.66      0.67540695     -0.25208500
      7064.72      0.73993421     -0.25591384
      7071.79      0.80388606     -0.26049459
      7078.86      0.75750853     -0.26610962
      7085.94      0.84205294     -0.27316256
      7093.03      0.83567397     -0.28233843
      7100.12      0.62890730     -0.29472538
      7107.22      0.47502472     -0.31183048
      7114.33      0.39811085     -0.33489458
      7121.44      0.29164065     -0.36526324
      7128.56     0.074470013      0.40457333
      7135.69    -0.063293803      0.45522627
      7142.83     -0.28925714     -0.52029298
      7149.97     -0.61452666      0.60320541
      7157.12      -1.1603535      0.70822581
