# starting wavelength =        3456.7400
# ending wavelength =        7371.6000
# O2 telluric scale =        0
# O2 telluric shift =        0
# H2O telluric scale =        0
# H2O telluric shift =        0
      3457.13       3.1437716      0.47157599
      3460.58       3.0797612      0.30501684
      3464.04       3.1134415      0.22353335
      3467.51       2.9654247      0.19100591
      3470.98       2.8949440      0.16791441
      3474.45       2.8938595      0.15563880
      3477.92       2.9419782      0.14589151
      3481.40       2.9685445      0.14298936
      3484.88       3.0767512      0.14245676
      3488.37       3.0336789      0.14181959
      3491.86       2.9900572      0.14356410
      3495.35       3.1332854      0.14068576
      3498.84       3.2027120      0.14008889
      3502.34       3.2510583      0.13959860
      3505.84       3.3123265      0.13894260
      3509.35       3.3093818      0.13840312
      3512.86       3.1138292      0.13783947
      3516.37       3.1399923      0.13723656
      3519.89       3.1250099      0.13675938
      3523.41       3.1506402      0.13610040
      3526.93       3.1338232      0.13351921
      3530.46       3.2196030      0.13499375
      3533.99       3.2065293      0.13441635
      3537.53       3.1399123      0.13390731
      3541.06       3.1995427      0.13328354
      3544.60       3.0806445      0.13077505
      3548.15       3.1373393      0.13217632
      3551.70       3.1540739      0.12965077
      3555.25       2.9674121      0.13108795
      3558.80       2.9235302      0.12853141
      3562.36       2.8385768      0.13001323
      3565.92       2.9046784      0.12940445
      3569.49       2.9710300      0.12696315
      3573.06       2.9698657      0.12830209
      3576.64       2.8940074      0.12584993
      3580.21       2.6774207      0.12721704
      3583.79       2.4664148      0.12475382
      3587.38       2.3774663      0.12614602
      3590.96       2.4308854      0.12367808
      3594.55       2.4198143      0.12324571
      3598.15       2.3639125      0.12259962
      3601.75       2.4727557      0.12215285
      3605.35       2.4538234      0.12153464
      3608.96       2.5337577      0.12107008
      3612.56       2.5841888      0.12047415
      3616.18       2.6043605      0.12000412
      3619.79       2.5420327      0.11942583
      3623.41       2.5137182      0.11894301
      3627.04       2.4076546      0.11662111
      3630.66       2.3939542      0.11789536
      3634.29       2.4474223      0.11559561
      3637.93       2.5249559      0.11684190
      3641.57       2.3956968      0.11457448
      3645.21       2.4304477      0.11580300
      3648.86       2.3548494      0.11355993
      3652.50       2.2712292      0.11477309
      3656.16       2.1504586      0.11255166
      3659.81       2.0814933      0.11374565
      3663.47       2.0401350      0.11154400
      3667.14       2.0415696      0.11272655
      3670.80       1.9996935      0.11054224
      3674.48       2.0922568      0.11171181
      3678.15       2.1213553      0.10953482
      3681.83       2.1215318      0.11070542
      3685.51       2.0429252      0.10853992
      3689.20       2.0361661      0.10970899
      3692.88       2.0702987      0.10755813
      3696.58       2.1034082      0.10872214
      3700.27       2.1620116      0.10657100
      3703.98       2.1857505      0.10613930
      3707.68       2.2817674      0.10559323
      3711.39       2.3646775      0.10514645
      3715.10       2.3969215      0.10462120
      3718.81       2.4377485      0.10416283
      3722.53       2.4349580      0.10366138
      3726.26       2.4456762      0.10318458
      3729.98       2.4404047      0.10271008
      3733.71       2.3783503      0.10221702
      3737.45       2.3545966      0.10029526
      3741.18       2.3304754      0.10124988
      3744.93       2.3515681      0.10082744
      3748.67       2.3882861      0.10030119
      3752.42       2.3982816     0.099856384
      3756.17       2.4024392     0.099373877
      3759.93       2.3808624     0.098896560
      3763.69       2.4101482     0.097019614
      3767.45       2.3169706     0.097949917
      3771.22       2.2283215     0.096132463
      3774.99       2.1975483     0.097018934
      3778.77       2.1212665     0.096574542
      3782.54       2.0044699     0.094710529
      3786.33       1.9713752     0.095631455
      3790.11       1.9827860     0.093829876
      3793.90       2.0071390     0.094709206
      3797.70       2.0378590     0.092971881
      3801.50       2.0877033     0.092445702
      3805.30       2.1493354     0.093345453
      3809.10       2.1797585     0.091578796
      3812.91       2.2026481     0.091091303
      3816.73       2.1614887     0.090734171
      3820.54       2.1663144     0.090212547
      3824.36       2.1819410     0.091081585
      3828.19       2.1973742     0.089365390
      3832.02       2.1711722     0.088880021
      3835.85       2.2089852     0.088551182
      3839.68       2.2391665     0.088029654
      3843.52       2.3074813     0.087562956
      3847.37       2.3832290     0.087208982
      3851.22       2.4307358     0.086711490
      3855.07       2.3227596     0.085067868
      3858.92       2.2342744     0.085886616
      3862.78       2.1363570     0.085408568
      3866.64       2.1028627     0.083795522
      3870.51       2.1357606     0.084589918
      3874.38       2.1710045     0.084126072
      3878.26       2.2643538     0.082545740
      3882.13       2.3631676     0.083307745
      3886.02       2.5148262     0.081707704
      3889.90       2.6502554     0.081296262
      3893.79       2.7493541     0.082043600
      3897.69       2.7381451     0.080464895
      3901.59       2.6701369     0.080065098
      3905.49       2.5662190     0.080792688
      3909.39       2.5018540     0.079239837
      3913.30       2.4493865     0.078837990
      3917.22       2.4187755     0.079559776
      3921.13       2.4345384     0.078020750
      3925.06       2.4516999     0.077622392
      3928.98       2.4647985     0.078338010
      3932.91       2.4752765     0.076822039
      3936.84       2.4338849     0.076419047
      3940.78       2.3568895     0.076049868
      3944.72       2.2871312     0.075633895
      3948.67       2.3096465     0.075229620
      3952.61       2.3509425     0.074849443
      3956.57       2.3875820     0.074465246
      3960.52       2.4537939     0.074051214
      3964.48       2.5139413     0.073669412
      3968.45       2.5596908     0.072295045
      3972.42       2.5712271     0.072894926
      3976.39       2.5724884     0.072500629
      3980.37       2.5363934     0.072133969
      3984.35       2.4757103     0.070757689
      3988.33       2.3625940     0.071352687
      3992.32       2.2681485     0.070971126
      3996.31       2.2348694     0.069662123
      4000.31       2.1806468     0.069253399
      4004.31       2.1575711     0.069839230
      4008.31       2.1401299     0.069467577
      4012.32       2.0751113     0.068172393
      4016.33       2.0335326     0.067773453
      4020.35       2.0319927     0.068345913
      4024.37       2.0690292     0.067112147
      4028.40       2.0922414     0.066708474
      4032.42       2.0335880     0.066315698
      4036.46       2.0100407     0.066875510
      4040.50       1.9470986     0.065673796
      4044.54       1.8485780     0.065275225
      4048.58       1.7941588     0.064886403
      4052.63       1.7660528     0.064517751
      4056.68       1.7468679     0.064262379
      4060.74       1.7245034     0.063868938
      4064.80       1.7199181     0.063482573
      4068.86       1.8019485     0.063114673
      4072.93       1.8610399     0.061941857
      4077.01       1.9339865     0.062494385
      4081.08       1.9592991     0.062109419
      4085.17       1.9431607     0.061738603
      4089.25       1.9461806     0.061380888
      4093.34       1.8607731     0.060240281
      4097.43       1.7919064     0.060767129
      4101.53       1.7623939     0.060397180
      4105.63       1.7460776     0.060038913
      4109.74       1.7129128     0.058910543
      4113.85       1.6644311     0.058575579
      4117.96       1.6561158     0.058247403
      4122.08       1.6376141     0.058729945
      4126.20       1.6682676     0.058371643
      4130.33       1.6983491     0.057274817
      4134.46       1.7494224     0.056940421
      4138.59       1.7845292     0.056620737
      4142.73       1.8156165     0.056300826
      4146.88       1.8811783     0.055991323
      4151.02       1.9503239     0.056411678
      4155.18       2.0150197     0.055350863
      4159.33       2.0557495     0.055025859
      4163.49       2.0879789     0.054710116
      4167.65       2.0925435     0.054397830
      4171.82       2.0646006     0.054092782
      4175.99       2.0155394     0.053090942
      4180.17       2.0054458     0.053481773
      4184.35       1.9346130     0.053163563
      4188.54       1.8719040     0.052849622
      4192.72       1.8417249     0.052543599
      4196.92       1.8617133     0.052239920
      4201.11       1.8271145     0.051946577
      4205.31       1.8130666     0.050987175
      4209.52       1.8242084     0.050679590
      4213.73       1.8366480     0.050373377
      4217.94       1.8703803     0.050747386
      4222.16       1.8884150     0.050446064
      4226.38       1.8864976     0.050151177
      4230.61       1.8962772     0.049857458
      4234.84       1.9124054     0.048968064
      4239.08       1.9077530     0.048667296
      4243.32       1.9222831     0.048370295
      4247.56       1.9504472     0.048077374
      4251.81       1.9171943     0.047784429
      4256.06       1.8603826     0.047498896
      4260.32       1.8313336     0.047213193
      4264.58       1.7769292     0.046932602
      4268.84       1.7603632     0.047280013
      4273.11       1.7545377     0.046461988
      4277.38       1.7140881     0.046173268
      4281.66       1.6762550     0.045891366
      4285.94       1.6438321     0.045609027
      4290.23       1.6409283     0.045329833
      4294.52       1.6765653     0.045053496
      4298.81       1.6983745     0.044779545
      4303.11       1.6877428     0.044508538
      4307.42       1.7193212     0.044236660
      4311.72       1.7377822     0.043969002
      4316.04       1.7756980     0.043703817
      4320.35       1.7903518     0.043442231
      4324.67       1.8268092     0.042651231
      4329.00       1.8270144     0.042394993
      4333.33       1.8332872     0.042139180
      4337.66       1.8593840     0.041885932
      4342.00       1.8583426     0.041634661
      4346.34       1.8773794     0.041383798
      4350.69       1.9103149     0.041133900
      4355.04       1.8679854     0.040887289
      4359.39       1.8945672     0.040641873
      4363.75       1.8792218     0.040397277
      4368.12       1.8471900     0.040154425
      4372.48       1.7921369     0.039911924
      4376.86       1.7505227     0.039671704
      4381.23       1.7204974     0.039433771
      4385.61       1.6794789     0.039196168
      4390.00       1.6665225     0.038959901
      4394.39       1.6488140     0.038724569
      4398.79       1.6463261     0.038490497
      4403.18       1.6508504     0.038259322
      4407.59       1.6555574     0.038029111
      4412.00       1.6840792     0.037799028
      4416.41       1.6651185     0.037571104
      4420.82       1.6368721     0.037345010
      4425.25       1.6417987     0.037119306
      4429.67       1.6561483     0.036895386
      4434.10       1.6629294     0.036672446
      4438.54       1.6338421     0.036452249
      4442.97       1.6037990     0.036233042
      4447.42       1.6873994     0.036016074
      4451.86       1.7809867     0.035345699
      4456.32       1.8573542     0.035134639
      4460.77       1.9252759     0.034924917
      4465.24       1.9717482     0.034717661
      4469.70       1.9742987     0.034510891
      4474.17       1.9793839     0.034306939
      4478.65       2.0003708     0.034103412
      4483.12       2.0265366     0.033904126
      4487.61       2.0033423     0.033705322
      4492.09       1.9525884     0.033507416
      4496.59       1.8944149     0.033313708
      4501.08       1.8740156     0.033120762
      4505.58       1.9325625     0.032487779
      4510.09       1.9274423     0.032292951
      4514.60       1.9079144     0.032477757
      4519.12       1.8739170     0.032286712
      4523.63       1.8252051     0.032096876
      4528.16       1.7888101     0.031910109
      4532.69       1.8159140     0.031724475
      4537.22       1.8410713     0.031542175
      4541.76       1.8905838     0.031361146
      4546.30       1.9260807     0.030778933
      4550.85       1.9133873     0.030596581
      4555.40       1.9573618     0.030414312
      4559.95       1.9954462     0.030237510
      4564.51       2.0141824     0.030060829
      4569.08       1.9936990     0.030241145
      4573.65       1.9333777     0.030069010
      4578.22       1.8729509     0.029525596
      4582.80       1.7861770     0.029351010
      4587.38       1.7338926     0.029177234
      4591.97       1.7092768     0.029008059
      4596.56       1.6427812     0.028840139
      4601.16       1.6062988     0.028675676
      4605.76       1.5474411     0.028170931
      4610.37       1.4952018     0.028335806
      4614.98       1.4754982     0.028169828
      4619.59       1.4626735     0.028005349
      4624.21       1.4283608     0.027845705
      4628.84       1.4307837     0.027688361
      4633.47       1.4193917     0.027202500
      4638.10       1.3877882     0.027055792
      4642.74       1.3820849     0.027206485
      4647.38       1.3848456     0.027051909
      4652.03       1.3679174     0.026899296
      4656.68       1.3382281     0.026428489
      4661.34       1.3145055     0.026287185
      4666.00       1.2823097     0.026147271
      4670.67       1.2724162     0.026293137
      4675.33       1.2504447     0.026145834
      4680.01       1.2433947     0.025689955
      4684.69       1.2505186     0.025554216
      4689.38       1.2765549     0.025422069
      4694.07       1.2810410     0.025295555
      4698.76       1.2704595     0.025119847
      4703.46       1.2805233     0.024986306
      4708.16       1.2229781     0.024857379
      4712.87       1.1535103     0.024732708
      4717.58       1.0981070     0.024298996
      4722.30       1.0507599     0.024442397
      4727.03      0.99195122     0.024317255
      4731.75      0.93022119     0.024197137
      4736.48      0.87995295     0.023778727
      4741.22      0.84034598     0.023921155
      4745.96      0.83650872     0.023799626
      4750.71      0.80502363     0.023684457
      4755.46      0.81881182     0.023279683
      4760.22      0.80617139     0.023158742
      4764.97      0.79722937     0.023305611
      4769.74      0.79381307     0.023194207
      4774.51      0.80546619     0.022799296
      4779.29      0.80644192     0.022685031
      4784.07      0.83388486     0.022830555
      4788.85      0.86951831     0.022454183
      4793.64      0.88587543     0.022339765
      4798.43      0.90933562     0.022231479
      4803.23      0.91657534     0.022380967
      4808.03      0.91669263     0.022008001
      4812.84      0.94164593     0.021901122
      4817.66      0.94674580     0.021799731
      4822.48      0.94405642     0.021688090
      4827.30      0.95183611     0.021582963
      4832.12      0.97250662     0.021483367
      4836.96      0.96816583     0.021380958
      4841.79      0.99688735     0.021277372
      4846.63       1.0294894     0.021179385
      4851.48       1.0435158     0.020849587
      4856.33       1.0521596     0.020982527
      4861.19       1.0536790     0.020887589
      4866.05       1.0647382     0.020564242
      4870.92       1.0834829     0.020698632
      4875.79       1.0970947     0.020607394
      4880.66       1.1328800     0.020290454
      4885.55       1.1703033     0.020425630
      4890.43       1.2253990     0.020107370
      4895.32       1.2828660     0.020028146
      4900.22       1.3449138     0.020163491
      4905.12       1.4031796     0.019853371
      4910.02       1.4409545     0.019778107
      4914.94       1.4688119     0.019912707
      4919.85       1.4856953     0.019609848
      4924.77       1.4816550     0.019539617
      4929.70       1.4373533     0.019450398
      4934.62       1.4144460     0.019377823
      4939.56       1.3868730     0.019313401
      4944.50       1.3340537     0.019224405
      4949.44       1.2856328     0.019157491
      4954.39       1.2553061     0.018871085
      4959.35       1.2309989     0.019009881
      4964.31       1.2147003     0.018949153
      4969.27       1.2040582     0.018869632
      4974.24       1.2095879     0.018807497
      4979.22       1.2503059     0.018532370
      4984.20       1.2991431     0.018672797
      4989.18       1.3779143     0.018406771
      4994.17       1.4854100     0.018342210
      4999.16       1.5968264     0.018489185
      5004.16       1.6795665     0.018221541
      5009.17       1.7308013     0.018366071
      5014.18       1.7675558     0.018106719
      5019.19       1.7475281     0.018049247
      5024.21       1.6740261     0.017996751
      5029.23       1.5753797     0.017938944
      5034.26       1.4489595     0.017892885
      5039.30       1.3272207     0.017834234
      5044.34       1.2101973     0.017793465
      5049.39       1.1394345     0.017734744
      5054.43       1.0585717     0.017686379
      5059.49       1.0184858     0.017640080
      5064.55      0.98947502     0.017591438
      5069.61      0.96933012     0.017549858
      5074.68      0.98403271     0.017502057
      5079.76       1.0006919     0.017463847
      5084.84      0.99132962     0.017416935
      5089.92      0.99913028     0.017196915
      5095.01       1.0233789     0.017335995
      5100.11       1.0307051     0.017118933
      5105.21       1.0499628     0.017260398
      5110.31       1.0994171     0.017044977
      5115.42       1.1381104     0.017188556
      5120.54       1.1930120     0.016976200
      5125.66       1.2518818     0.016940846
      5130.79       1.3059595     0.016911802
      5135.92       1.3753120     0.016878580
      5141.05       1.4200738     0.016851489
      5146.20       1.4734382     0.016820644
      5151.34       1.5156765     0.016795893
      5156.49       1.5451136     0.016766118
      5161.65       1.5716543     0.016744746
      5166.81       1.5753274     0.016716343
      5171.98       1.5794680     0.016698290
      5177.15       1.5952910     0.016671227
      5182.33       1.5654659     0.016474682
      5187.51       1.5269353     0.016629720
      5192.70       1.5095557     0.016434787
      5197.89       1.4690427     0.016592772
      5203.09       1.4457234     0.016398153
      5208.29       1.4106452     0.016560788
      5213.50       1.3813712     0.016365710
      5218.72       1.3514792     0.016358299
      5223.93       1.3645034     0.016516915
      5229.16       1.3438378     0.016330131
      5234.39       1.3439207     0.016493700
      5239.62       1.3622035     0.016306889
      5244.86       1.3553017     0.016306405
      5250.11       1.3368092     0.016288626
      5255.36       1.3452582     0.016287426
      5260.61       1.3487773     0.016273818
      5265.87       1.3233943     0.016271968
      5271.14       1.3177184     0.016277353
      5276.41       1.2956059     0.016261640
      5281.69       1.2638530     0.016265880
      5286.97       1.2498359     0.016097465
      5292.26       1.2378335     0.016259640
      5297.55       1.2363871     0.016269015
      5302.85       1.2498988     0.016099835
      5308.15       1.2574159     0.016266549
      5313.46       1.2391780     0.016105118
      5318.77       1.2256182     0.016110797
      5324.09       1.2255122     0.016281619
      5329.42       1.1852745     0.016120486
      5334.75       1.1624316     0.016130433
      5340.08       1.1317643     0.016135969
      5345.42       1.0926047     0.016143849
      5350.77       1.0389151     0.016157293
      5356.12      0.99134909     0.016164801
      5361.48      0.96810556     0.016176032
      5366.83      0.94798711     0.016192522
      5372.20      0.92747803     0.016202034
      5377.58      0.89877035     0.016215862
      5382.95      0.87318846     0.016234629
      5388.34      0.85266916     0.016246799
      5393.72      0.83920586     0.016262818
      5399.12      0.81961315     0.016283618
      5404.52      0.83095444     0.016135292
      5409.92      0.82485558     0.016317621
      5415.33      0.79508214     0.016340419
      5420.75      0.77545971     0.016192998
      5426.17      0.76723214     0.016380547
      5431.60      0.76756277     0.016404595
      5437.03      0.74019452     0.018916449
      5442.47      0.73402053     0.018937861
      5447.91      0.70293102     0.018964218
      5453.36      0.67747190     0.018998017
      5458.81      0.66448164     0.018766709
      5464.27      0.66506654     0.019057690
      5469.73      0.64777984     0.019090331
      5475.20      0.65244143     0.019127674
      5480.68      0.67513182     0.018898702
      5486.16      0.69743474     0.018947638
      5491.65      0.72287920     0.019228792
      5497.14      0.70790130     0.018996145
      5502.64      0.70397417     0.019042481
      5508.14      0.69304516     0.019094435
      5513.65      0.66280563     0.019381410
      5519.16      0.64615573     0.020383157
      5524.68      0.64634987     0.019342899
      5530.20      0.65807163     0.020100061
      5535.73      0.66921949     0.021420191
      5541.27      0.66885979     0.022506029
      5546.81      0.66780220     0.022608795
      5552.36      0.65296993     0.021677332
      5557.91      0.59389386     0.020444941
      5563.47      0.57059375     0.019756709
      5569.04      0.53817671     0.021252975
      5574.60      0.53267467     0.019879083
      5580.18      0.53445651     0.019651899
      5585.76      0.51032243     0.019711036
      5591.35      0.48708415     0.019773029
      5596.94      0.48722404     0.019553465
      5602.53      0.45044458     0.019608113
      5608.14      0.41301124     0.019901631
      5613.75      0.38937664     0.019962270
      5619.36      0.40310781     0.020025653
      5624.98      0.42229745     0.019815871
      5630.60      0.45296355     0.019871587
      5636.23      0.46277022     0.019930022
      5641.87      0.48382464     0.019989962
      5647.51      0.50135521     0.020293411
      5653.16      0.51727147     0.020358174
      5658.82      0.51716686     0.020425483
      5664.47      0.50832988     0.020214117
      5670.14      0.50547127     0.020274221
      5675.81      0.51728392     0.020336314
      5681.48      0.52227005     0.020400222
      5687.17      0.50502860     0.020464816
      5692.85      0.49697927     0.020531332
      5698.55      0.46562522     0.020599151
      5704.25      0.44460017     0.020646695
      5709.95      0.42255693     0.020709394
      5715.66      0.41148199     0.020773529
      5721.38      0.39974978     0.020838518
      5727.10      0.41226337     0.020905479
      5732.83      0.42045662     0.020973366
      5738.56      0.42211786     0.021042102
      5744.30      0.42246663     0.021111419
      5750.04      0.41039069     0.021182178
      5755.79      0.39377613     0.021252973
      5761.55      0.39676966     0.021033809
      5767.31      0.39476784     0.021105823
      5773.08      0.37714598     0.021177638
      5778.85      0.36848929     0.021249929
      5784.63      0.36428859     0.021322803
      5790.41      0.35161799     0.021396529
      5796.21      0.35539769     0.021470103
      5802.00      0.38074300     0.021544185
      5807.81      0.41939241     0.021618487
      5813.61      0.47145488     0.021695135
      5819.43      0.51113635     0.021772702
      5825.25      0.58648464     0.021853779
      5831.07      0.74083687     0.021940908
      5836.90      0.93820147     0.022041234
      5842.74       1.2309523     0.022156081
      5848.58       1.5800948     0.022279881
      5854.43       1.9399612     0.022398908
      5860.29       2.2357415     0.022498575
      5866.15       2.4310240     0.022574707
      5872.01       2.4885926     0.022644034
      5877.89       2.4153151     0.022715035
      5883.76       2.2471290     0.022783682
      5889.65       1.9962299     0.022847793
      5895.54       1.7653751     0.022917885
      5901.43       1.5493737     0.022994557
      5907.34       1.3377876     0.023078514
      5913.24       1.1506271     0.023159379
      5919.16       1.0233053     0.023224729
      5925.08      0.90286895     0.023276894
      5931.00      0.77530032     0.023334795
      5936.93      0.68912502     0.023401978
      5942.87      0.60335064     0.023467452
      5948.81      0.56072114     0.023262294
      5954.76      0.53728872     0.023323933
      5960.72      0.49665589     0.023385512
      5966.68      0.46714432     0.023448009
      5972.64      0.45906404     0.023513054
      5978.62      0.43219722     0.023581526
      5984.60      0.40687254     0.023654509
      5990.58      0.40152729     0.023731091
      5996.57      0.39743402     0.023811364
      6002.57      0.40303912     0.023602220
      6008.57      0.40947849     0.023988480
      6014.58      0.39752442     0.024064944
      6020.60      0.38552812     0.024142132
      6026.62      0.36852232     0.024220112
      6032.65      0.35318931     0.024300271
      6038.68      0.33660034     0.024381378
      6044.72      0.33598088     0.024177541
      6050.76      0.33108162     0.024249636
      6056.81      0.35566760     0.024323782
      6062.87      0.37845094     0.024718874
      6068.93      0.41197492     0.024796215
      6075.00      0.44844816     0.024874165
      6081.08      0.46944466     0.024674431
      6087.16      0.50366188     0.024744505
      6093.25      0.52216467     0.024815021
      6099.34      0.53139795     0.024887751
      6105.44      0.51832861     0.024962191
      6111.54      0.51850086     0.025367871
      6117.66      0.51877724     0.025159706
      6123.78      0.53618062     0.025226665
      6129.90      0.55963434     0.025296533
      6136.03      0.55640835     0.025369814
      6142.17      0.58156167     0.025171203
      6148.31      0.59068183     0.025566673
      6154.46      0.57997537     0.025630509
      6160.61      0.55582771     0.025699306
      6166.77      0.53729044     0.025770975
      6172.94      0.50595339     0.025566128
      6179.11      0.48266731     0.025960958
      6185.29      0.47984932     0.026024612
      6191.48      0.45502866     0.026092233
      6197.67      0.48500068     0.025883567
      6203.87      0.50006724     0.025963276
      6210.07      0.52122225     0.026365108
      6216.28      0.54066801     0.026451071
      6222.50      0.57550542     0.026284013
      6228.72      0.58779530     0.026462848
      6234.95      0.58089662     0.027024072
      6241.19      0.59405143     0.026939324
      6247.42      0.59115990     0.027089964
      6253.67      0.61858728     0.027174837
      6259.93      0.63027976     0.027502796
      6266.19      0.64692139     0.027189739
      6272.46      0.67267489     0.027201404
      6278.73      0.69796631     0.027211411
      6285.01      0.68866647     0.027212634
      6291.29      0.67006190     0.027230391
      6297.58      0.66558787     0.027264080
      6303.88      0.66751831     0.027314247
      6310.19      0.65173587     0.027354110
      6316.50      0.62670883     0.027406544
      6322.81      0.60630765     0.027139729
      6329.14      0.59018876     0.027518938
      6335.47      0.58434420     0.027572671
      6341.80      0.58474421     0.027309804
      6348.14      0.56470133     0.027694898
      6354.49      0.56701495     0.027751814
      6360.85      0.60075042     0.027486058
      6367.21      0.61517855     0.027875281
      6373.57      0.64008971     0.027624759
      6379.95      0.63711940     0.027669653
      6386.33      0.63133731     0.028068440
      6392.72      0.62420940     0.027814610
      6399.11      0.61787925     0.027863608
      6405.51      0.61522920     0.027974238
      6411.92      0.59829758     0.028027926
      6418.32      0.60727222     0.028103239
      6424.74      0.64201552     0.028244144
      6431.17      0.65655679     0.028329864
      6437.60      0.65671849     0.028474349
      6444.04      0.65146623     0.028524551
      6450.48      0.64557043     0.028560682
      6456.94      0.63866835     0.028607326
      6463.39      0.62865997     0.028620321
      6469.85      0.61023948     0.028704421
      6476.33      0.61906411     0.028733472
      6482.80      0.63690402     0.028469056
      6489.28      0.63951036     0.028826702
      6495.77      0.63052295     0.028539460
      6502.27      0.63664888     0.028906580
      6508.77      0.62148669     0.028639966
      6515.28      0.59172189     0.028689361
      6521.80      0.55957298     0.029045647
      6528.32      0.53784653     0.028766337
      6534.85      0.52538656     0.029109547
      6541.38      0.51117838     0.028815376
      6547.92      0.51201363     0.029155508
      6554.47      0.51381914     0.028862021
      6561.03      0.50628393     0.029215374
      6567.59      0.50711390     0.028931393
      6574.16      0.52090904     0.029295100
      6580.73      0.53471616     0.029012131
      6587.31      0.53999828     0.028728349
      6593.90      0.53722410     0.029088600
      6600.50      0.53189430     0.028801143
      6607.10      0.53085173     0.029160215
      6613.70      0.51990704     0.028867851
      6620.32      0.51406329     0.029226485
      6626.94      0.54340099     0.028929530
      6633.57      0.60900309     0.029288619
      6640.20      0.70913217     0.028985871
      6646.84      0.82795595     0.029346193
      6653.49      0.95592222     0.029375975
      6660.14       1.0680773     0.029081079
      6666.80       1.1514927     0.029423448
      6673.47       1.1564269     0.029120930
      6680.14       1.1090956     0.029466046
      6686.82       1.0299220     0.029156031
      6693.51      0.91755106     0.029196884
      6700.20      0.81340577     0.029187874
      6706.90      0.71228794     0.029220457
      6713.61      0.63887670     0.029215870
      6720.32      0.57774018     0.029239133
      6727.05      0.55868023     0.029273336
      6733.77      0.50848128     0.029254036
      6740.51      0.48483644     0.029278748
      6747.25      0.46440401     0.029266789
      6754.00      0.45178479     0.029281124
      6760.75      0.42066259     0.029304603
      6767.51      0.41084157     0.029281669
      6774.28      0.41276455     0.029294692
      6781.05      0.43880210     0.028981977
      6787.84      0.45273058     0.029300488
      6794.62      0.44562034     0.029408346
      6801.42      0.45354256     0.029248910
      6808.22      0.44671999     0.029721328
      6815.03      0.42507294     0.030041725
      6821.85      0.40036473     0.031216791
      6828.67      0.39425828     0.032754201
      6835.50      0.40071399     0.033194802
      6842.33      0.44726645     0.033466650
      6849.17      0.43678246     0.033056721
      6856.02      0.43839197     0.032513169
      6862.88      0.43744585     0.031935552
      6869.74      0.42811045     0.031324170
      6876.61      0.42569665     0.030798825
      6883.49      0.40518006     0.030314807
      6890.37      0.41057994     0.030007563
      6897.27      0.42162105     0.029494694
      6904.16      0.43096687     0.029640551
      6911.07      0.43097067     0.029452574
      6917.98      0.42121019     0.029248379
      6924.89      0.40335342     0.028754398
      6931.82      0.39614599     0.028925813
      6938.75      0.39982959     0.028848678
      6945.69      0.39662834     0.028528173
      6952.64      0.41499263     0.028538668
      6959.59      0.44501600     0.028822057
      6966.55      0.47239312     0.028771324
      6973.52      0.48360246     0.028395710
      6980.49      0.47823809     0.028319381
      6987.47      0.47786807     0.028227714
      6994.46      0.47405049     0.028417920
      7001.46      0.48129847     0.028011154
      7008.46      0.51470331     0.027914306
      7015.46      0.62980682     0.027824746
      7022.48      0.89341090     0.027732850
      7029.51       1.2269945     0.027345295
      7036.53       1.5641228     0.027524547
      7043.57       1.8605782     0.027427818
      7050.62       2.0777682     0.027337705
      7057.66       2.1400982     0.027249313
      7064.72       2.0656386     0.026879843
      7071.79       1.8809681     0.026791012
      7078.86       1.6447915     0.026980569
      7085.94       1.4118627     0.026910205
      7093.03       1.1978626     0.026871705
      7100.12       1.0039074     0.026866523
      7107.22      0.83271759     0.026641974
      7114.33      0.74039833     0.026812721
      7121.44      0.66323937     0.027143044
      7128.56      0.62079557     0.027605498
      7135.69      0.61153769     0.028064848
      7142.83      0.61181842     0.028658726
      7149.97      0.58810663     0.028396517
      7157.12      0.57801965     0.028133270
      7164.28      0.56096624     0.027622394
      7171.44      0.54146980     0.027065658
      7178.62      0.52290286     0.026712104
      7185.80      0.53319904     0.026621621
      7192.98      0.53068395     0.026696280
      7200.17      0.54017249     0.026741882
      7207.38      0.55915365     0.026634949
      7214.58      0.57305848     0.026181988
      7221.80      0.60559531     0.025974628
      7229.02      0.62561486     0.025775781
      7236.25      0.65582939     0.025556817
      7243.49      0.69335518     0.025311304
      7250.73      0.77915092     0.025051567
      7257.98      0.82169147     0.024779785
      7265.24      0.84325986     0.024481298
      7272.51      0.87007600     0.024136011
      7279.78      0.86697620     0.023761139
      7287.06      0.87840717     0.023407192
      7294.35      0.87090138     0.023092345
      7301.64      0.84446098     0.022833983
      7308.94      0.82097352     0.022612605
      7316.25      0.81287750     0.022398095
      7323.57      0.76878270     0.022182096
      7330.89      0.73520584     0.021959298
      7338.22      0.71380617     0.022211624
      7345.56      0.67805635     0.023726858
      7352.91      0.66097096     0.026257882
      7360.26      0.64365411     0.033867707
      7367.62      0.60513692     0.050881398
