# starting wavelength =        2829.5205
# ending wavelength =        8395.9503
# O2 telluric scale =        0
# O2 telluric shift =        0
# H2O telluric scale =        0
# H2O telluric shift =        0
      2830.71      0.74120151      0.22562165
      2833.54      0.68100244      0.21883639
      2836.38      0.67256339      0.21223778
      2839.21      0.61842138      0.20642704
      2842.05      0.74600841      0.20044108
      2844.90      0.78356854      0.19510303
      2847.74      0.79008413      0.18999485
      2850.59      0.78729365      0.18513876
      2853.44      0.81251243      0.18023314
      2856.29      0.85323218      0.17742151
      2859.15      0.96405431      0.17309834
      2862.01       1.0418473      0.16889255
      2864.87       1.1126478      0.16519502
      2867.74       1.1693452      0.16192471
      2870.60       1.1497752      0.15935785
      2873.47       1.1309915      0.15707164
      2876.35       1.1325958      0.15497282
      2879.22       1.1699441      0.15278016
      2882.10       1.1520258      0.15058042
      2884.99       1.1769129      0.14845782
      2887.87       1.2703391      0.14598621
      2890.76       1.2210815      0.14413434
      2893.65       1.2282371      0.14338140
      2896.54       1.1768069      0.14157832
      2899.44       1.0539204      0.13958858
      2902.34      0.97639509      0.13795503
      2905.24      0.94692208      0.13562080
      2908.15       1.0636862      0.13286881
      2911.06       1.0461850      0.13039475
      2913.97       1.0639759      0.12783375
      2916.88       1.1200889      0.12540269
      2919.80       1.0865974      0.12355382
      2922.72       1.0645716      0.12387176
      2925.64       1.0145726      0.12257168
      2928.57       1.0799240      0.11963047
      2931.50       1.0810364      0.11742578
      2934.43       1.0614677      0.11613838
      2937.36       1.0982849      0.11460205
      2940.30       1.1635010      0.11349445
      2943.24       1.1595435      0.11289826
      2946.18       1.1787975      0.11250326
      2949.13       1.2149271      0.11298660
      2952.08       1.2677514      0.11285824
      2955.03       1.2431408      0.11251472
      2957.99       1.2304466      0.11206137
      2960.94       1.2099663      0.11188487
      2963.90       1.1595054      0.11097388
      2966.87       1.1122123      0.10940359
      2969.84       1.0776313      0.10753470
      2972.81       1.0921809      0.10594393
      2975.78       1.1179968      0.10400099
      2978.76       1.0907397      0.10200652
      2981.73       1.0364178      0.10021897
      2984.72       1.0156986     0.098857989
      2987.70      0.95563195     0.096876591
      2990.69      0.89421910     0.094625190
      2993.68      0.94800094     0.093024771
      2996.67      0.96093190     0.091802796
      2999.67      0.95879910     0.090487526
      3002.67      0.94256593     0.089434254
      3005.67      0.96538779     0.088730489
      3008.68      0.97243132     0.088659574
      3011.69      0.98484868     0.088957123
      3014.70      0.96712187     0.087525097
      3017.71       1.0105996     0.086370011
      3020.73      0.99158069     0.084961840
      3023.75       1.0260369     0.083583079
      3026.78       1.0790173     0.082357502
      3029.80       1.0747220     0.081518227
      3032.83       1.0942341     0.080435353
      3035.87       1.1469204     0.079579694
      3038.90       1.1750496     0.079243219
      3041.94       1.1829236     0.078699425
      3044.98       1.1864451     0.078418555
      3048.03       1.1886951     0.078462587
      3051.08       1.1674595     0.078106126
      3054.13       1.1784488     0.077790044
      3057.18       1.2081378     0.077596118
      3060.24       1.2018930     0.077430050
      3063.30       1.1710906     0.077051679
      3066.36       1.1374572     0.076826785
      3069.43       1.1217764     0.076311211
      3072.50       1.0921172     0.075847240
      3075.57       1.0644272     0.075746768
      3078.65       1.0690234     0.075451355
      3081.73       1.0658876     0.074868300
      3084.81       1.0488938     0.074502565
      3087.89       1.0736960     0.073985834
      3090.98       1.0828043     0.073408228
      3094.07       1.0765244     0.073131726
      3097.17       1.0392600     0.071566738
      3100.26       1.0470157     0.070889869
      3103.36       1.0587879     0.070063395
      3106.47       1.0583959     0.069232386
      3109.58       1.0728905     0.068616449
      3112.68       1.0795455     0.067595244
      3115.80       1.0963614     0.067014854
      3118.91       1.0849508     0.066312296
      3122.03       1.0872553     0.065863427
      3125.15       1.0710052     0.065938191
      3128.28       1.0544430     0.065166809
      3131.41       1.0622726     0.065344293
      3134.54       1.0480502     0.065154112
      3137.67       1.0528575     0.065052985
      3140.81       1.0705176     0.065187930
      3143.95       1.0793636     0.064670740
      3147.10       1.0927044     0.064681640
      3150.24       1.1012788     0.064639075
      3153.39       1.1117025     0.063999193
      3156.55       1.1419146     0.063898910
      3159.70       1.1863331     0.063296946
      3162.86       1.2098250     0.063064725
      3166.03       1.2152670     0.062493888
      3169.19       1.2136272     0.062061949
      3172.36       1.2156732     0.061345562
      3175.54       1.2404139     0.060787283
      3178.71       1.2308410     0.060719250
      3181.89       1.2202711     0.060648118
      3185.07       1.2113496     0.060857713
      3188.26       1.2149290     0.060804234
      3191.45       1.1786851     0.061473139
      3194.64       1.1641257     0.061250258
      3197.83       1.1737837     0.061559638
      3201.03       1.1703215     0.061058577
      3204.23       1.1733394     0.060822490
      3207.44       1.1810629     0.060394846
      3210.64       1.2064981     0.060175744
      3213.85       1.2127301     0.058780948
      3217.07       1.2244423     0.057808098
      3220.28       1.2334480     0.056645899
      3223.51       1.2320177     0.055793809
      3226.73       1.2050126     0.054880763
      3229.96       1.2173442     0.054031675
      3233.19       1.2009720     0.053328121
      3236.42       1.1728807     0.053058029
      3239.66       1.1742603     0.052702750
      3242.90       1.1426525     0.052709475
      3246.14       1.1167187     0.052409507
      3249.39       1.0622331     0.052257287
      3252.64       1.0319794     0.052254411
      3255.89      0.97489744     0.052751432
      3259.14      0.93998211     0.052964041
      3262.40      0.94677236     0.053277232
      3265.67      0.95799039     0.053704396
      3268.93      0.95982222     0.053730336
      3272.20      0.99138231     0.054420638
      3275.47       1.0271764     0.054878304
      3278.75       1.0448908     0.055354218
      3282.03       1.0630586     0.055573810
      3285.31       1.0778086     0.055329586
      3288.60       1.0996178     0.055708295
      3291.88       1.1042677     0.055579968
      3295.18       1.1325993     0.055438346
      3298.47       1.1438151     0.054912479
      3301.77       1.1359140     0.054133647
      3305.07       1.1059179     0.054028753
      3308.38       1.0978223     0.055120920
      3311.69       1.0779588     0.053642946
      3315.00       1.0637591     0.051435785
      3318.31       1.0467563     0.051362707
      3321.63       1.0422389     0.052031207
      3324.95       1.0573807     0.052345219
      3328.28       1.0352535     0.053392474
      3331.61       1.0532350     0.054086654
      3334.94       1.0819009     0.054804100
      3338.27       1.0952236     0.054985135
      3341.61       1.0867800     0.054824243
      3344.95       1.1115725     0.054294465
      3348.30       1.1390676     0.053319755
      3351.65       1.1557796     0.051314819
      3355.00       1.1153899     0.050073801
      3358.35       1.1259427     0.048489969
      3361.71       1.1436093     0.047120651
      3365.07       1.1515987     0.045759856
      3368.44       1.1316160     0.045589175
      3371.81       1.1151769     0.045628569
      3375.18       1.1085371     0.044330048
      3378.56       1.1054427     0.043312885
      3381.94       1.1068213     0.043059993
      3385.32       1.0938384     0.043394069
      3388.70       1.0879413     0.043870114
      3392.09       1.0714494     0.042925236
      3395.48       1.0886086     0.043027205
      3398.88       1.1025550     0.043797478
      3402.28       1.1342444     0.044448920
      3405.68       1.1527767     0.045312823
      3409.09       1.1978420     0.045913506
      3412.49       1.2422483     0.046742726
      3415.91       1.2490104     0.046425660
      3419.32       1.2524830     0.046961161
      3422.74       1.2899405     0.046264644
      3426.17       1.3115888     0.045887465
      3429.59       1.2723729     0.044492830
      3433.02       1.2625911     0.043501340
      3436.45       1.2503386     0.042047743
      3439.89       1.2377304     0.040744560
      3443.33       1.2251076     0.039682761
      3446.78       1.1965179     0.038531099
      3450.22       1.1648353     0.037959205
      3453.67       1.1487674     0.037571574
      3457.13       1.1384775     0.036845771
      3460.58       1.1369153     0.036123709
      3464.04       1.1452407     0.035645291
      3467.51       1.1601247     0.035907247
      3470.98       1.1657634     0.035619895
      3474.45       1.1843921     0.035896956
      3477.92       1.1829539     0.035704584
      3481.40       1.1715684     0.035693513
      3484.88       1.1759845     0.035896389
      3488.37       1.1922501     0.035560446
      3491.86       1.1939859     0.035606387
      3495.35       1.2001057     0.035637246
      3498.84       1.2176855     0.035851156
      3502.34       1.2323089     0.036023051
      3505.84       1.2453720     0.036268317
      3509.35       1.2416174     0.036608428
      3512.86       1.2457335     0.036851464
      3516.37       1.2336717     0.037058587
      3519.89       1.2451517     0.037007234
      3523.41       1.2298262     0.037658837
      3526.93       1.1983752     0.037198568
      3530.46       1.2097836     0.036506573
      3533.99       1.2144893     0.035818896
      3537.53       1.2092369     0.034336769
      3541.06       1.2000920     0.032955961
      3544.60       1.1997616     0.031979175
      3548.15       1.1809785     0.030965055
      3551.70       1.1852229     0.030648232
      3555.25       1.1835534     0.030692750
      3558.80       1.1674812     0.030931598
      3562.36       1.1767361     0.031023734
      3565.92       1.1883831     0.031560731
      3569.49       1.2108774     0.031582755
      3573.06       1.2125148     0.031165725
      3576.64       1.2100572     0.031294970
      3580.21       1.2045796     0.031135687
      3583.79       1.1798166     0.030845306
      3587.38       1.1541373     0.031210844
      3590.96       1.1447459     0.031948888
      3594.55       1.1359119     0.032636046
      3598.15       1.1571644     0.033821098
      3601.75       1.1561116     0.035119245
      3605.35       1.1397608     0.035766312
      3608.96       1.1501655     0.036526372
      3612.56       1.1469857     0.036608886
      3616.18       1.1470583     0.036919947
      3619.79       1.1526057     0.037232819
      3623.41       1.1392456     0.037544715
      3627.04       1.1552138     0.037369854
      3630.66       1.1772095     0.037697242
      3634.29       1.1933145     0.037742416
      3637.93       1.1866466     0.037568953
      3641.57       1.1847300     0.037519837
      3645.21       1.1685598     0.037676510
      3648.86       1.1352697     0.037260370
      3652.50       1.0990876     0.036926135
      3656.16       1.0532188     0.036658626
      3659.81       1.0637916     0.036370459
      3663.47       1.0325158     0.035976360
      3667.14       1.0128141     0.035578584
      3670.80       1.0059847     0.035290940
      3674.48       1.0129745     0.034871354
      3678.15       1.0294291     0.034917037
      3681.83       1.0542746     0.034810934
      3685.51       1.0465401     0.034712279
      3689.20       1.0639901     0.034766908
      3692.88       1.0845468     0.035629179
      3696.58       1.0985670     0.034512207
      3700.27       1.1302113     0.033877772
      3703.98       1.1837794     0.033889269
      3707.68       1.2260202     0.034221086
      3711.39       1.2593430     0.034764740
      3715.10       1.2718851     0.035322038
      3718.81       1.2952966     0.035950137
      3722.53       1.3022721     0.036538519
      3726.26       1.2748455     0.036893373
      3729.98       1.2848720     0.036835460
      3733.71       1.2288158     0.036108514
      3737.45       1.2003237     0.035553396
      3741.18       1.1991434     0.035262005
      3744.93       1.1866657     0.034686068
      3748.67       1.1724703     0.033924856
      3752.42       1.1461318     0.033476843
      3756.17       1.1154746     0.033234443
      3759.93       1.1179272     0.033569416
      3763.69       1.0847829     0.034060805
      3767.45       1.0954953     0.033236767
      3771.22       1.1381090     0.032884901
      3774.99       1.1571149     0.032761259
      3778.77       1.1485149     0.032528435
      3782.54       1.1466337     0.032490265
      3786.33       1.1453460     0.032470391
      3790.11       1.1536375     0.032197335
      3793.90       1.1401114     0.032194652
      3797.70       1.1174384     0.032181436
      3801.50       1.1111095     0.032005197
      3805.30       1.0802431     0.032090897
      3809.10       1.0828953     0.031969942
      3812.91       1.0721901     0.031653830
      3816.73       1.0391862     0.031521115
      3820.54       1.0208140     0.031295767
      3824.36      0.98983102     0.031166916
      3828.19      0.98657598     0.031426106
      3832.02      0.98041257     0.031690698
      3835.85      0.98923930     0.030623609
      3839.68       1.0338273     0.030401351
      3843.52       1.0555012     0.030283626
      3847.37       1.0574145     0.030441258
      3851.22       1.0552413     0.030662966
      3855.07       1.0725972     0.030826810
      3858.92       1.0807000     0.031108677
      3862.78       1.0790041     0.031086440
      3866.64       1.1004443     0.030470959
      3870.51       1.0946369     0.029966605
      3874.38       1.0995660     0.029363935
      3878.26       1.0960957     0.028781990
      3882.13       1.1147408     0.028142814
      3886.02       1.1051490     0.027844727
      3889.90       1.1073512     0.027659038
      3893.79       1.1197041     0.027593998
      3897.69       1.1251209     0.028123174
      3901.59       1.1381549     0.028889565
      3905.49       1.1537817     0.029087693
      3909.39       1.1698281     0.028667087
      3913.30       1.2123362     0.029047252
      3917.22       1.2466515     0.029373167
      3921.13       1.2708234     0.029617905
      3925.06       1.2961179     0.029998593
      3928.98       1.3177720     0.030302749
      3932.91       1.3268544     0.031510141
      3936.84       1.3396389     0.031000943
      3940.78       1.3494449     0.030458917
      3944.72       1.3436197     0.030378848
      3948.67       1.3606090     0.030349103
      3952.61       1.3758150     0.030299091
      3956.57       1.3951208     0.030200040
      3960.52       1.3800878     0.030226258
      3964.48       1.3926485     0.030244554
      3968.45       1.3897571     0.030355086
      3972.42       1.3713376     0.030790395
      3976.39       1.3733894     0.030331598
      3980.37       1.3663950     0.029966904
      3984.35       1.3747308     0.029602255
      3988.33       1.3770679     0.029221014
      3992.32       1.3920212     0.028842510
      3996.31       1.3789529     0.028452598
      4000.31       1.3836401     0.028326659
      4004.31       1.3675636     0.028473055
      4008.31       1.3575407     0.029159504
      4012.32       1.3655593     0.028114236
      4016.33       1.3502484     0.027851693
      4020.35       1.3262552     0.027829617
      4024.37       1.3018159     0.027798596
      4028.40       1.2743904     0.027801444
      4032.42       1.2674342     0.027781180
      4036.46       1.2522807     0.027781705
      4040.50       1.2401048     0.027637468
      4044.54       1.2348602     0.027684931
      4048.58       1.2237695     0.027735859
      4052.63       1.2112954     0.027802895
      4056.68       1.2126212     0.028038316
      4060.74       1.2135000     0.028052915
      4064.80       1.2017451     0.028804324
      4068.86       1.2088841     0.027951536
      4072.93       1.1896003     0.027753328
      4077.01       1.1744909     0.027854773
      4081.08       1.1706172     0.028065871
      4085.17       1.1482869     0.028324212
      4089.25       1.1566521     0.028465378
      4093.34       1.1439379     0.028722292
      4097.43       1.1287525     0.029121527
      4101.53       1.1198038     0.029275189
      4105.63       1.1245144     0.029295423
      4109.74       1.1417891     0.028960231
      4113.85       1.1467579     0.028677737
      4117.96       1.1504089     0.028319605
      4122.08       1.1548951     0.027930192
      4126.20       1.1610675     0.027442692
      4130.33       1.1655736     0.027109239
      4134.46       1.1689855     0.026947991
      4138.59       1.1661746     0.027081867
      4142.73       1.1494283     0.027571167
      4146.88       1.1475701     0.026783180
      4151.02       1.1403186     0.026766262
      4155.18       1.1243629     0.026759354
      4159.33       1.1270462     0.026620669
      4163.49       1.1021342     0.026637952
      4167.65       1.1093317     0.026665814
      4171.82       1.0987300     0.026801175
      4175.99       1.0899933     0.026587164
      4180.17       1.0780585     0.026578425
      4184.35       1.0702737     0.026542344
      4188.54       1.0650711     0.026331484
      4192.72       1.0542720     0.026449044
      4196.92       1.0551858     0.026431725
      4201.11       1.0608536     0.026272387
      4205.31       1.0458137     0.026248308
      4209.52       1.0508191     0.026423080
      4213.73       1.0489091     0.026302042
      4217.94       1.0667383     0.026302636
      4222.16       1.0769058     0.026290354
      4226.38       1.0887249     0.026233956
      4230.61       1.0934029     0.026171292
      4234.84       1.0807209     0.026112335
      4239.08       1.0838981     0.025948602
      4243.32       1.0873844     0.026076703
      4247.56       1.1004645     0.026051841
      4251.81       1.0992705     0.025893540
      4256.06       1.0917973     0.025922665
      4260.32       1.0756639     0.026160453
      4264.58       1.0739477     0.026076397
      4268.84       1.0724709     0.026152446
      4273.11       1.0657495     0.026239226
      4277.38       1.0627705     0.026227448
      4281.66       1.0607888     0.026176530
      4285.94       1.0497792     0.026092520
      4290.23       1.0530206     0.026024646
      4294.52       1.0473844     0.025938283
      4298.81       1.0528759     0.026677285
      4303.11       1.0379134     0.026790929
      4307.42       1.0222066     0.025610771
      4311.72       1.0245380     0.025715119
      4316.04       1.0231555     0.025936039
      4320.35       1.0427808     0.026440192
      4324.67       1.0578949     0.027065287
      4329.00       1.0757628     0.027568572
      4333.33       1.0856610     0.028032711
      4337.66       1.0831608     0.028355297
      4342.00       1.0935139     0.028362959
      4346.34       1.1150616     0.027950883
      4350.69       1.1408681     0.027778430
      4355.04       1.1386431     0.027179066
      4359.39       1.1436078     0.026679300
      4363.75       1.1320658     0.025957170
      4368.12       1.1278916     0.025412506
      4372.48       1.1112014     0.025024488
      4376.86       1.0963492     0.025020280
      4381.23       1.0720390     0.025818230
      4385.61       1.0642857     0.024989141
      4390.00       1.0557514     0.024334931
      4394.39       1.0480036     0.024398250
      4398.79       1.0371286     0.024210916
      4403.18       1.0231901     0.024383819
      4407.59       1.0000941     0.024352644
      4412.00      0.99827923     0.024558601
      4416.41       1.0005757     0.024497325
      4420.82      0.98075510     0.024566655
      4425.25      0.96997945     0.024569342
      4429.67      0.97175387     0.024400195
      4434.10      0.98688046     0.024506582
      4438.54      0.98140727     0.024405757
      4442.97      0.98668741     0.024526129
      4447.42      0.99508025     0.024419245
      4451.86       1.0221466     0.024536648
      4456.32       1.0197938     0.024391768
      4460.77       1.0507931     0.024426557
      4465.24       1.0583507     0.024451496
      4469.70       1.0792896     0.024473316
      4474.17       1.0993373     0.024519300
      4478.65       1.1273028     0.024586695
      4483.12       1.1469540     0.024497206
      4487.61       1.1588155     0.024682281
      4492.09       1.1827281     0.024575671
      4496.59       1.2258036     0.024670596
      4501.08       1.2314688     0.024450896
      4505.58       1.2419070     0.024299746
      4510.09       1.2621537     0.024155746
      4514.60       1.2870699     0.023977024
      4519.12       1.2990320     0.023766645
      4523.63       1.3006666     0.023647173
      4528.16       1.3009279     0.023508140
      4532.69       1.3111487     0.023314343
      4537.22       1.3135814     0.023392323
      4541.76       1.3043145     0.023249608
      4546.30       1.3107995     0.023320981
      4550.85       1.3013043     0.023455304
      4555.40       1.3172954     0.023311918
      4559.95       1.3170128     0.023355779
      4564.51       1.3218877     0.023306223
      4569.08       1.3133845     0.023522584
      4573.65       1.3226441     0.023659708
      4578.22       1.3155250     0.023639756
      4582.80       1.3040698     0.023822216
      4587.38       1.2797632     0.023738663
      4591.97       1.2782563     0.023713649
      4596.56       1.2824978     0.023651873
      4601.16       1.2692904     0.023602694
      4605.76       1.2576132     0.023504816
      4610.37       1.2451171     0.023681528
      4614.98       1.2386865     0.023537450
      4619.59       1.2330995     0.023157049
      4624.21       1.2130916     0.022957735
      4628.84       1.1936364     0.023002927
      4633.47       1.1891798     0.023219090
      4638.10       1.1886902     0.023523620
      4642.74       1.1860658     0.023596508
      4647.38       1.1799567     0.023735627
      4652.03       1.1883496     0.023778582
      4656.68       1.1803994     0.023543730
      4661.34       1.1582017     0.023494591
      4666.00       1.1257778     0.023274655
      4670.67       1.1019130     0.023008920
      4675.33       1.0950790     0.022662633
      4680.01       1.0811768     0.022465884
      4684.69       1.0699606     0.022351544
      4689.38       1.0539484     0.022428056
      4694.07       1.0376858     0.022411279
      4698.76       1.0215497     0.022824830
      4703.46      0.99661959     0.022988572
      4708.16      0.96186028     0.022583932
      4712.87      0.92740840     0.022479213
      4717.58      0.91349003     0.022577727
      4722.30      0.91189932     0.022703397
      4727.03      0.89501426     0.022680128
      4731.75      0.88912472     0.022571534
      4736.48      0.87748249     0.022519787
      4741.22      0.86942655     0.022480288
      4745.96      0.85283965     0.022421752
      4750.71      0.83396684     0.022422662
      4755.46      0.82586566     0.022281848
      4760.22      0.83408008     0.022286037
      4764.97      0.84095122     0.022288738
      4769.74      0.83948406     0.022388617
      4774.51      0.84175999     0.022609298
      4779.29      0.84533227     0.022703245
      4784.07      0.85347793     0.022633236
      4788.85      0.85452978     0.022704891
      4793.64      0.85701310     0.022729284
      4798.43      0.85925890     0.022671045
      4803.23      0.86442774     0.022670153
      4808.03      0.86195136     0.023092254
      4812.84      0.86735648     0.023080667
      4817.66      0.88655306     0.023314011
      4822.48      0.88631609     0.023052266
      4827.30      0.88578791     0.022898940
      4832.12      0.90586677     0.023200770
      4836.96      0.91818258     0.023709851
      4841.79      0.93114294     0.024299001
      4846.63      0.94977584     0.024840593
      4851.48      0.97956630     0.025261046
      4856.33      0.98248472     0.025511726
      4861.19      0.98458838     0.025679083
      4866.05       1.0006649     0.025247869
      4870.92      0.99563662     0.024664247
      4875.79      0.99724586     0.024074529
      4880.66      0.99164163     0.023609133
      4885.55      0.98306239     0.023130523
      4890.43      0.96800268     0.022744102
      4895.32      0.95227638     0.022665540
      4900.22      0.91714433     0.023212689
      4905.12      0.90388077     0.023488398
      4910.02      0.90423637     0.024087327
      4914.94      0.88193517     0.024018523
      4919.85      0.90091391     0.024101408
      4924.77      0.92144490     0.024860427
      4929.70      0.93008095     0.025735570
      4934.62      0.94712753     0.026903782
      4939.56      0.96709414     0.028134949
      4944.50      0.98899091     0.029407607
      4949.44       1.0088598     0.030167949
      4954.39       1.0348206     0.031053072
      4959.35       1.0651803     0.031527671
      4964.31       1.0818476     0.031085118
      4969.27       1.0958394     0.028956505
      4974.24       1.1032124     0.027770777
      4979.22       1.1055876     0.027101893
      4984.20       1.1053513     0.027141751
      4989.18       1.1089096     0.026476129
      4994.17       1.0925401     0.026453580
      4999.16       1.0815313     0.025796250
      5004.16       1.0830536     0.024361767
      5009.17       1.0638303     0.025337405
      5014.18       1.0348616     0.023082695
      5019.19       1.0019214     0.022035790
      5024.21      0.95964786     0.020863804
      5029.23      0.91417429     0.020933967
      5034.26      0.87334102     0.020166775
      5039.30      0.83138218     0.020136386
      5044.34      0.79878007     0.020140104
      5049.39      0.77697100     0.019212610
      5054.43      0.75735715     0.019062578
      5059.49      0.73454366     0.018757033
      5064.55      0.72772579     0.017914243
      5069.61      0.71685479     0.017765780
      5074.68      0.71219441     0.017544631
      5079.76      0.71789584     0.017528862
      5084.84      0.72579349     0.017479146
      5089.92      0.71770851     0.016973854
      5095.01      0.72810114     0.016799842
      5100.11      0.73281082     0.016819589
      5105.21      0.73913266     0.016946290
      5110.31      0.74197367     0.016909133
      5115.42      0.74388422     0.017140384
      5120.54      0.75543157     0.016834920
      5125.66      0.75548964     0.017111261
      5130.79      0.76784229     0.017127226
      5135.92      0.78049433     0.017444454
      5141.05      0.79829102     0.017312024
      5146.20      0.81661507     0.016668844
      5151.34      0.81963582     0.016703551
      5156.49      0.82206398     0.016449432
      5161.65      0.82907537     0.016197473
      5166.81      0.82676775     0.015957986
      5171.98      0.82660960     0.015631087
      5177.15      0.82281893     0.015500602
      5182.33      0.81734516     0.015421778
      5187.51      0.80918872     0.015375485
      5192.70      0.80844685     0.015658318
      5197.89      0.80012099     0.015670484
      5203.09      0.80284192     0.015428190
      5208.29      0.79958830     0.015449341
      5213.50      0.80197977     0.015473983
      5218.72      0.81358600     0.015491250
      5223.93      0.82418964     0.015870812
      5229.16      0.83859979     0.015493694
      5234.39      0.84751344     0.015429033
      5239.62      0.86056616     0.015365810
      5244.86      0.87364701     0.015323058
      5250.11      0.88402311     0.015327912
      5255.36      0.89276143     0.015300331
      5260.61      0.89509913     0.015320204
      5265.87      0.90034526     0.015375785
      5271.14      0.91068282     0.015449400
      5276.41      0.91557127     0.015721809
      5281.69      0.91582853     0.015791736
      5286.97      0.90464701     0.015954993
      5292.26      0.89019209     0.016217484
      5297.55      0.88155544     0.016552799
      5302.85      0.87609082     0.016734952
      5308.15      0.85361323     0.017695821
      5313.46      0.84985588     0.017953445
      5318.77      0.83875404     0.018126824
      5324.09      0.82426997     0.017763810
      5329.42      0.81296530     0.017669335
      5334.75      0.80924786     0.017742615
      5340.08      0.80965411     0.017393021
      5345.42      0.80406599     0.017027472
      5350.77      0.80302846     0.016225006
      5356.12      0.79167688     0.016001422
      5361.48      0.78463125     0.015748574
      5366.83      0.78530124     0.015579421
      5372.20      0.78202831     0.015005266
      5377.58      0.77120976     0.014824934
      5382.95      0.76529551     0.014818371
      5388.34      0.75442419     0.014627156
      5393.72      0.75354551     0.014187760
      5399.12      0.75148203     0.014099924
      5404.52      0.74536805     0.014040241
      5409.92      0.73774069     0.014257012
      5415.33      0.73676666     0.013904179
      5420.75      0.72884291     0.013859474
      5426.17      0.73210488     0.013817407
      5431.60      0.73501315     0.014004673
      5437.03      0.72979149     0.013621242
      5442.47      0.72602473     0.013536066
      5447.91      0.71817209     0.013470057
      5453.36      0.71416519     0.013419886
      5458.81      0.70502259     0.013316665
      5464.27      0.70541342     0.013266449
      5469.73      0.70342738     0.013218840
      5475.20      0.70172775     0.013166111
      5480.68      0.69315193     0.013063581
      5486.16      0.70297966     0.013031886
      5491.65      0.70314931     0.013038432
      5497.14      0.70655096     0.013067379
      5502.64      0.70713388     0.013135248
      5508.14      0.70331290     0.013158699
      5513.65      0.71147915     0.013173692
      5519.16      0.71229192     0.013185325
      5524.68      0.71021651     0.013151785
      5530.20      0.70940552     0.013107419
      5535.73      0.70313987     0.013055889
      5541.27      0.68964964     0.012684535
      5546.81      0.68028778     0.012826149
      5552.36      0.66584389     0.012729109
      5557.91      0.65619452     0.012638290
      5563.47      0.64120763     0.012250640
      5569.04      0.63149746     0.012413377
      5574.60      0.61695850     0.012351201
      5580.18      0.60528854     0.012293135
      5585.76      0.59396448     0.011942362
      5591.35      0.58577484     0.012100630
      5596.94      0.57335966     0.012077341
      5602.53      0.56611038     0.011854594
      5608.14      0.56283428     0.011851113
      5613.75      0.56011066     0.012116563
      5619.36      0.56151244     0.012144601
      5624.98      0.55725023     0.011960992
      5630.60      0.55139858     0.012002695
      5636.23      0.55617899     0.012334384
      5641.87      0.55873154     0.012075251
      5647.51      0.54920693     0.012038274
      5653.16      0.54649161     0.012313921
      5658.82      0.53623126     0.012233571
      5664.47      0.52934213     0.012302005
      5670.14      0.52035501     0.012371373
      5675.81      0.50766597     0.012738712
      5681.48      0.49407336     0.012569626
      5687.17      0.48213347     0.012578741
      5692.85      0.46939118     0.012541185
      5698.55      0.45797605     0.012328787
      5704.25      0.44315922     0.012158464
      5709.95      0.43105873     0.012000717
      5715.66      0.41996660     0.011746180
      5721.38      0.41045213     0.011604675
      5727.10      0.40579433     0.011503429
      5732.83      0.39972781     0.011242323
      5738.56      0.39519262     0.011525024
      5744.30      0.39358694     0.011531189
      5750.04      0.38754181     0.011239900
      5755.79      0.37963684     0.011345250
      5761.55      0.37862322     0.011266729
      5767.31      0.37950912     0.010987194
      5773.08      0.37742295     0.011107737
      5778.85      0.38027359     0.011026528
      5784.63      0.38033192     0.010968789
      5790.41      0.38276132     0.010739149
      5796.21      0.39367532     0.010925631
      5802.00      0.39828733     0.010912711
      5807.81      0.41070007     0.010723328
      5813.61      0.41315168     0.010939448
      5819.43      0.41754312     0.010952970
      5825.25      0.42456929     0.010762149
      5831.07      0.43140822     0.010991232
      5836.90      0.43951544     0.010999920
      5842.74      0.44268308     0.010838780
      5848.58      0.44874168     0.011071604
      5854.43      0.45809727     0.010848871
      5860.29      0.46743344     0.010832392
      5866.15      0.47111987     0.011005227
      5872.01      0.47787406     0.010753880
      5877.89      0.47906406     0.010724068
      5883.76      0.47816116     0.010904662
      5889.65      0.48217503     0.011361901
      5895.54      0.48052963     0.011870267
      5901.43      0.47848001     0.012262973
      5907.34      0.47743415     0.010713561
      5913.24      0.47320308     0.010966005
      5919.16      0.47619395     0.011341091
      5925.08      0.46865949     0.011884244
      5931.00      0.46463912     0.012333396
      5936.93      0.46432969     0.012736538
      5942.87      0.46114553     0.012987544
      5948.81      0.46421632     0.012936688
      5954.76      0.47122118     0.012311875
      5960.72      0.47657667     0.012203876
      5966.68      0.47641509     0.011644749
      5972.64      0.47741642     0.011239759
      5978.62      0.47587768     0.010737775
      5984.60      0.47448085     0.010325440
      5990.58      0.46670715     0.010652763
      5996.57      0.46180159     0.011676704
      6002.57      0.46152918     0.010932672
      6008.57      0.46093915     0.010407303
      6014.58      0.45707459     0.010160649
      6020.60      0.45648435    0.0097861799
      6026.62      0.45131731    0.0099835092
      6032.65      0.45142870     0.010000072
      6038.68      0.45424261    0.0098339985
      6044.72      0.45617267     0.010045763
      6050.76      0.46143012    0.0098759297
      6056.81      0.46551935    0.0098654347
      6062.87      0.47146498     0.010059338
      6068.93      0.48004257    0.0098588646
      6075.00      0.48193650     0.010030705
      6081.08      0.49093624    0.0098187346
      6087.16      0.49637560    0.0097783386
      6093.25      0.50562036    0.0099262821
      6099.34      0.50488211    0.0097078341
      6105.44      0.50928614    0.0096869461
      6111.54      0.51028713    0.0096783548
      6117.66      0.51740883    0.0096148584
      6123.78      0.51780002    0.0097396901
      6129.90      0.51853697    0.0097219311
      6136.03      0.52161527    0.0099088730
      6142.17      0.51849448     0.010353943
      6148.31      0.52177007     0.010927794
      6154.46      0.52434681     0.010107654
      6160.61      0.52616103     0.010065355
      6166.77      0.52732892     0.010454220
      6172.94      0.52512339     0.010936142
      6179.11      0.52824859     0.011393949
      6185.29      0.52884664     0.011845318
      6191.48      0.52654844     0.012178286
      6197.67      0.52702659     0.012379168
      6203.87      0.52154357     0.012009237
      6210.07      0.52564687     0.011638430
      6216.28      0.52378513     0.011069001
      6222.50      0.52235136     0.010848901
      6228.72      0.51229103     0.010449780
      6234.95      0.50793425     0.010211572
      6241.19      0.50535420    0.0099805435
      6247.42      0.49929694     0.010064946
      6253.67      0.49647893     0.011060896
      6259.93      0.49919028     0.010474428
      6266.19      0.49735184     0.010126128
      6272.46      0.49533652    0.0099085333
      6278.73      0.49210227    0.0097148883
      6285.01      0.48796284    0.0098313062
      6291.29      0.48651424    0.0096104997
      6297.58      0.48777272    0.0097225176
      6303.88      0.49047034    0.0094992791
      6310.19      0.49469921    0.0094558107
      6316.50      0.50755240    0.0093500637
      6322.81      0.52126332    0.0093073680
      6329.14      0.53857342    0.0094361539
      6335.47      0.55180344    0.0092505984
      6341.80      0.55791473    0.0093695969
      6348.14      0.56511166    0.0091958587
      6354.49      0.57612514    0.0092036138
      6360.85      0.59457748    0.0092031051
      6367.21      0.60185541    0.0091861823
      6373.57      0.61492314    0.0091465296
      6379.95      0.61930238    0.0091315658
      6386.33      0.61468306    0.0091068602
      6392.72      0.61713447    0.0090711520
      6399.11      0.61472016    0.0090395031
      6405.51      0.60549964    0.0089638728
      6411.92      0.60085416    0.0089439572
      6418.32      0.59763245    0.0089116012
      6424.74      0.59464647    0.0089011717
      6431.17      0.58269659    0.0088724897
      6437.60      0.57797580    0.0088565891
      6444.04      0.57184722    0.0088333878
      6450.48      0.56446029    0.0088136796
      6456.94      0.55325675    0.0086288613
      6463.39      0.54348957    0.0087525998
      6469.85      0.53775994    0.0085960462
      6476.33      0.53288988    0.0087581860
      6482.80      0.53073350    0.0088701083
      6489.28      0.52488658    0.0091993255
      6495.77      0.52179333    0.0096693727
      6502.27      0.51817421     0.010324932
      6508.77      0.52021282    0.0094697820
      6515.28      0.52612941    0.0095153133
      6521.80      0.52419809    0.0098767313
      6528.32      0.52281627     0.010533383
      6534.85      0.53090346     0.011394864
      6541.38      0.54228757     0.012254760
      6547.92      0.53885355     0.013330260
      6554.47      0.52735659     0.014030848
      6561.03      0.52928957     0.014658170
      6567.59      0.52586116     0.014236971
      6574.16      0.51452571     0.013717539
      6580.73      0.51267814     0.013005693
      6587.31      0.50841526     0.012551578
      6593.90      0.49621651     0.011976526
      6600.50      0.47975857     0.012265565
      6607.10      0.46415712     0.013857517
      6613.70      0.44722261     0.012943894
      6620.32      0.43364632     0.012470066
      6626.94      0.41451430     0.011736174
      6633.57      0.40282651     0.011339511
      6640.20      0.39557986     0.011008520
      6646.84      0.38297050     0.010900335
      6653.49      0.37969162     0.010733718
      6660.14      0.37269896     0.010606208
      6666.80      0.37104064     0.010444671
      6673.47      0.35759381     0.010348367
      6680.14      0.35405816     0.010247338
      6686.82      0.35093449     0.010207034
      6693.51      0.35880923     0.010125211
      6700.20      0.36371596     0.010041572
      6706.90      0.37215633     0.010060364
      6713.61      0.36999968    0.0099551518
      6720.32      0.37093210     0.010183324
      6727.05      0.37046759     0.010088472
      6733.77      0.37363506     0.010343909
      6740.51      0.37107404     0.010212208
      6747.25      0.36540279     0.010441888
      6754.00      0.35698744     0.010283105
      6760.75      0.35614742     0.010463482
      6767.51      0.35972973     0.010366767
      6774.28      0.35522782     0.010604958
      6781.05      0.35795836     0.010438345
      6787.84      0.34481462     0.010568372
      6794.62      0.35228908     0.010430510
      6801.42      0.34827615     0.010507434
      6808.22      0.34225091     0.010546384
      6815.03      0.32936585     0.010621450
      6821.85      0.32385485     0.010652834
      6828.67      0.31381266     0.010666972
      6835.50      0.29773604     0.010683931
      6842.33      0.27425161     0.010757255
      6849.17      0.26527102     0.010672265
      6856.02      0.25356032     0.010966863
      6862.88      0.24436846     0.010945625
      6869.74      0.24088945     0.010887033
      6876.61      0.23484577     0.011103414
      6883.49      0.23348199     0.011162364
      6890.37      0.23838151     0.011160239
      6897.27      0.26575773     0.010461271
      6904.16      0.27865914     0.010636821
      6911.07      0.29592530     0.010749251
      6917.98      0.31727486     0.011193134
      6924.89      0.34318870     0.011628842
      6931.82      0.35768326     0.012359241
      6938.75      0.35719708     0.013121078
      6945.69      0.36090819     0.013296522
      6952.64      0.37530390     0.013960992
      6959.59      0.38740339     0.013759227
      6966.55      0.38891190     0.014043740
      6973.52      0.38053411     0.013482514
      6980.49      0.37598145     0.012952018
      6987.47      0.36491609     0.012762032
      6994.46      0.35030167     0.012167531
      7001.46      0.34538111     0.012096016
      7008.46      0.32892742     0.012350759
      7015.46      0.32984437     0.012389087
      7022.48      0.32664574     0.012327391
      7029.51      0.32169955     0.012082750
      7036.53      0.32143238     0.012277746
      7043.57      0.32270384     0.012101406
      7050.62      0.32403000     0.012241486
      7057.66      0.31732061     0.012357068
      7064.72      0.30949633     0.012696127
      7071.79      0.30944771     0.012804291
      7078.86      0.31938640     0.013011226
      7085.94      0.33743468     0.013214378
      7093.03      0.33750262     0.013261879
      7100.12      0.33275706     0.013419838
      7107.22      0.31946732     0.013292928
      7114.33      0.31366340     0.013555848
      7121.44      0.30650730     0.013723073
      7128.56      0.31810959     0.013726674
      7135.69      0.32821199     0.013591976
      7142.83      0.33769754     0.013335785
      7149.97      0.35394489     0.013540555
      7157.12      0.34866800     0.013553964
      7164.28      0.33873731     0.013307662
      7171.44      0.35592459     0.013518584
      7178.62      0.37407982     0.013363302
      7185.80      0.39051690     0.013528761
      7192.98      0.39444333     0.013431752
      7200.17      0.41392150     0.013208853
      7207.38      0.42498175     0.013516736
      7214.58      0.43999102     0.013297293
      7221.80      0.45225804     0.013067919
      7229.02      0.45556404     0.013054246
      7236.25      0.46684011     0.012688891
      7243.49      0.48055631     0.012464932
      7250.73      0.49857528     0.012465530
      7257.98      0.51571025     0.012079033
      7265.24      0.53532479     0.011827111
      7272.51      0.54780243     0.011711765
      7279.78      0.56896693     0.011543265
      7287.06      0.58543818     0.011358766
      7294.35      0.59310828     0.011232838
      7301.64      0.59511361     0.011045214
      7308.94      0.60847011     0.010978580
      7316.25      0.60954238     0.010940660
      7323.57      0.60424734     0.010806333
      7330.89      0.59075534     0.010516390
      7338.22      0.58181385     0.010634762
      7345.56      0.55483488     0.010592183
      7352.91      0.53628828     0.010470971
      7360.26      0.51878711     0.010634554
      7367.62      0.49567381     0.010804214
      7374.99      0.47348133     0.010833436
      7382.37      0.44856548     0.011172522
      7389.75      0.42715489     0.011341227
      7397.14      0.41234765     0.011274529
      7404.53      0.40331824     0.011579075
      7411.94      0.40801464     0.011714272
      7419.35      0.41150941     0.011503810
      7426.77      0.40877837     0.011454905
      7434.20      0.40393131     0.011595926
      7441.63      0.38465190     0.011535561
      7449.07      0.37111465     0.011884646
      7456.52      0.36171327     0.012503963
      7463.98      0.35177565     0.012975237
      7471.45      0.33953709     0.013178381
      7478.92      0.32270931     0.013581010
      7486.40      0.30497702     0.013719403
      7493.88      0.28465597     0.014384185
      7501.38      0.26661764     0.015127679
      7508.88      0.25344709     0.015664350
      7516.39      0.22664807     0.016239072
      7523.91      0.21710799     0.016452153
      7531.43      0.21576749     0.016683358
      7538.96      0.22180948     0.016402812
      7546.50      0.22548892     0.016493392
      7554.05      0.21639851     0.016032465
      7561.60      0.21777091     0.015975221
      7569.16      0.22013682     0.015698398
      7576.73      0.22039459     0.015409558
      7584.31      0.22070942     0.015084367
      7591.89      0.23618947     0.015468340
      7599.49      0.25836452     0.017050801
      7607.09      0.25153591     0.016229558
      7614.70      0.25392238     0.015742101
      7622.31      0.26051426     0.015265655
      7629.93      0.27501615     0.014933158
      7637.56      0.28061253     0.014791890
      7645.20      0.29199590     0.014814515
      7652.85      0.29178923     0.014525343
      7660.50      0.28776715     0.014036867
      7668.16      0.30284653     0.013784130
      7675.83      0.31860706     0.013873720
      7683.50      0.32858145     0.013578884
      7691.19      0.33199707     0.013338140
      7698.88      0.34064347     0.013146249
      7706.58      0.35481702     0.013317533
      7714.29      0.36616857     0.013151232
      7722.00      0.37756031     0.013069182
      7729.73      0.39638967     0.012972231
      7737.45      0.40595845     0.013021940
      7745.19      0.40277946     0.013191737
      7752.94      0.40780841     0.013349500
      7760.69      0.42437157     0.013512285
      7768.45      0.43671462     0.013649780
      7776.22      0.45046510     0.014091742
      7784.00      0.45127115     0.014630455
      7791.78      0.43605736     0.015019933
      7799.57      0.42524444     0.014936402
      7807.37      0.42586002     0.015255279
      7815.18      0.43315769     0.015354075
      7822.99      0.43311492     0.015349453
      7830.82      0.43839975     0.015098995
      7838.65      0.44142683     0.015276073
      7846.49      0.44543246     0.015026596
      7854.34      0.44735907     0.014726851
      7862.19      0.44820128     0.014375003
      7870.05      0.44431621     0.014522334
      7877.93      0.44335206     0.014878570
      7885.80      0.43028425     0.015455486
      7893.69      0.41811061     0.015808322
      7901.58      0.41135622     0.016325707
      7909.49      0.40564338     0.016682028
      7917.40      0.39177822     0.017207212
      7925.31      0.37884904     0.017240986
      7933.24      0.35546039     0.017641852
      7941.17      0.33971116     0.017895926
      7949.11      0.32269951     0.017953985
      7957.06      0.31218590     0.018128030
      7965.02      0.29469379     0.017742126
      7972.98      0.27745937     0.017827088
      7980.96      0.29036700     0.018251239
      7988.94      0.28336891     0.018530759
      7996.93      0.27690033     0.018378410
      8004.93      0.26778183     0.018905717
      8012.93      0.25835309     0.019466654
      8020.95      0.24705144     0.020174116
      8028.97      0.24563386     0.018592353
      8036.99      0.23733379     0.018735279
      8045.03      0.23447204     0.019513588
      8053.08      0.24048754     0.020215773
      8061.13      0.24526441     0.020411375
      8069.20      0.24949461     0.020651496
      8077.26      0.25797665     0.020689542
      8085.34      0.26017961     0.020854143
      8093.43      0.27165889     0.020446801
      8101.52      0.27088481     0.020272274
      8109.62      0.26267701     0.019304782
      8117.73      0.26539592     0.018290127
      8125.85      0.26716702     0.017661244
      8133.98      0.26441279     0.017043552
      8142.11      0.25843236     0.016385213
      8150.25      0.25829318     0.016290081
      8158.41      0.23761924     0.016995310
      8166.56      0.22785638     0.016137789
      8174.73      0.22007841     0.015507753
      8182.91      0.22062861     0.015019344
      8191.09      0.21909280     0.014976124
      8199.28      0.22144839     0.014902338
      8207.48      0.21918075     0.014638548
      8215.69      0.21379269     0.014710430
      8223.91      0.20198523     0.014695885
      8232.13      0.19652505     0.014849146
      8240.36      0.18716868     0.015087547
      8248.60      0.18522508     0.015272960
      8256.85      0.18634060     0.015355965
      8265.11      0.18924004     0.015253665
      8273.37      0.18953795     0.015446056
      8281.65      0.18660661     0.015856115
      8289.93      0.18198940     0.016180908
      8298.22      0.17783990     0.016397598
      8306.52      0.16896113     0.016558983
      8314.83      0.15721046     0.016503093
      8323.14      0.16511818     0.017055656
      8331.46      0.17757204     0.017761233
      8339.80      0.20322206     0.018671618
      8348.13      0.22949144     0.019891219
      8356.48      0.24593902     0.021520437
      8364.84      0.25559897     0.024002259
      8373.21      0.27748680     0.029394198
      8381.58      0.32021750     0.036970628
      8389.96      0.40184253     0.049446074
