# starting wavelength =        2518.5806
# ending wavelength =        7992.0452
# O2 telluric scale =        0
# O2 telluric shift =        0
# H2O telluric scale =        0
# H2O telluric shift =        0
      2520.81      0.44011646      0.15503914
      2523.33      0.49313904      0.15129616
      2525.86      0.49069317      0.14775237
      2528.38      0.46175494      0.14338337
      2530.91      0.43148582      0.14083683
      2533.44      0.38833722      0.13826957
      2535.98      0.40039976      0.13588150
      2538.51      0.42718310      0.13374883
      2541.05      0.46492213      0.13140832
      2543.59      0.47471589      0.12805533
      2546.13      0.49653319      0.12600596
      2548.68      0.45510381      0.12379944
      2551.23      0.43409741      0.12186864
      2553.78      0.47322841      0.11968940
      2556.34      0.44853833      0.11753206
      2558.89      0.42199408      0.11557132
      2561.45      0.40061588      0.11237212
      2564.01      0.40968088      0.11033660
      2566.58      0.39817826      0.10809585
      2569.14      0.38779189      0.10585863
      2571.71      0.39857377      0.10375357
      2574.28      0.39795495      0.10157281
      2576.86      0.37679751     0.098989893
      2579.44      0.35516252     0.096954486
      2582.01      0.35202407     0.094856023
      2584.60      0.33609165     0.092984351
      2587.18      0.33149636     0.091013022
      2589.77      0.34738563     0.089363121
      2592.36      0.38492766     0.087121118
      2594.95      0.38580944     0.085985568
      2597.55      0.41312270     0.084777146
      2600.14      0.41576995     0.083697546
      2602.74      0.38907617     0.082648919
      2605.35      0.37945680     0.081022756
      2607.95      0.37465248     0.080332989
      2610.56      0.39097911     0.079395845
      2613.17      0.41634824     0.078709199
      2615.79      0.43778854     0.077755442
      2618.40      0.41675864     0.076179271
      2621.02      0.39574660     0.075322129
      2623.64      0.39642721     0.074178394
      2626.26      0.38780863     0.073187922
      2628.89      0.40156681     0.071984822
      2631.52      0.41157340     0.070448872
      2634.15      0.38993229     0.069250927
      2636.79      0.40304964     0.068264753
      2639.42      0.39654406     0.067141145
      2642.06      0.39170494     0.066285534
      2644.70      0.35799358     0.064941633
      2647.35      0.36151480     0.064229153
      2650.00      0.34377431     0.063427327
      2652.65      0.31412554     0.062705720
      2655.30      0.32907591     0.061772939
      2657.96      0.35228928     0.061092432
      2660.61      0.34781853     0.060661698
      2663.27      0.35572272     0.060094402
      2665.94      0.35469069     0.059840749
      2668.60      0.33723242     0.058980901
      2671.27      0.31995055     0.058642589
      2673.94      0.31043410     0.058068281
      2676.62      0.30948914     0.057711810
      2679.29      0.33629051     0.056763248
      2681.97      0.35882327     0.056485760
      2684.66      0.36816006     0.056047656
      2687.34      0.36653082     0.055907340
      2690.03      0.35614561     0.055204507
      2692.72      0.36136850     0.055090828
      2695.41      0.36685967     0.054686776
      2698.11      0.38569703     0.054493576
      2700.81      0.42162448     0.053643554
      2703.51      0.43689142     0.053364251
      2706.21      0.46237548     0.052845392
      2708.92      0.47958703     0.052489141
      2711.62      0.47961690     0.051764319
      2714.34      0.49976094     0.051275491
      2717.05      0.52595270     0.050989081
      2719.77      0.53459256     0.050422571
      2722.49      0.54955432     0.049580895
      2725.21      0.58212607     0.048973579
      2727.94      0.59313376     0.048573844
      2730.66      0.60547015     0.047809328
      2733.39      0.62511690     0.047680468
      2736.13      0.62524397     0.047487637
      2738.86      0.61437739     0.047593562
      2741.60      0.62014789     0.047490897
      2744.34      0.63180541     0.047469913
      2747.09      0.65296203     0.047744617
      2749.84      0.66631752     0.047435233
      2752.59      0.66172315     0.047702936
      2755.34      0.66581139     0.047650227
      2758.09      0.68458124     0.047848637
      2760.85      0.70754945     0.047325620
      2763.61      0.72881940     0.047285904
      2766.38      0.75396296     0.047138910
      2769.14      0.76191156     0.046322231
      2771.91      0.75365155     0.046024171
      2774.69      0.76317378     0.045555878
      2777.46      0.74314374     0.044940472
      2780.24      0.75528859     0.044714368
      2783.02      0.76252688     0.044317650
      2785.80      0.77031999     0.044118914
      2788.59      0.77648929     0.043455177
      2791.38      0.76909339     0.043672262
      2794.17      0.77710175     0.043400092
      2796.96      0.76545016     0.042717837
      2799.76      0.75209322     0.042691983
      2802.56      0.74138810     0.042554596
      2805.36      0.72589377     0.042468640
      2808.17      0.71367834     0.042693401
      2810.98      0.72127197     0.042707159
      2813.79      0.72664681     0.042678512
      2816.60      0.73780730     0.042927267
      2819.42      0.74400852     0.042836277
      2822.24      0.78042527     0.042639367
      2825.06      0.78505058     0.042404319
      2827.88      0.78030707     0.042360192
      2830.71      0.77051677     0.041908993
      2833.54      0.77252173     0.041520591
      2836.38      0.76125801     0.041317128
      2839.21      0.74172422     0.040799799
      2842.05      0.74608533     0.040383206
      2844.90      0.76840270     0.039865439
      2847.74      0.78037912     0.039692093
      2850.59      0.77408499     0.039375186
      2853.44      0.77483226     0.039089814
      2856.29      0.77224300     0.038848481
      2859.15      0.77034511     0.038580153
      2862.01      0.78364414     0.038307001
      2864.87      0.77929831     0.038401558
      2867.74      0.77463887     0.038282888
      2870.60      0.79795978     0.038139607
      2873.47      0.80819228     0.038246555
      2876.35      0.81777275     0.037792563
      2879.22      0.83645297     0.037812280
      2882.10      0.85122234     0.037968111
      2884.99      0.85142491     0.037334296
      2887.87      0.86758183     0.037371022
      2890.76      0.88434731     0.037210690
      2893.65      0.88133469     0.037413150
      2896.54      0.87858390     0.037389222
      2899.44      0.89223242     0.037385728
      2902.34      0.90137380     0.037026729
      2905.24      0.90024055     0.037115256
      2908.15      0.89945389     0.036504107
      2911.06      0.89422192     0.036332295
      2913.97      0.90920619     0.035590857
      2916.88      0.90474259     0.035317777
      2919.80      0.91825761     0.034767377
      2922.72      0.94288875     0.034093417
      2925.64      0.95593906     0.033934411
      2928.57      0.97355483     0.033399627
      2931.50      0.97960724     0.033405218
      2934.43      0.98986896     0.033003367
      2937.36      0.99961646     0.032874504
      2940.30       1.0038653     0.032528317
      2943.24       1.0122064     0.032313247
      2946.18       1.0146091     0.032136775
      2949.13       1.0039906     0.031951409
      2952.08       1.0108864     0.031723095
      2955.03       1.0000177     0.031601646
      2957.99      0.99891978     0.031513526
      2960.94      0.98630274     0.031219276
      2963.90      0.96486881     0.031361113
      2966.87      0.95632749     0.031275084
      2969.84      0.93206603     0.030956236
      2972.81      0.90979161     0.031074364
      2975.78      0.89077420     0.030671138
      2978.76      0.87952161     0.030395185
      2981.73      0.85778200     0.030337053
      2984.72      0.83536960     0.029798178
      2987.70      0.80218110     0.029412232
      2990.69      0.78337606     0.029116725
      2993.68      0.77990359     0.028703647
      2996.67      0.78053117     0.028302383
      2999.67      0.77275951     0.028040092
      3002.67      0.77247947     0.027755631
      3005.67      0.78551763     0.027469158
      3008.68      0.80007527     0.027244634
      3011.69      0.80273055     0.026981524
      3014.70      0.80689960     0.026626000
      3017.71      0.81237562     0.026679244
      3020.73      0.81647411     0.026598866
      3023.75      0.82942166     0.026385693
      3026.78      0.83805857     0.026543924
      3029.80      0.83805955     0.026565625
      3032.83      0.83675544     0.026361271
      3035.87      0.84829194     0.026465022
      3038.90      0.84783083     0.026321423
      3041.94      0.83481840     0.025977143
      3044.98      0.83393741     0.025789735
      3048.03      0.84388911     0.025638132
      3051.08      0.84468478     0.025455655
      3054.13      0.84606061     0.025332952
      3057.18      0.83850979     0.025271756
      3060.24      0.83379925     0.025203794
      3063.30      0.81418827     0.025114735
      3066.36      0.81560643     0.024821373
      3069.43      0.80827785     0.024847223
      3072.50      0.80461552     0.024682915
      3075.57      0.81160039     0.024542193
      3078.65      0.81249833     0.024270211
      3081.73      0.80801620     0.024319853
      3084.81      0.80713570     0.024260071
      3087.89      0.80684284     0.024074652
      3090.98      0.81976654     0.024070979
      3094.07      0.82521778     0.024233535
      3097.17      0.82335753     0.024070237
      3100.26      0.83036368     0.024071609
      3103.36      0.84287429     0.024057526
      3106.47      0.83988115     0.024188521
      3109.58      0.84339494     0.023989152
      3112.68      0.84131534     0.023944366
      3115.80      0.84254414     0.023879787
      3118.91      0.84430411     0.023813309
      3122.03      0.84557932     0.023716035
      3125.15      0.86430047     0.023641818
      3128.28      0.88224240     0.023551476
      3131.41      0.88113162     0.023298477
      3134.54      0.88905151     0.023380701
      3137.67      0.88522816     0.023325037
      3140.81      0.88879167     0.023288624
      3143.95      0.89044849     0.023111619
      3147.10      0.91024462     0.023070100
      3150.24      0.92311982     0.023179824
      3153.39      0.93322496     0.023123766
      3156.55      0.94719111     0.022906249
      3159.70      0.95449563     0.022827119
      3162.86      0.96914971     0.022725674
      3166.03      0.97481616     0.022620792
      3169.19      0.97492387     0.022520953
      3172.36      0.97255735     0.022381715
      3175.54      0.99128333     0.022188067
      3178.71      0.99041855     0.022058758
      3181.89       1.0016514     0.021711899
      3185.07       1.0090314     0.021573652
      3188.26       1.0091337     0.021631735
      3191.45      0.98679152     0.021583750
      3194.64      0.97594758     0.021584442
      3197.83      0.95425599     0.021470196
      3201.03      0.94664806     0.021467905
      3204.23      0.93666486     0.021447933
      3207.44      0.92981060     0.021385486
      3210.64      0.92623071     0.021457553
      3213.85      0.92831863     0.021216521
      3217.07      0.93131857     0.021125616
      3220.28      0.93074420     0.021062585
      3223.51      0.93437137     0.020991869
      3226.73      0.93017343     0.020923724
      3229.96      0.93541941     0.020881049
      3233.19      0.93653879     0.020729822
      3236.42      0.95191093     0.020869354
      3239.66      0.95323586     0.020904037
      3242.90      0.97217695     0.020662148
      3246.14      0.97121543     0.020513222
      3249.39      0.96754506     0.020348183
      3252.64      0.96501765     0.020068013
      3255.89      0.96871168     0.019918569
      3259.14      0.96244262     0.019783117
      3262.40      0.96646603     0.019663209
      3265.67      0.96094286     0.019567572
      3268.93      0.94746018     0.019464545
      3272.20      0.94889767     0.019495741
      3275.47      0.94965648     0.019330288
      3278.75      0.94785342     0.019204982
      3282.03      0.95197472     0.019157394
      3285.31      0.95279352     0.019134086
      3288.60      0.94800563     0.019138838
      3291.88      0.95778153     0.019162192
      3295.18      0.94824304     0.019211598
      3298.47      0.96204997     0.019245288
      3301.77      0.96672530     0.019143820
      3305.07      0.97144568     0.019125363
      3308.38      0.97052139     0.019077893
      3311.69      0.98430269     0.019009231
      3315.00      0.99108767     0.018930392
      3318.31       1.0026516     0.018840282
      3321.63       1.0007265     0.018737302
      3324.95       1.0122229     0.018628099
      3328.28       1.0117336     0.018574799
      3331.61       1.0043936     0.018610362
      3334.94       1.0058514     0.019068597
      3338.27       1.0150970     0.018934185
      3341.61       1.0089619     0.018473385
      3344.95       1.0128591     0.018529198
      3348.30       1.0122047     0.018766224
      3351.65       1.0115686     0.019117470
      3355.00       1.0146744     0.019459854
      3358.35       1.0138689     0.019780982
      3361.71       1.0120872     0.020043231
      3365.07       1.0049751     0.020224310
      3368.44      0.99390828     0.020251129
      3371.81      0.99093040     0.020072541
      3375.18       1.0063429     0.019802216
      3378.56       1.0109911     0.019463878
      3381.94       1.0208065     0.019080864
      3385.32       1.0202700     0.018701607
      3388.70       1.0295466     0.018353461
      3392.09       1.0335735     0.018138937
      3395.48       1.0304474     0.018177873
      3398.88       1.0297916     0.018649625
      3402.28       1.0373055     0.018285996
      3405.68       1.0504096     0.018002814
      3409.09       1.0614525     0.017937209
      3412.49       1.0766108     0.018006292
      3415.91       1.0798560     0.018105625
      3419.32       1.0809373     0.018175485
      3422.74       1.0832770     0.018232580
      3426.17       1.0741607     0.018286364
      3429.59       1.0687763     0.018320524
      3433.02       1.0731648     0.018327141
      3436.45       1.0709144     0.018294749
      3439.89       1.0767091     0.018240402
      3443.33       1.0701458     0.018164568
      3446.78       1.0609764     0.017955701
      3450.22       1.0584733     0.017875625
      3453.67       1.0614903     0.017800972
      3457.13       1.0614327     0.017730777
      3460.58       1.0632788     0.017660628
      3464.04       1.0673803     0.017607802
      3467.51       1.0786760     0.017559726
      3470.98       1.0898824     0.017519219
      3474.45       1.0891877     0.017386947
      3477.92       1.1002849     0.017376057
      3481.40       1.1088762     0.017481878
      3484.88       1.1162795     0.017484617
      3488.37       1.1234219     0.017482518
      3491.86       1.1256525     0.017478212
      3495.35       1.1297493     0.017475765
      3498.84       1.1378544     0.017380269
      3502.34       1.1254330     0.017392983
      3505.84       1.1147899     0.017408306
      3509.35       1.1174636     0.017424186
      3512.86       1.1276030     0.017436668
      3516.37       1.1304568     0.017580753
      3519.89       1.1363242     0.017517875
      3523.41       1.1447614     0.017462145
      3526.93       1.1553800     0.017467818
      3530.46       1.1537793     0.017514462
      3533.99       1.1539944     0.017911119
      3537.53       1.1691137     0.017698703
      3541.06       1.1727331     0.017595894
      3544.60       1.1817310     0.017705443
      3548.15       1.1870519     0.018021354
      3551.70       1.1869053     0.018267278
      3555.25       1.1920167     0.018445000
      3558.80       1.1839483     0.018598499
      3562.36       1.1795927     0.018665513
      3565.92       1.1730326     0.018644172
      3569.49       1.1583872     0.018396951
      3573.06       1.1552340     0.018161752
      3576.64       1.1569966     0.017898990
      3580.21       1.1528455     0.017658098
      3583.79       1.1429271     0.017374080
      3587.38       1.1380575     0.017148540
      3590.96       1.1369310     0.016936987
      3594.55       1.1284853     0.016811132
      3598.15       1.1213051     0.016753964
      3601.75       1.1207944     0.017066391
      3605.35       1.1182552     0.016858267
      3608.96       1.1186512     0.016750088
      3612.56       1.1251789     0.016654957
      3616.18       1.1275824     0.016662060
      3619.79       1.1259955     0.016676487
      3623.41       1.1388347     0.016585508
      3627.04       1.1429519     0.016683891
      3630.66       1.1463598     0.016672226
      3634.29       1.1607351     0.016551620
      3637.93       1.1716745     0.016527819
      3641.57       1.1772985     0.016600888
      3645.21       1.1778269     0.016479183
      3648.86       1.1896930     0.016458919
      3652.50       1.1959064     0.016439337
      3656.16       1.1962132     0.016410117
      3659.81       1.1912139     0.016391188
      3663.47       1.1953067     0.016373520
      3667.14       1.1998360     0.016263859
      3670.80       1.2055821     0.016346602
      3674.48       1.2059344     0.016326254
      3678.15       1.2051302     0.016206224
      3681.83       1.2073639     0.016182505
      3685.51       1.1984661     0.016248256
      3689.20       1.1924261     0.016132808
      3692.88       1.1939439     0.016536576
      3696.58       1.1885310     0.017102657
      3700.27       1.1813515     0.017011602
      3703.98       1.1892151     0.016266708
      3707.68       1.1742916     0.016291373
      3711.39       1.1641661     0.016678062
      3715.10       1.1598262     0.017189693
      3718.81       1.1569726     0.017695239
      3722.53       1.1424155     0.018367673
      3726.26       1.1180746     0.018768342
      3729.98       1.1115255     0.019096076
      3733.71       1.1159160     0.019284291
      3737.45       1.0977996     0.018877389
      3741.18       1.0832317     0.018445917
      3744.93       1.0605783     0.017911639
      3748.67       1.0478246     0.017361808
      3752.42       1.0416132     0.016867338
      3756.17       1.0391601     0.016488919
      3759.93       1.0445922     0.016299621
      3763.69       1.0490989     0.017734452
      3767.45       1.0409189     0.017000811
      3771.22       1.0411022     0.016357065
      3774.99       1.0325666     0.016025935
      3778.77       1.0268468     0.015895953
      3782.54       1.0394948     0.015945987
      3786.33       1.0413531     0.015843402
      3790.11       1.0496345     0.015838546
      3793.90       1.0577987     0.015842879
      3797.70       1.0685168     0.015848040
      3801.50       1.0759561     0.015850864
      3805.30       1.0771734     0.015863295
      3809.10       1.0775236     0.015791863
      3812.91       1.0769316     0.015887117
      3816.73       1.0831125     0.015809148
      3820.54       1.1004799     0.015914089
      3824.36       1.1123207     0.015851741
      3828.19       1.1291986     0.015959449
      3832.02       1.1389070     0.015890407
      3835.85       1.1446854     0.015910471
      3839.68       1.1439011     0.015940525
      3843.52       1.1660493     0.015869512
      3847.37       1.1749905     0.015978917
      3851.22       1.1948707     0.015908045
      3855.07       1.2100541     0.016004851
      3858.92       1.2113011     0.015932498
      3862.78       1.2300202     0.016031253
      3866.64       1.2401278     0.015945738
      3870.51       1.2360886     0.016041903
      3874.38       1.2336175     0.015947492
      3878.26       1.2292034     0.015950513
      3882.13       1.2355110     0.015947523
      3886.02       1.2423067     0.015935444
      3889.90       1.2512355     0.015935321
      3893.79       1.2624261     0.015930242
      3897.69       1.2783915     0.015838487
      3901.59       1.2803220     0.015918316
      3905.49       1.2857993     0.015821908
      3909.39       1.2887988     0.015831689
      3913.30       1.2958870     0.015833801
      3917.22       1.3033528     0.015830936
      3921.13       1.3085758     0.015831362
      3925.06       1.3136870     0.015835971
      3928.98       1.3189972     0.015841331
      3932.91       1.3233434     0.015849397
      3936.84       1.3378561     0.015857881
      3940.78       1.3328350     0.015781250
      3944.72       1.3180746     0.015884530
      3948.67       1.3145272     0.015806975
      3952.61       1.3130062     0.015811048
      3956.57       1.3179476     0.015896394
      3960.52       1.3169854     0.015811585
      3964.48       1.3019905     0.015821067
      3968.45       1.2939979     0.015834528
      3972.42       1.2870605     0.015848160
      3976.39       1.2601137     0.015866290
      3980.37       1.2511278     0.015811541
      3984.35       1.2467906     0.015927436
      3988.33       1.2357694     0.015859530
      3992.32       1.2240234     0.015904945
      3996.31       1.2260615     0.016070377
      4000.31       1.2363206     0.016002495
      4004.31       1.2410755     0.015949818
      4008.31       1.2501450     0.015941416
      4012.32       1.2647509     0.015958242
      4016.33       1.2653081     0.016027780
      4020.35       1.2677101     0.016111670
      4024.37       1.2746225     0.016113870
      4028.40       1.2872626     0.016297243
      4032.42       1.2874490     0.016389955
      4036.46       1.2861382     0.016372071
      4040.50       1.2800821     0.016450604
      4044.54       1.2701154     0.016494174
      4048.58       1.2740816     0.016491753
      4052.63       1.2674546     0.016478690
      4056.68       1.2700603     0.016468807
      4060.74       1.2732121     0.016418127
      4064.80       1.2638598     0.016285033
      4068.86       1.2507312     0.016394984
      4072.93       1.2488936     0.016487123
      4077.01       1.2410367     0.016425128
      4081.08       1.2239200     0.016387043
      4085.17       1.2154508     0.016402909
      4089.25       1.2164218     0.016433140
      4093.34       1.1997955     0.016467732
      4097.43       1.1922154     0.016507799
      4101.53       1.1926926     0.016562495
      4105.63       1.1834060     0.016629896
      4109.74       1.1784126     0.016594087
      4113.85       1.1738700     0.016663854
      4117.96       1.1691401     0.016741057
      4122.08       1.1707459     0.016794906
      4126.20       1.1888013     0.016913233
      4130.33       1.1896430     0.016878179
      4134.46       1.2000852     0.016939955
      4138.59       1.2104161     0.016968396
      4142.73       1.2150156     0.016995474
      4146.88       1.2176074     0.017021544
      4151.02       1.2289234     0.016947933
      4155.18       1.2165366     0.016971858
      4159.33       1.2168016     0.016985237
      4163.49       1.2207930     0.017005174
      4167.65       1.2228613     0.017021449
      4171.82       1.2229988     0.017019872
      4175.99       1.2363878     0.017030981
      4180.17       1.2443744     0.017078998
      4184.35       1.2415902     0.017104385
      4188.54       1.2404681     0.017125025
      4192.72       1.2376847     0.017146092
      4196.92       1.2343978     0.017170411
      4201.11       1.2432121     0.017193544
      4205.31       1.2396026     0.017137203
      4209.52       1.2325568     0.017187160
      4213.73       1.2239996     0.017258638
      4217.94       1.2144938     0.017347972
      4222.16       1.2111406     0.017451989
      4226.38       1.2078924     0.017566539
      4230.61       1.2079018     0.017691230
      4234.84       1.2024374     0.017830557
      4239.08       1.2232747     0.017964138
      4243.32       1.2213350     0.018105699
      4247.56       1.2141436     0.018225065
      4251.81       1.2246562     0.018309229
      4256.06       1.2360516     0.018314277
      4260.32       1.2440771     0.018480606
      4264.58       1.2467336     0.018615065
      4268.84       1.2494059     0.018743134
      4273.11       1.2525167     0.018896278
      4277.38       1.2383297     0.019084546
      4281.66       1.2318038     0.019286521
      4285.94       1.2210147     0.019625069
      4290.23       1.2044030     0.020072791
      4294.52       1.1897509     0.020099920
      4298.81       1.1730598     0.020345987
      4303.11       1.1678912     0.020822047
      4307.42       1.1657579     0.021477757
      4311.72       1.1686647     0.022245796
      4316.04       1.1662670     0.023080113
      4320.35       1.1619569     0.023932910
      4324.67       1.1383612     0.024760090
      4329.00       1.1267523     0.025465922
      4333.33       1.1402868     0.026000241
      4337.66       1.1413645     0.026353110
      4342.00       1.1398851     0.026520674
      4346.34       1.1430433     0.026500938
      4350.69       1.1475961     0.026342775
      4355.04       1.1465906     0.026176930
      4359.39       1.1370027     0.026101543
      4363.75       1.1321379     0.026229714
      4368.12       1.1295984     0.026853077
      4372.48       1.1169972     0.027423528
      4376.86       1.1195649     0.027102585
      4381.23       1.1300924     0.027155622
      4385.61       1.1503213     0.027257656
      4390.00       1.1671153     0.027332826
      4394.39       1.1722900     0.027375673
      4398.79       1.1790928     0.027343331
      4403.18       1.2033857     0.027284597
      4407.59       1.2129748     0.027200325
      4412.00       1.2363732     0.027079747
      4416.41       1.2467322     0.026956667
      4420.82       1.2690138     0.026810256
      4425.25       1.2950678     0.026644670
      4429.67       1.3093272     0.026447316
      4434.10       1.3218963     0.026227133
      4438.54       1.3302336     0.025985402
      4442.97       1.3443687     0.025741848
      4447.42       1.3479500     0.025494293
      4451.86       1.3539572     0.025254986
      4456.32       1.3556924     0.025016537
      4460.77       1.3591265     0.024782639
      4465.24       1.3561827     0.024415303
      4469.70       1.3542801     0.024205988
      4474.17       1.3687636     0.023996514
      4478.65       1.3591160     0.023800729
      4483.12       1.3694851     0.023607276
      4487.61       1.3892421     0.023424078
      4492.09       1.3940711     0.023248833
      4496.59       1.4143950     0.023076582
      4501.08       1.4356041     0.022911249
      4505.58       1.4784291     0.022738951
      4510.09       1.5123412     0.022592697
      4514.60       1.5236963     0.022437559
      4519.12       1.5527228     0.022126875
      4523.63       1.5855689     0.021970550
      4528.16       1.6173411     0.021985642
      4532.69       1.6359996     0.022031477
      4537.22       1.6316934     0.021767217
      4541.76       1.6476956     0.021597198
      4546.30       1.6330541     0.021640770
      4550.85       1.6249390     0.021802699
      4555.40       1.6257420     0.021931387
      4559.95       1.6057162     0.022253771
      4564.51       1.5806500     0.022431201
      4569.08       1.5805568     0.022513324
      4573.65       1.5717439     0.022548438
      4578.22       1.5559039     0.022503476
      4582.80       1.5489236     0.022191982
      4587.38       1.5361466     0.021965983
      4591.97       1.5325262     0.022433963
      4596.56       1.5229984     0.021653233
      4601.16       1.5104269     0.021258707
      4605.76       1.5165869     0.021079871
      4610.37       1.5180057     0.021097609
      4614.98       1.5204593     0.021388507
      4619.59       1.5116441     0.021660892
      4624.21       1.5129524     0.021663941
      4628.84       1.5182017     0.021679992
      4633.47       1.5024942     0.021572100
      4638.10       1.4992579     0.021522790
      4642.74       1.5001979     0.021335415
      4647.38       1.4840953     0.021168813
      4652.03       1.4836798     0.020757172
      4656.68       1.4807649     0.020421886
      4661.34       1.4736300     0.020134591
      4666.00       1.4568488     0.019890454
      4670.67       1.4442472     0.019606635
      4675.33       1.4205876     0.019574470
      4680.01       1.4003291     0.020029348
      4684.69       1.3830541     0.019471315
      4689.38       1.3625622     0.019297742
      4694.07       1.3465244     0.019229618
      4698.76       1.3328668     0.019166705
      4703.46       1.3278173     0.019183285
      4708.16       1.3105110     0.019014149
      4712.87       1.3188955     0.018937280
      4717.58       1.3176283     0.018874554
      4722.30       1.3175493     0.018727985
      4727.03       1.3190926     0.018759406
      4731.75       1.3204523     0.018692729
      4736.48       1.3174257     0.018622305
      4741.22       1.3195434     0.018470638
      4745.96       1.3281225     0.018513428
      4750.71       1.3403748     0.018452069
      4755.46       1.3460861     0.018293885
      4760.22       1.3471100     0.018284597
      4764.97       1.3406590     0.018202646
      4769.74       1.3428658     0.018151461
      4774.51       1.3372033     0.018106677
      4779.29       1.3484551     0.018060999
      4784.07       1.3379212     0.018016084
      4788.85       1.3385283     0.017947058
      4793.64       1.3307517     0.017824084
      4798.43       1.3219058     0.017751040
      4803.23       1.3203529     0.017708856
      4808.03       1.3054576     0.017531936
      4812.84       1.2874792     0.017520637
      4817.66       1.2733433     0.017527995
      4822.48       1.2630366     0.017363888
      4827.30       1.2640344     0.017331213
      4832.12       1.2591236     0.017224563
      4836.96       1.2623441     0.017281935
      4841.79       1.2677510     0.017355734
      4846.63       1.2664448     0.017428371
      4851.48       1.2589825     0.017306412
      4856.33       1.2711705     0.017044542
      4861.19       1.2788967     0.017137368
      4866.05       1.2883840     0.017319122
      4870.92       1.2989452     0.017476399
      4875.79       1.3013665     0.017613069
      4880.66       1.3075369     0.017744535
      4885.55       1.3052633     0.017810401
      4890.43       1.3021898     0.017795706
      4895.32       1.3012945     0.017658722
      4900.22       1.3000696     0.017112912
      4905.12       1.2872421     0.016839876
      4910.02       1.2811810     0.016430574
      4914.94       1.2732587     0.016141173
      4919.85       1.2591354     0.015860599
      4924.77       1.2546499     0.015681995
      4929.70       1.2394150     0.015580430
      4934.62       1.2321024     0.015617480
      4939.56       1.2246584     0.015560273
      4944.50       1.2047146     0.015305860
      4949.44       1.1938628     0.015031230
      4954.39       1.1816613     0.014944255
      4959.35       1.1772854     0.014706216
      4964.31       1.1714562     0.014602804
      4969.27       1.1721338     0.014374818
      4974.24       1.1633817     0.014281972
      4979.22       1.1584609     0.014194636
      4984.20       1.1535215     0.014185633
      4989.18       1.1613058     0.014220431
      4994.17       1.1585838     0.014152621
      4999.16       1.1544480     0.014214688
      5004.16       1.1602372     0.014171344
      5009.17       1.1576863     0.014260203
      5014.18       1.1591688     0.014236099
      5019.19       1.1628617     0.014351649
      5024.21       1.1558129     0.014353181
      5029.23       1.1628976     0.014426838
      5034.26       1.1653304     0.014359184
      5039.30       1.1516076     0.014421812
      5044.34       1.1533910     0.014349545
      5049.39       1.1539949     0.014296727
      5054.43       1.1548853     0.014267339
      5059.49       1.1554928     0.014333838
      5064.55       1.1590241     0.014223399
      5069.61       1.1508423     0.014310606
      5074.68       1.1532961     0.014266267
      5079.76       1.1539311     0.014338824
      5084.84       1.1532602     0.014257316
      5089.92       1.1549056     0.014258006
      5095.01       1.1588547     0.014252510
      5100.11       1.1630014     0.014131159
      5105.21       1.1704038     0.013933555
      5110.31       1.1778033     0.013841924
      5115.42       1.1810722     0.013688148
      5120.54       1.1873621     0.013497955
      5125.66       1.2019727     0.013395728
      5130.79       1.1971269     0.013224609
      5135.92       1.1997099     0.013394125
      5141.05       1.2073520     0.013106452
      5146.20       1.2143547     0.012912585
      5151.34       1.2188998     0.012901399
      5156.49       1.2237881     0.012933596
      5161.65       1.2284878     0.012978889
      5166.81       1.2274309     0.013051024
      5171.98       1.2384156     0.013075618
      5177.15       1.2381832     0.013189274
      5182.33       1.2447719     0.013127538
      5187.51       1.2584334     0.013114987
      5192.70       1.2615180     0.013049795
      5197.89       1.2687592     0.012949586
      5203.09       1.2798986     0.012802583
      5208.29       1.2855744     0.012623073
      5213.50       1.2898393     0.012394820
      5218.72       1.2924629     0.012298883
      5223.93       1.2911030     0.012179110
      5229.16       1.2837255     0.012078246
      5234.39       1.2890740     0.012193693
      5239.62       1.2893128     0.011909300
      5244.86       1.2949639     0.011784899
      5250.11       1.2820419     0.011773837
      5255.36       1.2802481     0.011760670
      5260.61       1.2764847     0.011582471
      5265.87       1.2829779     0.011573433
      5271.14       1.2815460     0.011572932
      5276.41       1.2817807     0.011649737
      5281.69       1.2798310     0.011772702
      5286.97       1.2802706     0.011805012
      5292.26       1.2833197     0.011795111
      5297.55       1.2917421     0.011957468
      5302.85       1.2938588     0.012044123
      5308.15       1.3014654     0.012234352
      5313.46       1.3075871     0.012445912
      5318.77       1.3148020     0.012658703
      5324.09       1.3129534     0.012812687
      5329.42       1.3177889     0.012913102
      5334.75       1.3268421     0.013067208
      5340.08       1.3274428     0.013123395
      5345.42       1.3260403     0.013081759
      5350.77       1.3188706     0.012988305
      5356.12       1.3197956     0.012850017
      5361.48       1.3080380     0.012608788
      5366.83       1.3054015     0.012386138
      5372.20       1.2971539     0.012103323
      5377.58       1.2940901     0.011946502
      5382.95       1.2805197     0.011975007
      5388.34       1.2794543     0.011806366
      5393.72       1.2769587     0.011637295
      5399.12       1.2670481     0.011511929
      5404.52       1.2635421     0.011348065
      5409.92       1.2674482     0.011228692
      5415.33       1.2626595     0.011111614
      5420.75       1.2602567     0.011031031
      5426.17       1.2609795     0.010921024
      5431.60       1.2580960     0.010784401
      5437.03       1.2623727     0.010666017
      5442.47       1.2559939     0.010616577
      5447.91       1.2562572     0.010578680
      5453.36       1.2601085     0.010486929
      5458.81       1.2560686     0.010439816
      5464.27       1.2548399     0.010428649
      5469.73       1.2503722     0.010415031
      5475.20       1.2441344     0.010360898
      5480.68       1.2429442     0.010326565
      5486.16       1.2408636     0.010301187
      5491.65       1.2375224     0.010232884
      5497.14       1.2332357     0.010195165
      5502.64       1.2271324     0.010126233
      5508.14       1.2233284     0.010083649
      5513.65       1.2186013     0.010057878
      5519.16       1.2140700     0.010043055
      5524.68       1.2077431     0.010040024
      5530.20       1.2024452     0.010015178
      5535.73       1.1960677     0.010009866
      5541.27       1.1925505     0.010033105
      5546.81       1.1910523     0.010061457
      5552.36       1.1846931     0.010082918
      5557.91       1.1763695     0.010152070
      5563.47       1.1610885     0.010237300
      5569.04       1.1483417     0.010380560
      5574.60       1.1359843     0.010379838
      5580.18       1.1182536     0.010329287
      5585.76       1.1145564     0.010338219
      5591.35       1.1083294     0.010545036
      5596.94       1.0929912     0.010696644
      5602.53       1.0811403     0.010713091
      5608.14       1.0649201     0.010845440
      5613.75       1.0523563     0.011134677
      5619.36       1.0428470     0.011468929
      5624.98       1.0313682     0.011858350
      5630.60       1.0253353     0.012125594
      5636.23       1.0115388     0.012350137
      5641.87       1.0126472     0.012532186
      5647.51       1.0148544     0.012737855
      5653.16       1.0249354     0.012731426
      5658.82       1.0205814     0.012801507
      5664.47       1.0205867     0.012872451
      5670.14       1.0151028     0.012777702
      5675.81       1.0217112     0.012638272
      5681.48       1.0274894     0.012405046
      5687.17       1.0248869     0.012143580
      5692.85       1.0387824     0.011966793
      5698.55       1.0470474     0.011850715
      5704.25       1.0446787     0.011543160
      5709.95       1.0468379     0.011198637
      5715.66       1.0440451     0.010963443
      5721.38       1.0521337     0.010809382
      5727.10       1.0524208     0.010654601
      5732.83       1.0601168     0.010515806
      5738.56       1.0560444     0.010423160
      5744.30       1.0526668     0.010415655
      5750.04       1.0566349     0.010194021
      5755.79       1.0687050     0.010108474
      5761.55       1.0758350    0.0099490083
      5767.31       1.0738100    0.0099388613
      5773.08       1.0754868     0.010011268
      5778.85       1.0690014     0.010125483
      5784.63       1.0714127     0.010283614
      5790.41       1.0772374     0.010378586
      5796.21       1.0746389     0.010333281
      5802.00       1.0707727     0.010342753
      5807.81       1.0671116     0.010314509
      5813.61       1.0532746     0.010376998
      5819.43       1.0454531     0.010357636
      5825.25       1.0400091     0.010362769
      5831.07       1.0375835     0.010264779
      5836.90       1.0363064     0.010132948
      5842.74       1.0302997     0.010178682
      5848.58       1.0153557     0.010354751
      5854.43       1.0133051     0.010568559
      5860.29       1.0066488     0.010288096
      5866.15       1.0067930     0.010346745
      5872.01       1.0048734     0.010463543
      5877.89       1.0010514     0.010749620
      5883.76       1.0044371     0.011279676
      5889.65       1.0051503     0.011950667
      5895.54       1.0109826     0.012978411
      5901.43       1.0273701     0.013590215
      5907.34       1.0190897     0.014042110
      5913.24       1.0091043     0.014449730
      5919.16       1.0131812     0.014565661
      5925.08       1.0055813     0.014283691
      5931.00       1.0112578     0.014465147
      5936.93       1.0010167     0.013849992
      5942.87      0.99840458     0.012971771
      5948.81       1.0018020     0.012239045
      5954.76       1.0013066     0.011860200
      5960.72       1.0000483     0.011951752
      5966.68      0.99288694     0.011805986
      5972.64      0.98880653     0.011283351
      5978.62      0.98921258     0.011344840
      5984.60      0.98586959     0.011337737
      5990.58      0.98553643     0.011506595
      5996.57      0.97751364     0.011439429
      6002.57      0.97648761     0.011482957
      6008.57      0.97622763     0.011457339
      6014.58      0.97700056     0.011390412
      6020.60      0.97159605     0.011246958
      6026.62      0.97111252     0.011405597
      6032.65      0.97163878     0.011303626
      6038.68      0.97344338     0.011497928
      6044.72      0.97339725     0.012008093
      6050.76      0.97525327     0.011866330
      6056.81      0.98475890     0.011755796
      6062.87      0.98441947     0.011687090
      6068.93      0.99198304     0.011871001
      6075.00      0.99685538     0.012083224
      6081.08      0.98931257     0.012009460
      6087.16      0.98516779     0.012097262
      6093.25      0.97831034     0.011794134
      6099.34      0.96900694     0.011627452
      6105.44      0.95782523     0.011357803
      6111.54      0.93546763     0.011413329
      6117.66      0.92042106     0.011459358
      6123.78      0.90090828     0.011669405
      6129.90      0.88339014     0.011465493
      6136.03      0.86799143     0.011299263
      6142.17      0.85846601     0.011175952
      6148.31      0.84629678     0.011137044
      6154.46      0.84605288     0.010941885
      6160.61      0.83570508     0.010831247
      6166.77      0.82704652     0.010796459
      6172.94      0.81924512     0.010859651
      6179.11      0.81644466     0.010727464
      6185.29      0.82494419     0.010675155
      6191.48      0.82731987     0.010649523
      6197.67      0.82452362     0.010763921
      6203.87      0.83892262     0.011020269
      6210.07      0.85128402     0.010648362
      6216.28      0.85790150     0.010496453
      6222.50      0.86136757     0.010269479
      6228.72      0.85954650     0.010112620
      6234.95      0.86482049    0.0099010823
      6241.19      0.86901530    0.0097551329
      6247.42      0.86984779    0.0095880348
      6253.67      0.87176693    0.0094351524
      6259.93      0.88301468    0.0093750782
      6266.19      0.89358061    0.0093547525
      6272.46      0.90154776    0.0091253681
      6278.73      0.90180879    0.0090511754
      6285.01      0.91260388    0.0090348095
      6291.29      0.91785942    0.0090401479
      6297.58      0.92454773    0.0089273024
      6303.88      0.93115377    0.0089393356
      6310.19      0.93712886    0.0089827149
      6316.50      0.94432685    0.0089851849
      6322.81      0.95455399    0.0090067909
      6329.14      0.95142964    0.0089967900
      6335.47      0.94765217    0.0089626084
      6341.80      0.93914113    0.0089042665
      6348.14      0.93738137    0.0089059464
      6354.49      0.92990287    0.0088376398
      6360.85      0.92057706    0.0087540296
      6367.21      0.90999343    0.0087536959
      6373.57      0.90252784    0.0087716047
      6379.95      0.89478212    0.0087425893
      6386.33      0.88598746    0.0086206657
      6392.72      0.88020715    0.0085710353
      6399.11      0.87666918    0.0086633041
      6405.51      0.87684162    0.0088366279
      6411.92      0.87328106    0.0091088334
      6418.32      0.87637108    0.0094415995
      6424.74      0.88255175    0.0096308943
      6431.17      0.88872337    0.0097072815
      6437.60      0.90006188    0.0097981481
      6444.04      0.90239562    0.0099834352
      6450.48      0.91049310     0.010112843
      6456.94      0.91268006     0.010176919
      6463.39      0.91122266     0.010151261
      6469.85      0.91854511     0.010015861
      6476.33      0.91869340    0.0098982929
      6482.80      0.91863741    0.0099886458
      6489.28      0.91269047     0.010038185
      6495.77      0.91650180     0.010136208
      6502.27      0.92300003     0.010209260
      6508.77      0.92719556     0.010280771
      6515.28      0.93166399     0.010134508
      6521.80      0.93447490    0.0099850579
      6528.32      0.93272085    0.0099727802
      6534.85      0.93965345     0.010070509
      6541.38      0.94583375     0.010322938
      6547.92      0.93981287    0.0099697833
      6554.47      0.93854268    0.0097280582
      6561.03      0.94214595    0.0095675280
      6567.59      0.93580876    0.0094602612
      6574.16      0.93283903    0.0093696470
      6580.73      0.92368555    0.0090913732
      6587.31      0.92232377    0.0089241404
      6593.90      0.92039662    0.0087234517
      6600.50      0.90770232    0.0086140694
      6607.10      0.90047183    0.0085402993
      6613.70      0.89566252    0.0083562278
      6620.32      0.88823639    0.0081863292
      6626.94      0.89054212    0.0081654355
      6633.57      0.88479119    0.0081385545
      6640.20      0.88303765    0.0080663826
      6646.84      0.88489705    0.0079124413
      6653.49      0.88077896    0.0081330392
      6660.14      0.87908754    0.0081370245
      6666.80      0.87435494    0.0081187960
      6673.47      0.87002178    0.0081601721
      6680.14      0.87627243    0.0083706128
      6686.82      0.87625659    0.0086886508
      6693.51      0.87122731    0.0091021458
      6700.20      0.87538939    0.0094540531
      6706.90      0.87093348    0.0096561839
      6713.61      0.87244583    0.0097148309
      6720.32      0.86377393    0.0097047908
      6727.05      0.84859940    0.0094842160
      6733.77      0.84537298    0.0092500302
      6740.51      0.84082791    0.0090076464
      6747.25      0.83203957    0.0088382192
      6754.00      0.82793817    0.0083162537
      6760.75      0.81723253    0.0079898718
      6767.51      0.81086319    0.0079102623
      6774.28      0.80211498    0.0080641169
      6781.05      0.78854770    0.0086518265
      6787.84      0.78346764    0.0086864286
      6794.62      0.77746040    0.0089251797
      6801.42      0.78203861    0.0089461959
      6808.22      0.78705815    0.0091002913
      6815.03      0.78094608    0.0092623674
      6821.85      0.78359906    0.0095282542
      6828.67      0.78919560    0.0096149873
      6835.50      0.78360668    0.0097205046
      6842.33      0.78695635    0.0095647146
      6849.17      0.78689962    0.0094124844
      6856.02      0.79164698    0.0093690335
      6862.88      0.80189995    0.0095213567
      6869.74      0.80986825    0.0097760234
      6876.61      0.80521304    0.0099299805
      6883.49      0.80724456    0.0097872918
      6890.37      0.80899317    0.0097693642
      6897.27      0.79857950    0.0094698985
      6904.16      0.79504311    0.0094164365
      6911.07      0.78995213    0.0095500776
      6917.98      0.78891079     0.010262117
      6924.89      0.78902160     0.010024709
      6931.82      0.78907977    0.0096835381
      6938.75      0.78174532    0.0096573145
      6945.69      0.78106927    0.0096506617
      6952.64      0.78134430    0.0097265944
      6959.59      0.77475977    0.0097366341
      6966.55      0.76720859    0.0097116688
      6973.52      0.77097560    0.0094816695
      6980.49      0.76521167    0.0092710331
      6987.47      0.75931350    0.0089350697
      6994.46      0.75896111    0.0088707706
      7001.46      0.76200748    0.0085596194
      7008.46      0.76727455    0.0084561879
      7015.46      0.77108309    0.0083691261
      7022.48      0.76995910    0.0083041915
      7029.51      0.76675890    0.0080851646
      7036.53      0.76790243    0.0080034218
      7043.57      0.76448489    0.0080624777
      7050.62      0.77201343    0.0081641055
      7057.66      0.77283295    0.0080089633
      7064.72      0.77407015    0.0076901430
      7071.79      0.77585721    0.0075856963
      7078.86      0.77551699    0.0075735761
      7085.94      0.77588578    0.0076345338
      7093.03      0.77472075    0.0077038621
      7100.12      0.77921078    0.0076596164
      7107.22      0.77670970    0.0076702907
      7114.33      0.76882479    0.0076474282
      7121.44      0.76337433    0.0075966285
      7128.56      0.76021165    0.0075377069
      7135.69      0.75642042    0.0074683442
      7142.83      0.75477577    0.0073812005
      7149.97      0.74997522    0.0072672570
      7157.12      0.74694085    0.0072643857
      7164.28      0.74397865    0.0072635040
      7171.44      0.74387539    0.0073730428
      7178.62      0.74007799    0.0073284723
      7185.80      0.74464666    0.0073902854
      7192.98      0.74637668    0.0076052628
      7200.17      0.75191439    0.0078442958
      7207.38      0.75595987    0.0082665089
      7214.58      0.76323994    0.0088349548
      7221.80      0.77931697    0.0095503715
      7229.02      0.79036334     0.010379411
      7236.25      0.80202881     0.011224963
      7243.49      0.81152864     0.012223969
      7250.73      0.81459642     0.013062317
      7257.98      0.81501346     0.013513606
      7265.24      0.80537323     0.013611688
      7272.51      0.80170463     0.013463594
      7279.78      0.79338348     0.013106614
      7287.06      0.78453602     0.012882025
      7294.35      0.77595159     0.012943106
      7301.64      0.75967363     0.013378621
      7308.94      0.75428487     0.013630259
      7316.25      0.75183494     0.013265281
      7323.57      0.74674332     0.013678616
      7330.89      0.73881907     0.013541259
      7338.22      0.73581213     0.013757630
      7345.56      0.73914782     0.014355086
      7352.91      0.75367081     0.014328078
      7360.26      0.75100952     0.013971515
      7367.62      0.73849372     0.013348765
      7374.99      0.74220719     0.013100550
      7382.37      0.72831141     0.012952725
      7389.75      0.72045704     0.013025161
      7397.14      0.71630077     0.012738328
      7404.53      0.71960887     0.012440969
      7411.94      0.71392287     0.012000317
      7419.35      0.71514367     0.011675116
      7426.77      0.71005030     0.011468335
      7434.20      0.70248114     0.011281607
      7441.63      0.69936841     0.010885076
      7449.07      0.69475805     0.010837521
      7456.52      0.69528855     0.010483347
      7463.98      0.68149472     0.010198860
      7471.45      0.66782317     0.010173734
      7478.92      0.65560924    0.0099440643
      7486.40      0.64954266    0.0099939602
      7493.88      0.64718253     0.010128381
      7501.38      0.64110335     0.010419310
      7508.88      0.63024463     0.010375587
      7516.39      0.61993230     0.010529946
      7523.91      0.61171903     0.010572984
      7531.43      0.60338090     0.010549130
      7538.96      0.59593735     0.010388120
      7546.50      0.58903016     0.010361776
      7554.05      0.58879789     0.010349312
      7561.60      0.58555505     0.010308053
      7569.16      0.58649628     0.010254633
      7576.73      0.59273214     0.010204039
      7584.31      0.59514357     0.010089331
      7591.89      0.59783581     0.010145694
      7599.49      0.59943226     0.010142087
      7607.09      0.60552426     0.010171892
      7614.70      0.60958553     0.010210817
      7622.31      0.61361843     0.010415327
      7629.93      0.61483177     0.010708507
      7637.56      0.61104130     0.010807631
      7645.20      0.60617968     0.010935474
      7652.85      0.60258409     0.011077780
      7660.50      0.60271505     0.011250486
      7668.16      0.60755288     0.011648146
      7675.83      0.60820785     0.011846352
      7683.50      0.60555616     0.011942002
      7691.19      0.60248014     0.012200050
      7698.88      0.59153813     0.012543793
      7706.58      0.58297053     0.012986910
      7714.29      0.57594373     0.013749124
      7722.00      0.57447608     0.013905943
      7729.73      0.56588840     0.014120851
      7737.45      0.55896833     0.014346948
      7745.19      0.55160571     0.014606328
      7752.94      0.54070284     0.014832060
      7760.69      0.52932376     0.015132470
      7768.45      0.52139135     0.015566198
      7776.22      0.51621950     0.015797954
      7784.00      0.50933818     0.016277956
      7791.78      0.51524476     0.016641652
      7799.57      0.50914493     0.016636344
      7807.37      0.50791671     0.017057465
      7815.18      0.50855174     0.017374824
      7822.99      0.49816279     0.017433724
      7830.82      0.48727782     0.017945188
      7838.65      0.48015826     0.018165952
      7846.49      0.47181292     0.018794801
      7854.34      0.46891093     0.020147450
      7862.19      0.45720508     0.020386052
      7870.05      0.45105804     0.020355726
      7877.93      0.45025735     0.020580887
      7885.80      0.44439392     0.021046841
      7893.69      0.44646678     0.021728460
      7901.58      0.44185994     0.022842215
      7909.49      0.45566528     0.024792083
      7917.40      0.45909660     0.027417112
      7925.31      0.45774183     0.029003412
      7933.24      0.45055784     0.031515008
      7941.17      0.44662502     0.034520029
      7949.11      0.44186204     0.039733950
      7957.06      0.44431489     0.045929248
      7965.02      0.45098788     0.051849746
      7972.98      0.44893170     0.060840430
      7980.96      0.45618699     0.073794263
      7988.94      0.39441666     0.086913332
