# starting wavelength =        2770.3322
# ending wavelength =        6430.2372
# O2 telluric scale =        0
# O2 telluric shift =        0
# H2O telluric scale =        0
# H2O telluric shift =        0
      2771.91       1.9318749      0.10318288
      2774.69       1.9272151     0.099786515
      2777.46       1.9329421     0.096951088
      2780.24       1.9478609     0.095280284
      2783.02       1.9440440     0.092825142
      2785.80       1.9358971     0.090522891
      2788.59       1.9197228     0.089200941
      2791.38       1.9295990     0.087374594
      2794.17       1.8955968     0.085428394
      2796.96       1.8762871     0.084345396
      2799.76       1.8682169     0.082946819
      2802.56       1.8594362     0.081247678
      2805.36       1.8744089     0.080331924
      2808.17       1.8738449     0.078745255
      2810.98       1.8821198     0.077715404
      2813.79       1.8788741     0.076919779
      2816.60       1.8560443     0.075487271
      2819.42       1.8601513     0.074662408
      2822.24       1.8440780     0.073955591
      2825.06       1.8450599     0.072642528
      2827.88       1.8379767     0.071980333
      2830.71       1.8312445     0.070850397
      2833.54       1.8249015     0.070338073
      2836.38       1.8260303     0.069833041
      2839.21       1.8495335     0.068753778
      2842.05       1.8504810     0.068357518
      2844.90       1.8463782     0.067864609
      2847.74       1.8383703     0.066813180
      2850.59       1.8226354     0.066425861
      2853.44       1.8412155     0.065390995
      2856.29       1.8435115     0.064921311
      2859.15       1.8236726     0.064458744
      2862.01       1.8306572     0.063535298
      2864.87       1.8346154     0.063077745
      2867.74       1.8423339     0.062075520
      2870.60       1.8478778     0.061727468
      2873.47       1.8401294     0.061282087
      2876.35       1.8401702     0.060306349
      2879.22       1.8432106     0.059867152
      2882.10       1.8655684     0.059533953
      2884.99       1.8530840     0.058584122
      2887.87       1.8431133     0.058157158
      2890.76       1.8703895     0.057330059
      2893.65       1.8685420     0.056908503
      2896.54       1.8536858     0.056022673
      2899.44       1.8405006     0.055688366
      2902.34       1.8464699     0.055279093
      2905.24       1.8445380     0.054419131
      2908.15       1.8536433     0.054026700
      2911.06       1.8450975     0.053248188
      2913.97       1.8556170     0.052861235
      2916.88       1.8536644     0.052480918
      2919.80       1.8352252     0.051723396
      2922.72       1.8277393     0.051348611
      2925.64       1.8187203     0.050532998
      2928.57       1.8208521     0.050243547
      2931.50       1.8135364     0.049880922
      2934.43       1.8030334     0.049087839
      2937.36       1.8031964     0.048808296
      2940.30       1.8070298     0.048037440
      2943.24       1.8143938     0.047686825
      2946.18       1.8157325     0.046954208
      2949.13       1.8024448     0.046668103
      2952.08       1.8035597     0.046329607
      2955.03       1.7796677     0.045620964
      2957.99       1.7742762     0.045342242
      2960.94       1.7742826     0.044648215
      2963.90       1.7768631     0.044329718
      2966.87       1.7924130     0.043700567
      2969.84       1.7909266     0.043389052
      2972.81       1.7854191     0.042712369
      2975.78       1.7731876     0.042471976
      2978.76       1.7736296     0.042172366
      2981.73       1.7772275     0.041515508
      2984.72       1.7796153     0.041285563
      2987.70       1.7700896     0.040647903
      2990.69       1.7521360     0.040360390
      2993.68       1.7388329     0.039803963
      2996.67       1.7391137     0.039522776
      2999.67       1.7395870     0.038935182
      3002.67       1.7476472     0.038707768
      3005.67       1.7377806     0.038134176
      3008.68       1.7338167     0.037916236
      3011.69       1.7244024     0.037652347
      3014.70       1.7138489     0.037100454
      3017.71       1.6984906     0.036889539
      3020.73       1.6919852     0.036350938
      3023.75       1.6826742     0.036106808
      3026.78       1.6843985     0.035623786
      3029.80       1.6888583     0.035385515
      3032.83       1.6932514     0.034863725
      3035.87       1.6930568     0.034686313
      3038.90       1.6809004     0.034180777
      3041.94       1.6892129     0.033954467
      3044.98       1.6883844     0.033519252
      3048.03       1.6866896     0.033298831
      3051.08       1.6745601     0.032878872
      3054.13       1.6677350     0.032664360
      3057.18       1.6694861     0.032212580
      3060.24       1.6686482     0.032050734
      3063.30       1.6589376     0.031611586
      3066.36       1.6581521     0.031415556
      3069.43       1.6551316     0.031030593
      3072.50       1.6563201     0.030840313
      3075.57       1.6506373     0.030693219
      3078.65       1.6457219     0.030285201
      3081.73       1.6414423     0.030105756
      3084.81       1.6332726     0.029749929
      3087.89       1.6318233     0.029576161
      3090.98       1.6186854     0.029182998
      3094.07       1.6129735     0.029066126
      3097.17       1.6143851     0.028686379
      3100.26       1.6121553     0.028575356
      3103.36       1.6112203     0.028208715
      3106.47       1.6100283     0.028051798
      3109.58       1.6090415     0.027749717
      3112.68       1.6098780     0.027410812
      3115.80       1.6069255     0.027309140
      3118.91       1.5977416     0.026980882
      3122.03       1.5862459     0.026841479
      3125.15       1.5828918     0.026568890
      3128.28       1.5833732     0.026434918
      3131.41       1.5793267     0.026174578
      3134.54       1.5771846     0.026045980
      3137.67       1.5793954     0.025745838
      3140.81       1.5894636     0.025674377
      3143.95       1.5758234     0.025385367
      3147.10       1.5711200     0.025319812
      3150.24       1.5647457     0.025041626
      3153.39       1.5610198     0.024928686
      3156.55       1.5567374     0.024714317
      3159.70       1.5604004     0.024606525
      3162.86       1.5528588     0.024403142
      3166.03       1.5482953     0.024300428
      3169.19       1.5421243     0.024107777
      3172.36       1.5314079     0.024010079
      3175.54       1.5235340     0.023775592
      3178.71       1.5206381     0.023596635
      3181.89       1.5121771     0.023509284
      3185.07       1.4999660     0.023340440
      3188.26       1.4907366     0.023257872
      3191.45       1.4885795     0.023098881
      3194.64       1.4870842     0.023021025
      3197.83       1.4904471     0.022814238
      3201.03       1.4919043     0.022798414
      3204.23       1.4840986     0.022599926
      3207.44       1.4760641     0.022467653
      3210.64       1.4750091     0.022399235
      3213.85       1.4698032     0.022275827
      3217.07       1.4713868     0.022211832
      3220.28       1.4637112     0.022036493
      3223.51       1.4651787     0.022037385
      3226.73       1.4645841     0.021869128
      3229.96       1.4588439     0.021875569
      3233.19       1.4591071     0.021714193
      3236.42       1.4586276     0.021618071
      3239.66       1.4633651     0.021571370
      3242.90       1.4645611     0.021483025
      3246.14       1.4610230     0.021440334
      3249.39       1.4645099     0.021359531
      3252.64       1.4616760     0.021320771
      3255.89       1.4627431     0.021181399
      3259.14       1.4634268     0.021113843
      3262.40       1.4622090     0.021078783
      3265.67       1.4637606     0.021018114
      3268.93       1.4656787     0.020986767
      3272.20       1.4675508     0.020932769
      3275.47       1.4750146     0.020812437
      3278.75       1.4755519     0.020857501
      3282.03       1.4725431     0.020742521
      3285.31       1.4702560     0.020792010
      3288.60       1.4666950     0.020682226
      3291.88       1.4745504     0.020647990
      3295.18       1.4694773     0.020631242
      3298.47       1.4680160     0.020602736
      3301.77       1.4795712     0.028724916
      3305.07       1.4749664     0.028698748
      3308.38       1.4787145     0.028684950
      3311.69       1.4951779     0.028664857
      3315.00       1.5125726     0.028657582
      3318.31       1.5204838     0.028643587
      3321.63       1.5324780     0.028642441
      3324.95       1.5320464     0.028415500
      3328.28       1.5301871     0.028639063
      3331.61       1.5229803     0.028419853
      3334.94       1.5169993     0.028647061
      3338.27       1.5261869     0.028669600
      3341.61       1.5262406     0.028665996
      3344.95       1.5141575     0.028693086
      3348.30       1.5090212     0.028481779
      3351.65       1.4876523     0.028726711
      3355.00       1.4825051     0.028522478
      3358.35       1.4771032     0.028770076
      3361.71       1.4729143     0.028572699
      3365.07       1.4719907     0.028611498
      3368.44       1.4646066     0.028632081
      3371.81       1.4572569     0.028673834
      3375.18       1.4445944     0.028700256
      3378.56       1.4546680     0.028744522
      3381.94       1.4625854     0.028798942
      3385.32       1.4574182     0.028823181
      3388.70       1.4576792     0.028879430
      3392.09       1.4416021     0.028697987
      3395.48       1.4412461     0.028967098
      3398.88       1.4249200     0.028785026
      3402.28       1.4339011     0.029061587
      3405.68       1.4370462     0.028878484
      3409.09       1.4288516     0.028953572
      3412.49       1.4135791     0.029230486
      3415.91       1.4185570     0.029053192
      3419.32       1.4129428     0.029337395
      3422.74       1.3962328     0.029158094
      3426.17       1.3951376     0.029240862
      3429.59       1.3979459     0.029267939
      3433.02       1.3855107     0.029349691
      3436.45       1.3836206     0.029181457
      3439.89       1.3789178     0.029462699
      3443.33       1.3761987     0.029550106
      3446.78       1.3592445     0.029517763
      3450.22       1.3467062     0.029764880
      3453.67       1.3473188     0.029525882
      3457.13       1.3325807     0.029803256
      3460.58       1.3230338     0.029863369
      3464.04       1.3037285     0.029712872
      3467.51       1.2969818     0.030018195
      3470.98       1.2913695     0.029890033
      3474.45       1.2721363     0.030023921
      3477.92       1.2671506     0.030095841
      3481.40       1.2674855     0.030235660
      3484.88       1.2602947     0.030382268
      3488.37       1.2629617     0.030452998
      3491.86       1.2613260     0.030591688
      3495.35       1.2522748     0.030447357
      3498.84       1.2507969     0.030788513
      3502.34       1.2340654     0.030907020
      3505.84       1.2473945     0.030735987
      3509.35       1.2544588     0.031059586
      3512.86       1.2704541     0.030878481
      3516.37       1.2800334     0.030949364
      3519.89       1.2740674     0.031227033
      3523.41       1.2775431     0.031022013
      3526.93       1.2714149     0.031063299
      3530.46       1.2718573     0.031065676
      3533.99       1.2744737     0.031083965
      3537.53       1.2778856     0.031096461
      3541.06       1.2701969     0.031084385
      3544.60       1.2677807     0.031081944
      3548.15       1.2712226     0.031080663
      3551.70       1.2693243     0.031063182
      3555.25       1.2682934     0.031059757
      3558.80       1.2643076     0.030814173
      3562.36       1.2658048     0.030834689
      3565.92       1.2725008     0.031082280
      3569.49       1.2736354     0.030863436
      3573.06       1.2768847     0.030934302
      3576.64       1.2739169     0.031245225
      3580.21       1.2573568     0.031074765
      3583.79       1.2495564     0.031252546
      3587.38       1.2521286     0.031006625
      3590.96       1.2440111     0.031025905
      3594.55       1.2380959     0.031045520
      3598.15       1.2368963     0.030823510
      3601.75       1.2238693     0.031068175
      3605.35       1.2242733     0.031078605
      3608.96       1.2329142     0.030849333
      3612.56       1.2293666     0.031088757
      3616.18       1.2400228     0.031090061
      3619.79       1.2321208     0.030853786
      3623.41       1.2325877     0.030856228
      3627.04       1.2346397     0.031080730
      3630.66       1.2307256     0.030837790
      3634.29       1.2211810     0.030831499
      3637.93       1.2266900     0.031051753
      3641.57       1.2236112     0.030802502
      3645.21       1.2395732     0.030787729
      3648.86       1.2369058     0.030773244
      3652.50       1.2363293     0.030749154
      3656.16       1.2304073     0.030972491
      3659.81       1.2188413     0.031460948
      3663.47       1.2192540     0.031741257
      3667.14       1.2100358     0.031516333
      3670.80       1.2069472     0.030858689
      3674.48       1.2050053     0.030407541
      3678.15       1.2003303     0.030336007
      3681.83       1.1982716     0.030583748
      3685.51       1.1910168     0.030513521
      3689.20       1.1909640     0.030673731
      3692.88       1.1928675     0.030880204
      3696.58       1.1995966     0.031059477
      3700.27       1.1862857     0.031291331
      3703.98       1.1971065     0.031527824
      3707.68       1.2026469     0.031754612
      3711.39       1.2008196     0.031917972
      3715.10       1.2020572     0.032096034
      3718.81       1.1979749     0.032233382
      3722.53       1.1975790     0.032028988
      3726.26       1.2007685     0.032062561
      3729.98       1.2092363     0.032385448
      3733.71       1.2121633     0.032013016
      3737.45       1.2202484     0.031881974
      3741.18       1.2259663     0.031697028
      3744.93       1.2427498     0.031700404
      3748.67       1.2468164     0.031254623
      3752.42       1.2511044     0.030961585
      3756.17       1.2513422     0.030646816
      3759.93       1.2492450     0.030111683
      3763.69       1.2482730     0.030075352
      3767.45       1.2467375     0.029748380
      3771.22       1.2304263     0.029441333
      3774.99       1.2166680     0.028975975
      3778.77       1.2054145     0.028959737
      3782.54       1.2053743     0.028755211
      3786.33       1.2048229     0.028399963
      3790.11       1.2052536     0.028342456
      3793.90       1.1904760     0.028418880
      3797.70       1.1941614     0.028841971
      3801.50       1.1894330     0.028857961
      3805.30       1.1940181     0.028922851
      3809.10       1.1924136     0.028422566
      3812.91       1.1942950     0.027965310
      3816.73       1.1977241     0.027714759
      3820.54       1.1954804     0.027858354
      3824.36       1.1895349     0.027787359
      3828.19       1.1984857     0.027718141
      3832.02       1.1961521     0.027469595
      3835.85       1.2042215     0.027404325
      3839.68       1.2069126     0.027545092
      3843.52       1.2011569     0.027476847
      3847.37       1.1969413     0.027230846
      3851.22       1.1981188     0.027166855
      3855.07       1.2026654     0.027104861
      3858.92       1.2090754     0.027044906
      3862.78       1.2173536     0.027002051
      3866.64       1.2112032     0.026940177
      3870.51       1.2205910     0.026880470
      3874.38       1.2227272     0.027026188
      3878.26       1.2242194     0.027214501
      3882.13       1.2296437     0.027620958
      3886.02       1.2378251     0.027434901
      3889.90       1.2305214     0.026874980
      3893.79       1.2246045     0.026598421
      3897.69       1.2107928     0.026364003
      3901.59       1.2034132     0.026364888
      3905.49       1.1919562     0.026437377
      3909.39       1.1780985     0.026559939
      3913.30       1.1780573     0.026689759
      3917.22       1.1480634     0.026853441
      3921.13       1.1360677     0.027033633
      3925.06       1.1289344     0.027219972
      3928.98       1.1179514     0.027402816
      3932.91       1.1201600     0.027332710
      3936.84       1.1164432     0.027476286
      3940.78       1.1057658     0.027832061
      3944.72       1.1016170     0.027932319
      3948.67       1.1150676     0.027995715
      3952.61       1.1062960     0.027803801
      3956.57       1.1145886     0.027764554
      3960.52       1.1049557     0.027693525
      3964.48       1.1122197     0.027584715
      3968.45       1.1178555     0.027442262
      3972.42       1.1189265     0.027056838
      3976.39       1.1308385     0.027112135
      3980.37       1.1468251     0.026906918
      3984.35       1.1447901     0.026691319
      3988.33       1.1578161     0.026473313
      3992.32       1.1691914     0.026261460
      3996.31       1.1763570     0.025894762
      4000.31       1.1895202     0.025721816
      4004.31       1.1958551     0.025579865
      4008.31       1.2091165     0.025480754
      4012.32       1.2176968     0.025570193
      4016.33       1.2254319     0.025593647
      4020.35       1.2342434     0.025452637
      4024.37       1.2492606     0.025686905
      4028.40       1.2516134     0.026153639
      4032.42       1.2529931     0.026278532
      4036.46       1.2449452     0.025893198
      4040.50       1.2293268     0.025547247
      4044.54       1.2129398     0.025401003
      4048.58       1.2105074     0.025436373
      4052.63       1.1986269     0.025474452
      4056.68       1.1844658     0.025515179
      4060.74       1.1701884     0.025711796
      4064.80       1.1576195     0.025754745
      4068.86       1.1483660     0.025800197
      4072.93       1.1324939     0.025662570
      4077.01       1.1288593     0.025711883
      4081.08       1.1128055     0.025763483
      4085.17       1.0956599     0.025817283
      4089.25       1.0842741     0.025873199
      4093.34       1.0679071     0.025931182
      4097.43       1.0599339     0.025991120
      4101.53       1.0552613     0.025864200
      4105.63       1.0446845     0.025924773
      4109.74       1.0309276     0.025987120
      4113.85       1.0349817     0.026051171
      4117.96       1.0272567     0.026116840
      4122.08       1.0286771     0.026184058
      4126.20       1.0205613     0.026252760
      4130.33       1.0193881     0.026322853
      4134.46       1.0211641     0.026358223
      4138.59       1.0209913     0.026428521
      4142.73       1.0246674     0.026500072
      4146.88       1.0328855     0.026572790
      4151.02       1.0333342     0.026646600
      4155.18       1.0218564     0.026721423
      4159.33       1.0341524     0.026797194
      4163.49       1.0310350     0.026873833
      4167.65       1.0407323     0.026951268
      4171.82       1.0476255     0.027029422
      4175.99       1.0476167     0.026910113
      4180.17       1.0487139     0.026988782
      4184.35       1.0466353     0.027067964
      4188.54       1.0412209     0.027147582
      4192.72       1.0429597     0.027227573
      4196.92       1.0357458     0.027307845
      4201.11       1.0328042     0.027388338
      4205.31       1.0298216     0.027468978
      4209.52       1.0236976     0.027549683
      4213.73       1.0254954     0.027630386
      4217.94       1.0316397     0.027711039
      4222.16       1.0317308     0.027593730
      4226.38       1.0367517     0.027672674
      4230.61       1.0349509     0.027751390
      4234.84       1.0302848     0.027829793
      4239.08       1.0199033     0.027907826
      4243.32       1.0185643     0.028141423
      4247.56       1.0150368     0.028566825
      4251.81       1.0126319     0.029038016
      4256.06       1.0223467     0.028612382
      4260.32       1.0349667     0.028422414
      4264.58       1.0324253     0.028381231
      4268.84       1.0310031     0.028441084
      4273.11       1.0354265     0.028572903
      4277.38       1.0361613     0.028757738
      4281.66       1.0316184     0.028981679
      4285.94       1.0336480     0.029233993
      4290.23       1.0305967     0.029505745
      4294.52       1.0349117     0.029788772
      4298.81       1.0406744     0.029821866
      4303.11       1.0471228     0.029975321
      4307.42       1.0451634     0.030231247
      4311.72       1.0450489     0.030469804
      4316.04       1.0475354     0.030685128
      4320.35       1.0479986     0.030871876
      4324.67       1.0573170     0.031025649
      4329.00       1.0557424     0.031142806
      4333.33       1.0574353     0.031169119
      4337.66       1.0680136     0.031171824
      4342.00       1.0789322     0.031136056
      4346.34       1.0794151     0.031064177
      4350.69       1.0864164     0.030959729
      4355.04       1.0734726     0.030827404
      4359.39       1.0633791     0.030672481
      4363.75       1.0559832     0.030501192
      4368.12       1.0608653     0.030320233
      4372.48       1.0563515     0.030136618
      4376.86       1.0547649     0.029957971
      4381.23       1.0638412     0.029653577
      4385.61       1.0646122     0.029514628
      4390.00       1.0529364     0.029407666
      4394.39       1.0440623     0.029345795
      4398.79       1.0338279     0.029346843
      4403.18       1.0353405     0.029436954
      4407.59       1.0412523     0.029657484
      4412.00       1.0424928     0.030080699
      4416.41       1.0383455     0.030201809
      4420.82       1.0425102     0.029766759
      4425.25       1.0369262     0.029377232
      4429.67       1.0264738     0.029195911
      4434.10       1.0150610     0.029188049
      4438.54       1.0115905     0.029177538
      4442.97       1.0072716     0.029164416
      4447.42      0.99797045     0.029148731
      4451.86      0.99618067     0.029130529
      4456.32      0.99388338     0.029109868
      4460.77      0.97707722     0.029086807
      4465.24      0.97796100     0.029061405
      4469.70      0.98867301     0.029033718
      4474.17      0.97554159     0.028816098
      4478.65      0.96065118     0.028781983
      4483.12      0.97268192     0.028745773
      4487.61      0.98731646     0.028876091
      4492.09      0.99499167     0.028835093
      4496.59       1.0014110     0.028792221
      4501.08       1.0074103     0.028747520
      4505.58       1.0102105     0.028520099
      4510.09       1.0248588     0.028469834
      4514.60       1.0146774     0.028417955
      4519.12       1.0068013     0.028364551
      4523.63       1.0086388     0.028309672
      4528.16       1.0129335     0.028253396
      4532.69       1.0164069     0.028195804
      4537.22       1.0237017     0.028136970
      4541.76       1.0154020     0.027898910
      4546.30       1.0174600     0.027837862
      4550.85       1.0081148     0.027775804
      4555.40       1.0056133     0.027712813
      4559.95       1.0108540     0.027796105
      4564.51       1.0002918     0.027728331
      4569.08       1.0062479     0.027482525
      4573.65       1.0106123     0.027413599
      4578.22       1.0147374     0.027344093
      4582.80       1.0126014     0.027274093
      4587.38       1.0036360     0.027203675
      4591.97      0.99681137     0.027132910
      4596.56      0.98468671     0.026883292
      4601.16      0.96631319     0.026809734
      4605.76      0.95258042     0.026736036
      4610.37      0.94971847     0.026662301
      4614.98      0.93783587     0.026730414
      4619.59      0.93073454     0.026485439
      4624.21      0.92162796     0.026409001
      4628.84      0.91172154     0.026332781
      4633.47      0.90471153     0.026256862
      4638.10      0.89346470     0.026181324
      4642.74      0.89351655     0.026106236
      4647.38      0.89630831     0.025866351
      4652.03      0.88806247     0.025792887
      4656.68      0.89137429     0.025850699
      4661.34      0.89814734     0.025775266
      4666.00      0.88460290     0.025700642
      4670.67      0.88462293     0.025464559
      4675.33      0.88409507     0.025392411
      4680.01      0.87918463     0.025321307
      4684.69      0.87747980     0.025251328
      4689.38      0.87191228     0.025018126
      4694.07      0.86512570     0.025408829
      4698.76      0.86724630     0.025708350
      4703.46      0.86163504     0.025557657
      4708.16      0.85637248     0.025157265
      4712.87      0.85169427     0.024692097
      4717.58      0.84525067     0.024591939
      4722.30      0.85160899     0.024554314
      4727.03      0.86395756     0.024679253
      4731.75      0.87095018     0.024578031
      4736.48      0.87287257     0.024652883
      4741.22      0.88646432     0.024743456
      4745.96      0.88375599     0.024844260
      4750.71      0.89292386     0.024836567
      4755.46      0.89094175     0.025054345
      4760.22      0.89088432     0.025151515
      4764.97      0.88137479     0.025239936
      4769.74      0.87864993     0.025176601
      4774.51      0.86241615     0.025225378
      4779.29      0.85849464     0.025256915
      4784.07      0.85693524     0.025395868
      4788.85      0.85906049     0.025208280
      4793.64      0.86312777     0.025128270
      4798.43      0.86050634     0.025029476
      4803.23      0.85503961     0.024913463
      4808.03      0.86399470     0.024645995
      4812.84      0.84748295     0.024611771
      4817.66      0.84945150     0.024449590
      4822.48      0.84624302     0.024155523
      4827.30      0.84761626     0.023990594
      4832.12      0.83960991     0.023827343
      4836.96      0.83613375     0.023752488
      4841.79      0.81963758     0.023492546
      4846.63      0.82835009     0.023360116
      4851.48      0.82094989     0.023247426
      4856.33      0.81992616     0.023038087
      4861.19      0.81095069     0.023136057
      4866.05      0.79937815     0.023142095
      4870.92      0.79287010     0.023209850
      4875.79      0.78540930     0.023266915
      4880.66      0.76686725     0.023535745
      4885.55      0.77146503     0.023560301
      4890.43      0.76977788     0.023166497
      4895.32      0.77368117     0.023040010
      4900.22      0.77988249     0.023053237
      4905.12      0.78032974     0.023074601
      4910.02      0.79141687     0.023210072
      4914.94      0.78991262     0.023490069
      4919.85      0.79170514     0.023498554
      4924.77      0.78211034     0.023377924
      4929.70      0.78828209     0.023263084
      4934.62      0.78566819     0.023070057
      4939.56      0.78792701     0.023106478
      4944.50      0.78723538     0.023308810
      4949.44      0.78609799     0.023296355
      4954.39      0.78312991     0.023430304
      4959.35      0.78709805     0.023580920
      4964.31      0.77901788     0.023780269
      4969.27      0.79182256     0.023949906
      4974.24      0.79595435     0.024123089
      4979.22      0.80326665     0.024203754
      4984.20      0.81018072     0.024499745
      4989.18      0.81171537     0.024655405
      4994.17      0.80764473     0.024685517
      4999.16      0.81044411     0.024805446
      5004.16      0.80501603     0.025051845
      5009.17      0.80837543     0.024996735
      5014.18      0.80675531     0.025012876
      5019.19      0.80340271     0.024894189
      5024.21      0.79883091     0.025016360
      5029.23      0.80377768     0.024964082
      5034.26      0.79850356     0.024779866
      5039.30      0.80461003     0.024819971
      5044.34      0.78904737     0.024718949
      5049.39      0.79787596     0.024500351
      5054.43      0.79904986     0.024392500
      5059.49      0.79873218     0.024271797
      5064.55      0.79476533     0.024163646
      5069.61      0.79421183     0.024064084
      5074.68      0.79432072     0.023981056
      5079.76      0.79843432     0.023915829
      5084.84      0.78806100     0.023765195
      5089.92      0.78346605     0.023926297
      5095.01      0.77234521     0.023986384
      5100.11      0.76992737     0.024019275
      5105.21      0.77580656     0.024543662
      5110.31      0.77046321     0.024469356
      5115.42      0.76530780     0.024176817
      5120.54      0.75670712     0.024051869
      5125.66      0.75619876     0.023941055
      5130.79      0.75445839     0.023953049
      5135.92      0.75080364     0.023968388
      5141.05      0.74032279     0.023974859
      5146.20      0.72502705     0.023855552
      5151.34      0.72626287     0.023986222
      5156.49      0.73015380     0.023986891
      5161.65      0.73800288     0.023857586
      5166.81      0.74908498     0.023980431
      5171.98      0.75295620     0.023846256
      5177.15      0.76477274     0.023834552
      5182.33      0.76646343     0.023821652
      5187.51      0.76289510     0.023803053
      5192.70      0.76111901     0.023784211
      5197.89      0.76476468     0.023757043
      5203.09      0.77498117     0.023730947
      5208.29      0.77252147     0.023575065
      5213.50      0.77505974     0.023662149
      5218.72      0.77609155     0.023497520
      5223.93      0.78109945     0.023462733
      5229.16      0.79204129     0.023403947
      5234.39      0.79854183     0.023493930
      5239.62      0.80277452     0.023864658
      5244.86      0.81144575     0.023776108
      5250.11      0.82270869     0.023236049
      5255.36      0.82098485     0.023164547
      5260.61      0.81380959     0.022909163
      5265.87      0.81270775     0.022974327
      5271.14      0.80745274     0.022971992
      5276.41      0.79209852     0.022862401
      5281.69      0.78442316     0.023254966
      5286.97      0.77693217     0.023587131
      5292.26      0.77406270     0.023328310
      5297.55      0.76910410     0.023081256
      5302.85      0.77277833     0.023072925
      5308.15      0.75251772     0.023052450
      5313.46      0.73964503     0.023134104
      5318.77      0.71702492     0.023198577
      5324.09      0.71078017     0.023307835
      5329.42      0.70255136     0.023267488
      5334.75      0.68236967     0.023487576
      5340.08      0.67456684     0.023412953
      5345.42      0.65854203     0.023599503
      5350.77      0.65808985     0.023604597
      5356.12      0.66609209     0.023426917
      5361.48      0.67083206     0.023478694
      5366.83      0.66156460     0.023218797
      5372.20      0.66235295     0.023200157
      5377.58      0.66010975     0.022870030
      5382.95      0.66830564     0.022606166
      5388.34      0.65945458     0.022211968
      5393.72      0.65513628     0.022084002
      5399.12      0.64679305     0.021682767
      5404.52      0.64859686     0.021433894
      5409.92      0.65282216     0.021163110
      5415.33      0.65298539     0.020933698
      5420.75      0.65534635     0.020714471
      5426.17      0.66991665     0.020447035
      5431.60      0.68670173     0.020417123
      5437.03      0.69473989     0.020244082
      5442.47      0.71039771     0.020418090
      5447.91      0.71177779     0.020197126
      5453.36      0.71631735     0.019879033
      5458.81      0.72627632     0.019600241
      5464.27      0.73381388     0.019519837
      5469.73      0.74552979     0.019484923
      5475.20      0.75360426     0.019393377
      5480.68      0.75467821     0.019561426
      5486.16      0.76248765     0.019575676
      5491.65      0.77493627     0.019987684
      5497.14      0.76055836     0.019664755
      5502.64      0.75317693     0.019386975
      5508.14      0.74647486     0.019401445
      5513.65      0.74215907     0.019708603
      5519.16      0.72912678     0.019954869
      5524.68      0.72673670     0.019731175
      5530.20      0.70867032     0.019551302
      5535.73      0.70011507     0.019660520
      5541.27      0.68768022     0.019624264
      5546.81      0.67522507     0.019809440
      5552.36      0.66196730     0.019862404
      5557.91      0.64243044     0.020051930
      5563.47      0.63282569     0.020219080
      5569.04      0.61484862     0.020464614
      5574.60      0.58941235     0.020665577
      5580.18      0.57228654     0.020953530
      5585.76      0.56002438     0.021263784
      5591.35      0.54655599     0.021498670
      5596.94      0.53087478     0.021832338
      5602.53      0.50970451     0.022004179
      5608.14      0.49682998     0.022425669
      5613.75      0.48386962     0.022598032
      5619.36      0.49206770     0.022939790
      5624.98      0.49616178     0.023199460
      5630.60      0.49772276     0.023537095
      5636.23      0.50265096     0.023727403
      5641.87      0.51940183     0.024046355
      5647.51      0.53359566     0.024161635
      5653.16      0.53454666     0.024522999
      5658.82      0.55398979     0.024814804
      5664.47      0.56117619     0.024914710
      5670.14      0.58986421     0.025254533
      5675.81      0.60779247     0.025357249
      5681.48      0.62935852     0.025659727
      5687.17      0.64532239     0.025825401
      5692.85      0.65202765     0.026164635
      5698.55      0.66060103     0.026550076
      5704.25      0.66895778     0.026789886
      5709.95      0.66825139     0.027298751
      5715.66      0.67586356     0.027626171
      5721.38      0.69889571     0.028424813
      5727.10      0.71168457     0.029502024
      5732.83      0.73068814     0.030411211
      5738.56      0.73020383     0.030234080
      5744.30      0.73189078     0.030107806
      5750.04      0.72444325     0.030743935
      5755.79      0.72749176     0.031120374
      5761.55      0.72403973     0.031831829
      5767.31      0.70920368     0.032508005
      5773.08      0.69814370     0.032905889
      5778.85      0.70272115     0.033658202
      5784.63      0.69026864     0.034369912
      5790.41      0.68242772     0.034785540
      5796.21      0.68318081     0.035512680
      5802.00      0.72708518     0.024425648
      5807.81      0.73207471     0.024763474
      5813.61      0.72898634     0.025220289
      5819.43      0.72896074     0.025741903
      5825.25      0.73770799     0.026133788
      5831.07      0.73105859     0.026722905
      5836.90      0.73402407     0.027132050
      5842.74      0.73932011     0.027821096
      5848.58      0.75015244     0.028309747
      5854.43      0.74979164     0.028879234
      5860.29      0.75125358     0.028867780
      5866.15      0.74387412     0.029060141
      5872.01      0.74860224     0.029595454
      5877.89      0.74339506     0.029946751
      5883.76      0.74198606     0.030488301
      5889.65      0.72185526     0.031033993
      5895.54      0.72490255     0.031409879
      5901.43      0.71117975     0.031950164
      5907.34      0.70425366     0.032502860
      5913.24      0.69602116     0.032877821
      5919.16      0.70564162     0.033431667
      5925.08      0.70218909     0.033786268
      5931.00      0.70072277     0.034353637
      5936.93      0.70353057     0.034907162
      5942.87      0.70336156     0.035258681
      5948.81      0.70490702     0.035808326
      5954.76      0.69986073     0.036356215
      5960.72      0.70784929     0.036711341
      5966.68      0.72549257     0.037252964
      5972.64      0.71905750     0.037610368
      5978.62      0.72076990     0.038145370
      5984.60      0.71753586     0.038676511
      5990.58      0.71144345     0.039003190
      5996.57      0.71306020     0.039524840
      6002.57      0.70896088     0.040041773
      6008.57      0.71074653     0.040358512
      6014.58      0.70641371     0.040891632
      6020.60      0.70554174     0.041393988
      6026.62      0.70320151     0.041694612
      6032.65      0.71048209     0.042186167
      6038.68      0.70537342     0.042672655
      6044.72      0.69864405     0.042961432
      6050.76      0.68183673     0.043438081
      6056.81      0.68035681     0.043910331
      6062.87      0.68462305     0.044223298
      6068.93      0.67992432     0.044688020
      6075.00      0.67995562     0.045149513
      6081.08      0.68382095     0.045410667
      6087.16      0.67281426     0.045867245
      6093.25      0.66882520     0.046322660
      6099.34      0.66391586     0.046592621
      6105.44      0.66126709     0.047047069
      6111.54      0.65697471     0.047502917
      6117.66      0.67082258     0.047961267
      6123.78      0.67098889     0.048222635
      6129.90      0.67697403     0.048733348
      6136.03      0.67487196     0.049203138
      6142.17      0.68764119     0.049476286
      6148.31      0.68241615     0.049960595
      6154.46      0.68379166     0.050455093
      6160.61      0.69178348     0.050961455
      6166.77      0.69257422     0.051281094
      6172.94      0.67403944     0.051810811
      6179.11      0.67713678     0.052357202
      6185.29      0.66252555     0.052922228
      6191.48      0.66149796     0.053289564
      6197.67      0.64891275     0.053894978
      6203.87      0.63985899     0.054525061
      6210.07      0.65475112     0.054942161
      6216.28      0.65883151     0.055617806
      6222.50      0.65649434     0.056323996
      6228.72      0.65088792     0.057063054
      6234.95      0.63739578     0.057596953
      6241.19      0.62650982     0.058404339
      6247.42      0.63425340     0.059251524
      6253.67      0.63952522     0.060140917
      6259.93      0.63868338     0.060747935
      6266.19      0.64198687     0.061716469
      6272.46      0.61929182     0.062728204
      6278.73      0.61197515     0.063707608
      6285.01      0.60323056     0.064809279
      6291.29      0.59231195     0.065681838
      6297.58      0.59634659     0.066891444
      6303.88      0.60301233     0.068044003
      6310.19      0.59672061     0.069171688
      6316.50      0.59869511     0.070093340
      6322.81      0.59414945     0.071454451
      6329.14      0.62283890     0.072889431
      6335.47      0.60199841     0.074425380
      6341.80      0.61479815     0.076104182
      6348.14      0.61358694     0.077574298
      6354.49      0.59113060     0.079442346
      6360.85      0.58189630     0.081581182
      6367.21      0.58090520     0.083732346
      6373.57      0.55327896     0.086251734
      6379.95      0.55325355     0.088751758
      6386.33      0.53408936     0.091290748
      6392.72      0.52280523     0.094551803
      6399.11      0.50737429     0.097735042
      6405.51      0.50434664      0.10163545
      6411.92      0.50309993      0.10542033
      6418.32      0.49310761      0.10955001
      6424.74      0.49557750      0.11473261
