# starting wavelength =        2759.5923
# ending wavelength =        6970.1089
# O2 telluric scale =        0
# O2 telluric shift =        0
# H2O telluric scale =        0
# H2O telluric shift =        0
      2760.85       5.2736303      0.53485973
      2763.61       5.2197606      0.40163267
      2766.38       5.1457111      0.34906431
      2769.14       5.0787381      0.33359915
      2771.91       5.0168811      0.26909127
      2774.69       4.9610828      0.24291824
      2777.46       4.9461116      0.23614843
      2780.24       4.9708132      0.20550983
      2783.02       4.9470400      0.19357202
      2785.80       4.8235146      0.18893040
      2788.59       4.7939371      0.18043787
      2791.38       4.8289004      0.16885575
      2794.17       4.8824983      0.16465585
      2796.96       4.8626259      0.16110604
      2799.76       4.9286640      0.15445907
      2802.56       4.8603826      0.15043202
      2805.36       4.8350779      0.14911537
      2808.17       4.8147034      0.14471751
      2810.98       4.7812327      0.14081586
      2813.79       4.7505531      0.14270667
      2816.60       4.7001840      0.14079493
      2819.42       4.6232236      0.13698038
      2822.24       4.6163154      0.13884390
      2825.06       4.5475627      0.13695698
      2827.88       4.4965368      0.13322668
      2830.71       4.4795713      0.13506769
      2833.54       4.4011653      0.13320473
      2836.38       4.4091545      0.13496131
      2839.21       4.3732856      0.13137806
      2842.05       4.3189649      0.12953709
      2844.90       4.3387895      0.13121822
      2847.74       4.3576363      0.12776637
      2850.59       4.3321431      0.12595452
      2853.44       4.2492102      0.12756104
      2856.29       4.1968128      0.12596619
      2859.15       4.2162730      0.12245714
      2862.01       4.1658761      0.12399006
      2864.87       4.1409198      0.12240458
      2867.74       4.1537414      0.12094782
      2870.60       4.1398138      0.12050555
      2873.47       4.1527098      0.11892890
      2876.35       4.1415379      0.11747573
      2879.22       4.1383254      0.11710761
      2882.10       4.1463682      0.11553944
      2884.99       4.1449108      0.11408986
      2887.87       4.2139571      0.11567601
      2890.76       4.1858215      0.11223624
      2893.65       4.2139512      0.11079049
      2896.54       4.2266714      0.11239559
      2899.44       4.2003403      0.11081935
      2902.34       4.2061911      0.10757781
      2905.24       4.2319757      0.10920531
      2908.15       4.2824049      0.10763317
      2911.06       4.3053238      0.10617969
      2913.97       4.3087815      0.10610553
      2916.88       4.2566099      0.10453704
      2919.80       4.2716954      0.10308375
      2922.72       4.2751503      0.10309630
      2925.64       4.2928969      0.10153119
      2928.57       4.3149701      0.10007837
      2931.50       4.3218787      0.10154278
      2934.43       4.3626313     0.098616146
      2937.36       4.3669261     0.097163662
      2940.30       4.4092757     0.098540687
      2943.24       4.4164163     0.097270929
      2946.18       4.3982782     0.094339818
      2949.13       4.3887003     0.095633514
      2952.08       4.3391762     0.094354298
      2955.03       4.2965554     0.093180055
      2957.99       4.2764396     0.092821096
      2960.94       4.2647181     0.091533755
      2963.90       4.1905775     0.090346773
      2966.87       4.1451797     0.091782652
      2969.84       4.1063966     0.088808982
      2972.81       4.1060708     0.087611137
      2975.78       4.0691648     0.089111331
      2978.76       4.0447498     0.087784447
      2981.73       4.0415724     0.084972573
      2984.72       4.0223179     0.086539707
      2987.70       3.9635059     0.085201844
      2990.69       3.9462895     0.083965989
      2993.68       3.9332665     0.085348303
      2996.67       3.8872216     0.082719520
      2999.67       3.8159094     0.081471059
      3002.67       3.8084310     0.080317831
      3005.67       3.8016535     0.081674502
      3008.68       3.7786154     0.079076899
      3011.69       3.7343330     0.077909827
      3014.70       3.7246355     0.079167214
      3017.71       3.7250285     0.078159781
      3020.73       3.6787498     0.075603413
      3023.75       3.6453934     0.076769607
      3026.78       3.6566553     0.075737839
      3029.80       3.6013044     0.074797730
      3032.83       3.5666762     0.076080570
      3035.87       3.5578476     0.073427304
      3038.90       3.5535259     0.072461607
      3041.94       3.5303577     0.073853218
      3044.98       3.5021354     0.072758013
      3048.03       3.5198139     0.070237951
      3051.08       3.5301983     0.069332096
      3054.13       3.5495502     0.070620208
      3057.18       3.5178593     0.069592547
      3060.24       3.5330472     0.068653653
      3063.30       3.5344048     0.068597244
      3066.36       3.5290888     0.067544559
      3069.43       3.5762789     0.066578400
      3072.50       3.5679200     0.067830962
      3075.57       3.5788186     0.065611967
      3078.65       3.6024196     0.064620632
      3081.73       3.6208653     0.065769685
      3084.81       3.5694333     0.064920539
      3087.89       3.5327500     0.064159547
      3090.98       3.4914038     0.061843590
      3094.07       3.4814016     0.062951931
      3097.17       3.4327807     0.062151192
      3100.26       3.3981537     0.061433290
      3103.36       3.3383510     0.062661175
      3106.47       3.2887143     0.060276046
      3109.58       3.2398117     0.059518830
      3112.68       3.1745155     0.058840210
      3115.80       3.1214368     0.060018408
      3118.91       3.0937230     0.059213256
      3122.03       3.0634957     0.057021503
      3125.15       3.0000508     0.058363669
      3128.28       2.9564506     0.057518742
      3131.41       2.9587071     0.056754589
      3134.54       2.9406164     0.058020578
      3137.67       2.9278733     0.055962223
      3140.81       2.9199706     0.055159098
      3143.95       2.8639866     0.054432231
      3147.10       2.8439059     0.055641391
      3150.24       2.7935999     0.055061945
      3153.39       2.7907232     0.052936709
      3156.55       2.7773181     0.054033048
      3159.70       2.7624283     0.053396987
      3162.86       2.7534114     0.052840947
      3166.03       2.7410762     0.052366721
      3169.19       2.7302367     0.051896066
      3172.36       2.7294990     0.051285786
      3175.54       2.7106950     0.050750624
      3178.71       2.7081907     0.052111333
      3181.89       2.7174835     0.051433719
      3185.07       2.7294044     0.049306400
      3188.26       2.7428814     0.048790086
      3191.45       2.7473959     0.050168371
      3194.64       2.7497588     0.049514135
      3197.83       2.7672895     0.048936986
      3201.03       2.7525377     0.046958264
      3204.23       2.7229506     0.046525520
      3207.44       2.7001697     0.047730998
      3210.64       2.7344940     0.047170939
      3213.85       2.7206928     0.045254142
      3217.07       2.7112594     0.044832855
      3220.28       2.6967240     0.046083246
      3223.51       2.6471133     0.045538210
      3226.73       2.6498044     0.043676688
      3229.96       2.6507813     0.043265405
      3233.19       2.6305422     0.042913217
      3236.42       2.6078251     0.044037897
      3239.66       2.6017269     0.043570139
      3242.90       2.6021321     0.041823044
      3246.14       2.6186769     0.041476260
      3249.39       2.6220469     0.041185303
      3252.64       2.6185813     0.042210159
      3255.89       2.6180700     0.040504015
      3259.14       2.6426296     0.040162595
      3262.40       2.6168353     0.039872941
      3265.67       2.5993557     0.039636225
      3268.93       2.6178316     0.040584346
      3272.20       2.6438517     0.038971135
      3275.47       2.6090224     0.038682908
      3278.75       2.6117682     0.038443674
      3282.03       2.6023471     0.038254918
      3285.31       2.5930097     0.037900883
      3288.60       2.5995335     0.037613951
      3291.88       2.6045696     0.037372696
      3295.18       2.5870847     0.037177965
      3298.47       2.5820063     0.037030558
      3301.77       2.5701306     0.036664979
      3305.07       2.5484823     0.036422180
      3308.38       2.5434404     0.036222269
      3311.69       2.5166353     0.036065878
      3315.00       2.5065104     0.035954419
      3318.31       2.4993692     0.035590392
      3321.63       2.4899413     0.035386087
      3324.95       2.4777828     0.035222041
      3328.28       2.5000930     0.035098997
      3331.61       2.4805016     0.035018612
      3334.94       2.4740557     0.034668187
      3338.27       2.4582436     0.034497237
      3341.61       2.4572270     0.034364202
      3344.95       2.4470161     0.034269658
      3348.30       2.4472301     0.033083621
      3351.65       2.4325006     0.033890183
      3355.00       2.4230858     0.033747961
      3358.35       2.3871231     0.033641528
      3361.71       2.3626392     0.033570955
      3365.07       2.3279427     0.033537406
      3368.44       2.2975290     0.032306829
      3371.81       2.2847825     0.033131353
      3375.18       2.2734564     0.033046889
      3378.56       2.2717093     0.032996090
      3381.94       2.2703286     0.034033094
      3385.32       2.2708943     0.034457895
      3388.70       2.2900475     0.035353259
      3392.09       2.2961049     0.038352411
      3395.48       2.2626774     0.039602420
      3398.88       2.3061092     0.046548161
      3402.28       2.3175666     0.035333742
      3405.68       2.3204799     0.036904037
      3409.09       2.3537886     0.043232470
      3412.49       2.3766477     0.045696776
      3415.91       2.3596594     0.048555663
      3419.32       2.3492902     0.047309407
      3422.74       2.3055024     0.050802894
      3426.17       2.2933846     0.050295776
      3429.59       2.2716838     0.047520968
      3433.02       2.2640642     0.044443897
      3436.45       2.2817582     0.041828257
      3439.89       2.2641060     0.039454570
      3443.33       2.2527070     0.038732358
      3446.78       2.2319795     0.049376318
      3450.22       2.2200252     0.039721680
      3453.67       2.2105572     0.036939519
      3457.13       2.2106695     0.035610998
      3460.58       2.2177676     0.033272104
      3464.04       2.2130288     0.032178415
      3467.51       2.2012376     0.030990461
      3470.98       2.1807590     0.031027190
      3474.45       2.1767513     0.031927627
      3477.92       2.1739213     0.031055694
      3481.40       2.1898010     0.031053130
      3484.88       2.2008483     0.031069680
      3488.37       2.1801141     0.031104943
      3491.86       2.1794040     0.031158569
      3495.35       2.1696025     0.031230537
      3498.84       2.1706344     0.031225047
      3502.34       2.1782848     0.031238022
      3505.84       2.1614969     0.031268763
      3509.35       2.1691833     0.031316697
      3512.86       2.1647538     0.031381501
      3516.37       2.1615807     0.031463134
      3519.89       2.1646747     0.031496113
      3523.41       2.1845236     0.031518720
      3526.93       2.1880489     0.031557738
      3530.46       2.1742463     0.031612704
      3533.99       2.1623659     0.031683106
      3537.53       2.1656594     0.031768720
      3541.06       2.1999003     0.031869463
      3544.60       2.2161609     0.030938407
      3548.15       2.2417880     0.031925240
      3551.70       2.2509454     0.031981617
      3555.25       2.2261315     0.032052129
      3558.80       2.1980996     0.032136404
      3562.36       2.2051495     0.032234368
      3565.92       2.1906801     0.031284911
      3569.49       2.1970301     0.031403003
      3573.06       2.1856339     0.032414068
      3576.64       2.1807509     0.032479316
      3580.21       2.1586376     0.032557097
      3583.79       2.1700931     0.032647074
      3587.38       2.1896709     0.032748949
      3590.96       2.1705955     0.031782314
      3594.55       2.1522832     0.031901743
      3598.15       2.1410116     0.032031946
      3601.75       2.1323406     0.033023849
      3605.35       2.1316923     0.033100809
      3608.96       2.1144915     0.033188344
      3612.56       2.0877509     0.033286207
      3616.18       2.0611844     0.033394170
      3619.79       2.0413995     0.032409619
      3623.41       1.9977915     0.032531784
      3627.04       1.9515544     0.032662954
      3630.66       1.9482074     0.033659937
      3634.29       1.9130967     0.033737431
      3637.93       1.9001149     0.033823794
      3641.57       1.9006960     0.033918746
      3645.21       1.9053708     0.032906295
      3648.86       1.9231777     0.033013614
      3652.50       1.9547066     0.033128705
      3656.16       1.9597734     0.033251368
      3659.81       1.9691501     0.033381824
      3663.47       1.9942335     0.034348828
      3667.14       2.0170258     0.034425946
      3670.80       2.0136586     0.034510553
      3674.48       2.0245077     0.033471874
      3678.15       2.0174907     0.033567555
      3681.83       2.0218187     0.034776115
      3685.51       2.0290098     0.035737682
      3689.20       2.0180548     0.037912586
      3692.88       1.9924169     0.039154495
      3696.58       1.9758950     0.043758212
      3700.27       1.9653530     0.045995937
      3703.98       1.9460738     0.053018424
      3707.68       1.9358376     0.041626926
      3711.39       1.9347941     0.043886038
      3715.10       1.9095298     0.047286673
      3718.81       1.8961025     0.051315173
      3722.53       1.8397404     0.055112365
      3726.26       1.8405834     0.065208160
      3729.98       1.8739436     0.064679942
      3733.71       1.8845384     0.062207447
      3737.45       1.9019202     0.049331211
      3741.18       1.8902713     0.050934707
      3744.93       1.8770142     0.048250161
      3748.67       1.8758854     0.046570019
      3752.42       1.8679764     0.060685611
      3756.17       1.8586160     0.047294762
      3759.93       1.8397397     0.045155328
      3763.69       1.8294482     0.040071207
      3767.45       1.8102857     0.038711482
      3771.22       1.7951949     0.036523903
      3774.99       1.7916248     0.035439633
      3778.77       1.7868075     0.034344613
      3782.54       1.7914036     0.034403102
      3786.33       1.7853445     0.035283699
      3790.11       1.7766699     0.035352186
      3793.90       1.7717559     0.035424454
      3797.70       1.7903978     0.035500203
      3801.50       1.7993195     0.035579461
      3805.30       1.8066505     0.035662448
      3809.10       1.8060623     0.035748657
      3812.91       1.7858408     0.035838288
      3816.73       1.7695155     0.034815223
      3820.54       1.7737337     0.034859503
      3824.36       1.7568580     0.034906135
      3828.19       1.7406272     0.034955082
      3832.02       1.7224810     0.035005931
      3835.85       1.7027674     0.035059546
      3839.68       1.6797755     0.035958170
      3843.52       1.6660824     0.036019845
      3847.37       1.6476835     0.036083954
      3851.22       1.6334667     0.036150431
      3855.07       1.6448767     0.036219451
      3858.92       1.6402898     0.035280205
      3862.78       1.6425003     0.035310402
      3866.64       1.6627139     0.035342354
      3870.51       1.6720945     0.035376060
      3874.38       1.6955822     0.035411293
      3878.26       1.7019600     0.035447930
      3882.13       1.7087975     0.035486248
      3886.02       1.7274443     0.035525788
      3889.90       1.7486052     0.035566531
      3893.79       1.7605194     0.035608462
      3897.69       1.7637580     0.035651604
      3901.59       1.7547991     0.035695662
      3905.49       1.7528869     0.036609885
      3909.39       1.7312864     0.036660183
      3913.30       1.7185287     0.035768840
      3917.22       1.7189553     0.035787317
      3921.13       1.6847586     0.035806881
      3925.06       1.6772709     0.035827466
      3928.98       1.6731885     0.035848870
      3932.91       1.6729688     0.035871202
      3936.84       1.6876418     0.035894307
      3940.78       1.6875191     0.035918048
      3944.72       1.6873475     0.035942450
      3948.67       1.6765493     0.035967402
      3952.61       1.6666279     0.035992815
      3956.57       1.6510856     0.036018633
      3960.52       1.6504350     0.036044813
      3964.48       1.6525466     0.036071251
      3968.45       1.6481268     0.036097917
      3972.42       1.6406146     0.036124840
      3976.39       1.6207843     0.036151807
      3980.37       1.6187776     0.036178823
      3984.35       1.5951307     0.035180360
      3988.33       1.5923151     0.035206359
      3992.32       1.5924136     0.035232250
      3996.31       1.5783804     0.035257927
      4000.31       1.6014097     0.035283415
      4004.31       1.6095761     0.035308701
      4008.31       1.6189164     0.035333528
      4012.32       1.6152603     0.035357994
      4016.33       1.6077966     0.036294804
      4020.35       1.5955865     0.036303309
      4024.37       1.5647045     0.036311809
      4028.40       1.5655997     0.036320184
      4032.42       1.5486554     0.036328490
      4036.46       1.5551375     0.036336659
      4040.50       1.5695620     0.036344651
      4044.54       1.5728624     0.036352353
      4048.58       1.5802806     0.036359808
      4052.63       1.5856398     0.036366993
      4056.68       1.5789294     0.036373811
      4060.74       1.5495991     0.036380265
      4064.80       1.5502327     0.036386335
      4068.86       1.5373379     0.036391968
      4072.93       1.5593823     0.036397142
      4077.01       1.5675739     0.036401841
      4081.08       1.5662370     0.036406067
      4085.17       1.5617571     0.036409729
      4089.25       1.5484312     0.036412862
      4093.34       1.5311082     0.036415454
      4097.43       1.5271503     0.035396779
      4101.53       1.5110747     0.035398366
      4105.63       1.5062157     0.035399350
      4109.74       1.5040694     0.035399725
      4113.85       1.5125713     0.035399519
      4117.96       1.5132548     0.035398627
      4122.08       1.5084127     0.035397112
      4126.20       1.5125812     0.035394986
      4130.33       1.5019102     0.035392168
      4134.46       1.4698389     0.035388651
      4138.59       1.4416103     0.035384612
      4142.73       1.4346941     0.035379828
      4146.88       1.4292598     0.035374384
      4151.02       1.4345541     0.035368287
      4155.18       1.4244293     0.035361626
      4159.33       1.4226428     0.035354200
      4163.49       1.4089835     0.035346192
      4167.65       1.3880937     0.035337529
      4171.82       1.3830525     0.035328293
      4175.99       1.3825803     0.035318401
      4180.17       1.3810574     0.035307918
      4184.35       1.3662106     0.035296823
      4188.54       1.3740994     0.035285220
      4192.72       1.3694772     0.035273078
      4196.92       1.3459276     0.034483766
      4201.11       1.3248505     0.034470688
      4205.31       1.3151494     0.034457124
      4209.52       1.3074152     0.034443076
      4213.73       1.2830306     0.034428612
      4217.94       1.2661437     0.034413736
      4222.16       1.2679741     0.034398442
      4226.38       1.2759593     0.034382802
      4230.61       1.2692661     0.034366819
      4234.84       1.2647317     0.034350514
      4239.08       1.2662021     0.034333931
      4243.32       1.2770865     0.034317092
      4247.56       1.2800584     0.034300030
      4251.81       1.2934629     0.034282774
      4256.06       1.2970808     0.034265383
      4260.32       1.3074121     0.034247858
      4264.58       1.3096154     0.034230264
      4268.84       1.3206493     0.034212631
      4273.11       1.3122304     0.034194921
      4277.38       1.2975347     0.034177317
      4281.66       1.2776421     0.034995306
      4285.94       1.2710829     0.034961615
      4290.23       1.2676116     0.034927623
      4294.52       1.2517763     0.034893441
      4298.81       1.2519373     0.034859362
      4303.11       1.2771643     0.034825092
      4307.42       1.2885684     0.034790886
      4311.72       1.2649107     0.034756745
      4316.04       1.2809742     0.033947340
      4320.35       1.2797311     0.033915069
      4324.67       1.2912814     0.033882863
      4329.00       1.2913928     0.033850939
      4333.33       1.2982647     0.033819317
      4337.66       1.2947614     0.033787975
      4342.00       1.3190983     0.033757052
      4346.34       1.3461297     0.033726568
      4350.69       1.3552667     0.033696593
      4355.04       1.3613228     0.033667211
      4359.39       1.3686981     0.033638463
      4363.75       1.3788671     0.033610412
      4368.12       1.3772312     0.033583110
      4372.48       1.3823520     0.033556678
      4376.86       1.3909658     0.033531172
      4381.23       1.3833959     0.033506595
      4385.61       1.3705336     0.032649546
      4390.00       1.3614704     0.032605017
      4394.39       1.3286364     0.032561251
      4398.79       1.3189041     0.032518357
      4403.18       1.2838701     0.033299938
      4407.59       1.2586060     0.033257130
      4412.00       1.2283159     0.033215507
      4416.41       1.1919141     0.033175110
      4420.82       1.1620191     0.033135965
      4425.25       1.1524064     0.033098177
      4429.67       1.1364988     0.033061836
      4434.10       1.1167613     0.033027044
      4438.54       1.1121820     0.032993816
      4442.97       1.1087110     0.032962333
      4447.42       1.1168274     0.032141573
      4451.86       1.1158063     0.032086599
      4456.32       1.1207061     0.032033051
      4460.77       1.1327384     0.031981125
      4465.24       1.1385370     0.031930891
      4469.70       1.1483889     0.031882470
      4474.17       1.1623211     0.031835824
      4478.65       1.1642659     0.032592444
      4483.12       1.1785470     0.032548240
      4487.61       1.1989418     0.032506330
      4492.09       1.1862375     0.032466792
      4496.59       1.1692299     0.031698215
      4501.08       1.1451741     0.031632745
      4505.58       1.1255164     0.031569435
      4510.09       1.1204395     0.031508559
      4514.60       1.0959288     0.031450144
      4519.12       1.0883788     0.031394261
      4523.63       1.0855447     0.031341035
      4528.16       1.0979059     0.031290420
      4532.69       1.1078657     0.031242539
      4537.22       1.1103069     0.031981406
      4541.76       1.1303991     0.031252414
      4546.30       1.1325904     0.031177893
      4550.85       1.1264619     0.031106620
      4555.40       1.1201170     0.031038545
      4559.95       1.1225599     0.030973872
      4564.51       1.1466943     0.030912399
      4569.08       1.1704451     0.030854304
      4573.65       1.1959783     0.030799706
      4578.22       1.2073041     0.030748598
      4582.80       1.1994484     0.030061503
      4587.38       1.2053828     0.030746104
      4591.97       1.2014612     0.030667526
      4596.56       1.2051204     0.030592948
      4601.16       1.1887179     0.030522509
      4605.76       1.1990203     0.030456200
      4610.37       1.2006935     0.030394108
      4614.98       1.2149427     0.030336151
      4619.59       1.1937913     0.029650578
      4624.21       1.1748419     0.029602469
      4628.84       1.1526759     0.029558444
      4633.47       1.1181581     0.030190632
      4638.10       1.0945393     0.030113870
      4642.74       1.0912630     0.030042026
      4647.38       1.0925934     0.029975206
      4652.03       1.1079642     0.029913234
      4656.68       1.0981775     0.029232451
      4661.34       1.1034991     0.029182077
      4666.00       1.1166400     0.029136227
      4670.67       1.0969877     0.029094999
      4675.33       1.1375944     0.029685290
      4680.01       1.1351937     0.029611292
      4684.69       1.1332740     0.029543021
      4689.38       1.1315674     0.028863345
      4694.07       1.1420124     0.028808706
      4698.76       1.1405352     0.028759173
      4703.46       1.1397845     0.028714820
      4708.16       1.1156782     0.028675804
      4712.87       1.0966199     0.029240759
      4717.58       1.0835318     0.029168633
      4722.30       1.0646824     0.028493157
      4727.03       1.0317971     0.028436457
      4731.75       1.0270649     0.028385541
      4736.48       1.0221624     0.028340415
      4741.22       1.0087707     0.028301221
      4745.96      0.99078773     0.028268137
      4750.71       1.0187638     0.028184879
      4755.46       1.0252108     0.028122570
      4760.22       1.0192732     0.028066508
      4764.97       1.0410071     0.028016824
      4769.74       1.0243165     0.027973569
      4774.51       1.0233089     0.027936899
      4779.29       1.0386147     0.027907023
      4784.07       1.0337918     0.027814584
      4788.85       1.0199012     0.027755170
      4793.64       1.0156371     0.027702644
      4798.43      0.97543518     0.027657130
      4803.23      0.96326096     0.027618719
      4808.03      0.94517926     0.027587602
      4812.84      0.90763340     0.026901226
      4817.66      0.88362936     0.027450546
      4822.48      0.89761682     0.027397138
      4827.30      0.88474720     0.027351338
      4832.12      0.88138457     0.027313221
      4836.96      0.89813029     0.026674781
      4841.79      0.91377312     0.026609104
      4846.63      0.90943271     0.026551403
      4851.48      0.92201386     0.027101173
      4856.33      0.91814331     0.027057628
      4861.19      0.92176555     0.027021573
      4866.05      0.94739831     0.026387778
      4870.92      0.95385484     0.026324556
      4875.79      0.94501135     0.026269404
      4880.66      0.94574597     0.026816961
      4885.55      0.94911331     0.026777219
      4890.43      0.94545301     0.026175915
      4895.32      0.96268798     0.026108713
      4900.22      0.95181201     0.026050088
      4905.12      0.94969588     0.026000085
      4910.02      0.95363398     0.026548194
      4914.94      0.94484360     0.025972583
      4919.85      0.92417723     0.025902637
      4924.77      0.91437105     0.025841867
      4929.70      0.89704168     0.025790325
      4934.62      0.88214796     0.026333626
      4939.56      0.87342672     0.025777354
      4944.50      0.87332973     0.025705996
      4949.44      0.85912852     0.025644567
      4954.39      0.86658940     0.025593006
      4959.35      0.87041972     0.025551131
      4964.31      0.87029200     0.025590045
      4969.27      0.87544828     0.025519031
      4974.24      0.88836248     0.025458663
      4979.22      0.89758500     0.025408550
      4984.20      0.91825472     0.025368742
      4989.18      0.94464701     0.025411781
      4994.17      0.93389846     0.025342860
      4999.16      0.95833284     0.025285053
      5004.16      0.95978608     0.025238185
      5009.17      0.95976438     0.024720826
      5014.18      0.96682960     0.025243785
      5019.19      0.96646685     0.025178841
      5024.21      0.96822989     0.025125535
      5029.23      0.97339776     0.025083782
      5034.26      0.98963815     0.024576415
      5039.30      0.98752151     0.025088407
      5044.34      0.98955594     0.025029364
      5049.39      0.99606123     0.024982518
      5054.43      0.98378029     0.024473812
      5059.49      0.98361581     0.024451953
      5064.55      0.97477248     0.024948511
      5069.61      0.96582895     0.024897487
      5074.68      0.95381686     0.024859053
      5079.76      0.96679430     0.024363451
      5084.84      0.96731246     0.024350397
      5089.92      0.95795288     0.024827659
      5095.01      0.97090289     0.024786531
      5100.11      0.94953186     0.024291595
      5105.21      0.94070641     0.024277567
      5110.31      0.94576913     0.024275290
      5115.42      0.94336941     0.024729675
      5120.54      0.94662157     0.024236130
      5125.66      0.94572135     0.024222041
      5130.79      0.95755568     0.024220197
      5135.92      0.94920200     0.024688235
      5141.05      0.94994773     0.024659355
      5146.20      0.95143637     0.025350853
      5151.34      0.93242013     0.025966978
      5156.49      0.93637325     0.027416664
      5161.65      0.92669142     0.024621114
      5166.81      0.93187194     0.024869523
      5171.98      0.93675727     0.025670105
      5177.15      0.94981200     0.026735553
      5182.33      0.94807113     0.028260817
      5187.51      0.94318008     0.029485042
      5192.70      0.93888965     0.030607246
      5197.89      0.91629533     0.030364812
      5203.09      0.92988974     0.031724422
      5208.29      0.91903709     0.030643235
      5213.50      0.91639075     0.029379608
      5218.72      0.89600273     0.027389663
      5223.93      0.87841868     0.027240968
      5229.16      0.85336162     0.026086667
      5234.39      0.84278267     0.025232266
      5239.62      0.82167682     0.024606295
      5244.86      0.80129846     0.027399728
      5250.11      0.77696641     0.026458578
      5255.36      0.77792868     0.025116458
      5260.61      0.77049754     0.024328770
      5265.87      0.76122956     0.024329958
      5271.14      0.74891019     0.024347182
      5276.41      0.75530114     0.023896251
      5281.69      0.75679149     0.023890890
      5286.97      0.77247300     0.024422622
      5292.26      0.77033943     0.024000693
      5297.55      0.77142839     0.023988471
      5302.85      0.77874148     0.023992422
      5308.15      0.79516618     0.024538594
      5313.46      0.81216729     0.024103805
      5318.77      0.81477661     0.024101632
      5324.09      0.82537923     0.024646153
      5329.42      0.82861914     0.024235343
      5334.75      0.84329474     0.024227084
      5340.08      0.84163210     0.024236099
      5345.42      0.84190434     0.024797385
      5350.77      0.84281542     0.024367217
      5356.12      0.84144454     0.024370899
      5361.48      0.84845353     0.024392329
      5366.83      0.83264791     0.024520528
      5372.20      0.83246428     0.024518975
      5377.58      0.82699456     0.024535854
      5382.95      0.81972808     0.024685519
      5388.34      0.80726377     0.024678890
      5393.72      0.79317990     0.024691432
      5399.12      0.76893493     0.024314249
      5404.52      0.76660939     0.024849151
      5409.92      0.76221182     0.024857666
      5415.33      0.76231237     0.024475202
      5420.75      0.76818054     0.025028572
      5426.17      0.77218834     0.025033288
      5431.60      0.77372544     0.025058163
      5437.03      0.78679049     0.025215794
      5442.47      0.78025885     0.025216974
      5447.91      0.77684931     0.025239144
      5453.36      0.77692935     0.024866679
      5458.81      0.76383872     0.025407678
      5464.27      0.76394082     0.025427513
      5469.73      0.74917142     0.025050985
      5475.20      0.73268692     0.025604203
      5480.68      0.71312516     0.025622179
      5486.16      0.70619370     0.025241831
      5491.65      0.67996316     0.025805515
      5497.14      0.66555910     0.025822143
      5502.64      0.65723952     0.025438296
      5508.14      0.66712602     0.026010524
      5513.65      0.67297571     0.026026491
      5519.16      0.68585683     0.025639567
      5524.68      0.69265390     0.025700591
      5530.20      0.70043009     0.025804196
      5535.73      0.70953629     0.025844898
      5541.27      0.71262066     0.025907154
      5546.81      0.71133716     0.026011652
      5552.36      0.71131137     0.026053610
      5557.91      0.70689479     0.026117719
      5563.47      0.70732903     0.026221281
      5569.04      0.71412074     0.026265093
      5574.60      0.71264267     0.026331744
      5580.18      0.70670187     0.026432500
      5585.76      0.70224152     0.026478859
      5591.35      0.70675449     0.026548824
      5596.94      0.71020756     0.026644773
      5602.53      0.71316635     0.026694480
      5608.14      0.70771041     0.026281754
      5613.75      0.70654726     0.026857846
      5619.36      0.69195870     0.026911647
      5624.98      0.67986410     0.026487213
      5630.60      0.66803638     0.027071386
      5636.23      0.66263627     0.027130136
      5641.87      0.65343511     0.026692206
      5647.51      0.65702967     0.027285223
      5653.16      0.65359764     0.027349904
      5658.82      0.65489920     0.027454726
      5664.47      0.66040524     0.027499309
      5670.14      0.67952679     0.027075337
      5675.81      0.68616273     0.027662059
      5681.48      0.68189011     0.027713676
      5687.17      0.69437504     0.027271587
      5692.85      0.71367036     0.027868786
      5698.55      0.69681331     0.027453854
      5704.25      0.69934554     0.027466435
      5709.95      0.68786906     0.028075124
      5715.66      0.68228718     0.027639313
      5721.38      0.68000337     0.027660180
      5727.10      0.65462585     0.028281413
      5732.83      0.65392624     0.027822934
      5738.56      0.65043259     0.028427999
      5744.30      0.65692581     0.027993747
      5750.04      0.64878663     0.028005112
      5755.79      0.64844026     0.028623788
      5761.55      0.66041921     0.028164005
      5767.31      0.66003948     0.028186334
      5773.08      0.66460261     0.028329175
      5778.85      0.66624389     0.028332923
      5784.63      0.67682440     0.028499751
      5790.41      0.68110048     0.028484675
      5796.21      0.69362863     0.028501080
      5802.00      0.68813605     0.028640736
      5807.81      0.66863493     0.028639015
      5813.61      0.66607752     0.028800490
      5819.43      0.66395484     0.028780394
      5825.25      0.67794621     0.028793177
      5831.07      0.68567232     0.028924313
      5836.90      0.68792229     0.028919562
      5842.74      0.68926637     0.028496602
      5848.58      0.68865449     0.029047588
      5854.43      0.68941563     0.028605139
      5860.29      0.68125410     0.029176615
      5866.15      0.67523706     0.029171273
      5872.01      0.68249399     0.028742847
      5877.89      0.66271346     0.029283361
      5883.76      0.66147681     0.028836498
      5889.65      0.66635968     0.029394831
      5895.54      0.66802932     0.028928968
      5901.43      0.65456518     0.029504886
      5907.34      0.65374791     0.029485723
      5913.24      0.64731470     0.029037363
      5919.16      0.63977837     0.029577358
      5925.08      0.63876919     0.029111518
      5931.00      0.65283826     0.029666134
      5936.93      0.66851534     0.029182490
      5942.87      0.66491454     0.029206524
      5948.81      0.64319983     0.029249600
      5954.76      0.62808065     0.029260594
      5960.72      0.61779280     0.029789159
      5966.68      0.62338969     0.029310311
      5972.64      0.62502671     0.029849961
      5978.62      0.62983645     0.029354993
      5984.60      0.62973365     0.029376009
      5990.58      0.65240164     0.029393963
      5996.57      0.66033036     0.029403083
      6002.57      0.67176829     0.029426658
      6008.57      0.65614838     0.029424128
      6014.58      0.67631643     0.029452458
      6020.60      0.68778100     0.029438483
      6026.62      0.68721963     0.028937910
      6032.65      0.68903750     0.029445580
      6038.68      0.68798899     0.029458182
      6044.72      0.68550491     0.030600013
      6050.76      0.67218243     0.031275648
      6056.81      0.63519165     0.032830480
      6062.87      0.60114698     0.030259987
      6068.93      0.57287357     0.030007949
      6075.00      0.56435169     0.030894848
      6081.08      0.55207861     0.031581638
      6087.16      0.54964490     0.033439164
      6093.25      0.53060767     0.033967027
      6099.34      0.50483900     0.035896023
      6105.44      0.52099550     0.035541673
      6111.54      0.48237101     0.036262647
      6117.66      0.47989383     0.034510860
      6123.78      0.47656311     0.034107741
      6129.90      0.51522837     0.032106851
      6136.03      0.51827221     0.031533945
      6142.17      0.51843550     0.029862139
      6148.31      0.52459276     0.029006494
      6154.46      0.52835613     0.029542498
      6160.61      0.50227704     0.031897120
      6166.77      0.49153752     0.030319316
      6172.94      0.49401412     0.029544811
      6179.11      0.49034192     0.028417993
      6185.29      0.48825050     0.028355169
      6191.48      0.49783815     0.028357545
      6197.67      0.49602190     0.028295465
      6203.87      0.49188235     0.028303644
      6210.07      0.48331717     0.028243638
      6216.28      0.46704140     0.028258793
      6222.50      0.46752051     0.028202003
      6228.72      0.45774222     0.028225244
      6234.95      0.48617437     0.028173021
      6241.19      0.48935911     0.028205317
      6247.42      0.50269242     0.028159070
      6253.67      0.52114983     0.028201609
      6259.93      0.52425432     0.028162502
      6266.19      0.52165348     0.028216341
      6272.46      0.52819202     0.028185805
      6278.73      0.52069478     0.028252147
      6285.01      0.52874478     0.028231425
      6291.29      0.51879398     0.028311258
      6297.58      0.51297869     0.027888444
      6303.88      0.51601719     0.028396321
      6310.19      0.49546994     0.027989434
      6316.50      0.48094499     0.028509628
      6322.81      0.46640915     0.028526655
      6329.14      0.45624774     0.029594605
      6335.47      0.44780609     0.030658697
      6341.80      0.43552393     0.032406610
      6348.14      0.44407524     0.033798115
      6354.49      0.46653926     0.036848311
      6360.85      0.46238579     0.032096954
      6367.21      0.48679471     0.032542805
      6373.57      0.50247728     0.034745030
      6379.95      0.49532788     0.037168160
      6386.33      0.50199937     0.042333208
      6392.72      0.55956508     0.050220222
      6399.11      0.56649993     0.056564691
      6405.51      0.51756947     0.058566284
      6411.92      0.51411415     0.059707715
      6418.32      0.53846017     0.046486680
      6424.74      0.52425888     0.045389280
      6431.17      0.51782135     0.044169959
      6437.60      0.50672406     0.057361584
      6444.04      0.50837331     0.054970130
      6450.48      0.50820595     0.070001723
      6456.94      0.51450073     0.058747568
      6463.39      0.52341128     0.051636952
      6469.85      0.57170546     0.042693353
      6476.33      0.58028896     0.040207071
      6482.80      0.57334051     0.039080389
      6489.28      0.57754612     0.039393635
      6495.77      0.56920252     0.040294503
      6502.27      0.58794767     0.041867242
      6508.77      0.61745168     0.046569572
      6515.28      0.60991809     0.046736584
      6521.80      0.61348818     0.049598909
      6528.32      0.60708419     0.050360074
      6534.85      0.62042697     0.053366679
      6541.38      0.63273579     0.053657614
      6547.92      0.60979807     0.058644889
      6554.47      0.62244196     0.057150375
      6561.03      0.60138309     0.056422306
      6567.59      0.59242141     0.054573857
      6574.16      0.57371378     0.055122555
      6580.73      0.55537846     0.054038067
      6587.31      0.54057716     0.050650061
      6593.90      0.54828455     0.046904431
      6600.50      0.54809854     0.033980007
      6607.10      0.53886391     0.033883335
      6613.70      0.52445633     0.034236219
      6620.32      0.52116011     0.033999027
      6626.94      0.50759134     0.034631713
      6633.57      0.49539094     0.034635505
      6640.20      0.49126477     0.036263958
      6646.84      0.48768992     0.037391270
      6653.49      0.48504616     0.037002318
      6660.14      0.48356285     0.036580821
      6666.80      0.47004240     0.036245863
      6673.47      0.45141421     0.037707995
      6680.14      0.44381857     0.038933970
      6686.82      0.45268434     0.040537488
      6693.51      0.43757276     0.040359093
      6700.20      0.42816610     0.040117165
      6706.90      0.41245508     0.040498407
      6713.61      0.39614269     0.041005707
      6720.32      0.39497617     0.042046576
      6727.05      0.40011897     0.043226822
      6733.77      0.40211551     0.043672753
      6740.51      0.39725264     0.044800494
      6747.25      0.38817060     0.045379541
      6754.00      0.36214038     0.046551997
      6760.75      0.33884058     0.047769864
      6767.51      0.32508603     0.048387479
      6774.28      0.31250369     0.049651420
      6781.05      0.31092699     0.050225387
      6787.84      0.32370932     0.051620383
      6794.62      0.30915032     0.052978915
      6801.42      0.27634565     0.053597357
      6808.22      0.25726115     0.055086123
      6815.03      0.26024006     0.055720575
      6821.85      0.24610782     0.057205417
      6828.67      0.23895610     0.058792509
      6835.50      0.24888212     0.059471166
      6842.33      0.22022022     0.061057235
      6849.17      0.22244038     0.061710752
      6856.02      0.23958769     0.063470188
      6862.88      0.25102396     0.065160285
      6869.74      0.25899300     0.065851258
      6876.61      0.26208750     0.067725167
      6883.49      0.26817167     0.069768343
      6890.37      0.25529806     0.071032917
      6897.27      0.25035057     0.073443251
      6904.16      0.27578275     0.074911177
      6911.07      0.29100468     0.077727757
      6917.98      0.32191950     0.080850038
      6924.89      0.31818463     0.083984191
      6931.82      0.29894841     0.088152665
      6938.75      0.34024735     0.093010005
      6945.69      0.32770875     0.096992291
      6952.64      0.32339043      0.10368972
      6959.59      0.30380760      0.11189845
      6966.55      0.31545333      0.12417773
