# starting wavelength =        2252.4355
# ending wavelength =        5869.0835
# O2 telluric scale =        0
# O2 telluric shift =        0
# H2O telluric scale =        0
# H2O telluric shift =        0
      2253.83      0.22206040      0.10689252
      2256.09      0.20618307      0.10499458
      2258.34      0.20568811      0.10322724
      2260.60      0.20461991      0.10141910
      2262.86      0.21659225     0.099691606
      2265.12      0.22976346     0.098006225
      2267.39      0.21914272     0.096398151
      2269.66      0.20989297     0.094884125
      2271.93      0.20641422     0.093417318
      2274.20      0.20158370     0.091964647
      2276.47      0.20524844     0.090550529
      2278.75      0.18385929     0.089316168
      2281.03      0.17732184     0.087898888
      2283.31      0.17934470     0.086613511
      2285.59      0.19409279     0.085226286
      2287.88      0.20641934     0.083644323
      2290.17      0.19614610     0.082346502
      2292.46      0.20147668     0.081092492
      2294.75      0.21502203     0.079934960
      2297.04      0.20261336     0.078762709
      2299.34      0.20746000     0.077592454
      2301.64      0.21664379     0.076504202
      2303.94      0.22348828     0.075470594
      2306.25      0.20939823     0.074484875
      2308.55      0.20564687     0.073537205
      2310.86      0.21564234     0.072454013
      2313.17      0.23655066     0.071566701
      2315.49      0.23451237     0.070725189
      2317.80      0.24547164     0.069936776
      2320.12      0.25360531     0.069165601
      2322.44      0.25163119     0.068385872
      2324.76      0.25761229     0.067646541
      2327.09      0.27030816     0.066924632
      2329.41      0.28915766     0.066228413
      2331.74      0.28178046     0.065554362
      2334.08      0.28069017     0.064867264
      2336.41      0.28788608     0.064207531
      2338.75      0.30504764     0.063567515
      2341.08      0.29585379     0.062946391
      2343.43      0.29688053     0.062344116
      2345.77      0.29127729     0.061764958
      2348.12      0.27985972     0.061175776
      2350.46      0.27280403     0.060599398
      2352.81      0.27658709     0.059931516
      2355.17      0.28645967     0.059385971
      2357.52      0.29186192     0.058851004
      2359.88      0.30179345     0.058297294
      2362.24      0.29470455     0.057784747
      2364.60      0.28803627     0.057295036
      2366.97      0.29556031     0.056809193
      2369.33      0.29547583     0.056345003
      2371.70      0.30095327     0.055898276
      2374.08      0.31857488     0.055302351
      2376.45      0.32591301     0.054831880
      2378.83      0.32405811     0.054374438
      2381.20      0.33148468     0.053784643
      2383.59      0.33304086     0.053288408
      2385.97      0.32948518     0.052798278
      2388.36      0.33095615     0.052342981
      2390.75      0.32358975     0.051785278
      2393.14      0.32820856     0.051288299
      2395.53      0.33149123     0.050782571
      2397.93      0.32618102     0.050330009
      2400.32      0.28964467     0.071680076
      2402.72      0.29255467     0.071018223
      2405.13      0.29458656     0.070386150
      2407.53      0.29743280     0.069758448
      2409.94      0.29941342     0.069113641
      2412.35      0.30628228     0.068280323
      2414.76      0.30744278     0.067633951
      2417.18      0.31143630     0.067024275
      2419.59      0.34146901     0.066370852
      2422.01      0.34264645     0.065654896
      2424.44      0.35207513     0.064933549
      2426.86      0.34803879     0.064243612
      2429.29      0.35083909     0.063325575
      2431.72      0.33518465     0.062609435
      2434.15      0.32601723     0.061937322
      2436.58      0.32277036     0.061254394
      2439.02      0.33279888     0.060580734
      2441.46      0.32619018     0.059854670
      2443.90      0.33535028     0.059212707
      2446.34      0.34273182     0.058411363
      2448.79      0.34401399     0.057765371
      2451.24      0.35672576     0.057150141
      2453.69      0.35170895     0.056575175
      2456.14      0.35892836     0.055992744
      2458.60      0.35610470     0.055260647
      2461.06      0.35276555     0.054709834
      2463.52      0.35082337     0.054201460
      2465.98      0.35003098     0.053715919
      2468.45      0.33594636     0.053237798
      2470.92      0.33228215     0.052616513
      2473.39      0.33964698     0.052141480
      2475.86      0.34566794     0.051672184
      2478.34      0.35133763     0.051231497
      2480.82      0.36494953     0.050789163
      2483.30      0.36212315     0.050224480
      2485.78      0.36215725     0.049818966
      2488.27      0.35961986     0.049483743
      2490.76      0.36825993     0.049089132
      2493.25      0.37731661     0.048568998
      2495.74      0.38352096     0.048177747
      2498.24      0.37359883     0.047795226
      2500.74      0.37941943     0.047425779
      2503.24      0.38846959     0.046978876
      2505.74      0.38817636     0.046632231
      2508.25      0.39085065     0.046289014
      2510.75      0.39074109     0.045845033
      2513.26      0.39232483     0.046171495
      2515.78      0.39008075     0.045715903
      2518.29      0.39239145     0.045139801
      2520.81      0.39440042     0.045402084
      2523.33      0.39287163     0.044691776
      2525.86      0.38018056     0.044120295
      2528.38      0.38076420     0.043610264
      2530.91      0.38638743     0.043462933
      2533.44      0.38798781     0.043330825
      2535.98      0.40412914     0.043142231
      2538.51      0.39824706     0.043101633
      2541.05      0.40662908     0.043104528
      2543.59      0.40724571     0.042992412
      2546.13      0.41224289     0.042958820
      2548.68      0.41680107     0.042984415
      2551.23      0.42388807     0.042889719
      2553.78      0.42395302     0.042860640
      2556.34      0.42740856     0.042930270
      2558.89      0.43838477     0.042590407
      2561.45      0.45049625     0.042325737
      2564.01      0.45380253     0.041970177
      2566.58      0.46372619     0.041715997
      2569.14      0.48028971     0.041461245
      2571.71      0.49348218     0.041118420
      2574.28      0.50885232     0.040942887
      2576.86      0.50873006     0.040565421
      2579.44      0.51239577     0.040242523
      2582.01      0.51207863     0.039884714
      2584.60      0.50785168     0.039437987
      2587.18      0.52058824     0.038994641
      2589.77      0.52589669     0.038410668
      2592.36      0.53438203     0.037917086
      2594.95      0.52815018     0.037378450
      2597.55      0.53037664     0.036936980
      2600.14      0.54335712     0.036495838
      2602.74      0.54615704     0.035957054
      2605.35      0.54701175     0.035582890
      2607.95      0.54023520     0.035100665
      2610.56      0.54791841     0.034776394
      2613.17      0.55794929     0.034430210
      2615.79      0.55478039     0.033956467
      2618.40      0.55301978     0.033511188
      2621.02      0.54907253     0.033282745
      2623.64      0.54449015     0.032702609
      2626.26      0.53202711     0.032370506
      2628.89      0.53454115     0.032005504
      2631.52      0.52945667     0.031791240
      2634.15      0.52259907     0.031494902
      2636.79      0.51733248     0.031313573
      2639.42      0.50343870     0.031115113
      2642.06      0.49418653     0.031049837
      2644.70      0.48693969     0.030892588
      2647.35      0.47708275     0.030879329
      2650.00      0.46737896     0.030769368
      2652.65      0.46563733     0.030748771
      2655.30      0.46462834     0.030720463
      2657.96      0.45584523     0.030597783
      2660.61      0.45204945     0.030445977
      2663.27      0.44604166     0.030301712
      2665.94      0.43494640     0.030233872
      2668.60      0.42917674     0.030089949
      2671.27      0.42727307     0.030063807
      2673.94      0.43254924     0.029922965
      2676.62      0.42761186     0.029834622
      2679.29      0.41941431     0.029741311
      2681.97      0.41876152     0.029576785
      2684.66      0.42613514     0.029453440
      2687.34      0.42941770     0.029342498
      2690.03      0.43587222     0.029205010
      2692.72      0.43747196     0.029083186
      2695.41      0.44263640     0.028955554
      2698.11      0.44706092     0.028784327
      2700.81      0.46950539     0.040542572
      2703.51      0.47050446     0.040362069
      2706.21      0.47224586     0.040204280
      2708.92      0.47615512     0.040041843
      2711.62      0.48928823     0.039886487
      2714.34      0.49541989     0.039736306
      2717.05      0.50400541     0.039429634
      2719.77      0.50057857     0.039416345
      2722.49      0.52933440     0.039059514
      2725.21      0.54687338     0.038811459
      2727.94      0.54288020     0.038626033
      2730.66      0.57609714     0.038443887
      2733.39      0.56620667     0.038138011
      2736.13      0.56082965     0.038153373
      2738.86      0.58180034     0.037896694
      2741.60      0.59099462     0.037820930
      2744.34      0.60187631     0.037900850
      2747.09      0.61278752     0.037703673
      2749.84      0.63333653     0.037620573
      2752.59      0.67125074     0.037501047
      2755.34      0.69076126     0.037377470
      2758.09      0.72518623     0.037272807
      2760.85      0.76263434     0.037064093
      2763.61      0.79810081     0.037138728
      2766.38      0.83620015     0.036954556
      2769.14      0.87191548     0.036903032
      2771.91      0.88702976     0.036953434
      2774.69      0.91087985     0.036720398
      2777.46      0.92060792     0.036610362
      2780.24      0.91129934     0.036477157
      2783.02      0.92158652     0.036317604
      2785.80      0.88979743     0.036116623
      2788.59      0.89032309     0.035893245
      2791.38      0.88920118     0.035588528
      2794.17      0.87309649     0.035436742
      2796.96      0.86397705     0.035362622
      2799.76      0.86077619     0.035098254
      2802.56      0.86181302     0.034987719
      2805.36      0.85505123     0.034887796
      2808.17      0.85541264     0.034693600
      2810.98      0.84884271     0.034736682
      2813.79      0.85364520     0.034684910
      2816.60      0.86295638     0.034501843
      2819.42      0.86766619     0.034453792
      2822.24      0.86260143     0.034447043
      2825.06      0.84395453     0.034259134
      2827.88      0.84317543     0.034033311
      2830.71      0.84247313     0.034120793
      2833.54      0.81878005     0.034086210
      2836.38      0.82222299     0.033998512
      2839.21      0.79717310     0.033782331
      2842.05      0.80427594     0.033627079
      2844.90      0.79454495     0.033468945
      2847.74      0.78524721     0.033262115
      2850.59      0.78447096     0.032908120
      2853.44      0.78043395     0.032430946
      2856.29      0.76232621     0.032261293
      2859.15      0.75296741     0.031962684
      2862.01      0.75979346     0.031696988
      2864.87      0.76244512     0.031494846
      2867.74      0.77960985     0.031295240
      2870.60      0.79336281     0.031246005
      2873.47      0.81069014     0.031263585
      2876.35      0.82694590     0.031350915
      2879.22      0.85403783     0.031245327
      2882.10      0.88084710     0.031249988
      2884.99      0.92116519     0.031145178
      2887.87      0.94423639     0.031199355
      2890.76      0.99439571     0.031198173
      2893.65       1.0164906     0.031220218
      2896.54       1.0368033     0.031261152
      2899.44       1.0561097     0.031535716
      2902.34       1.0867495     0.031606803
      2905.24       1.1144024     0.031352133
      2908.15       1.1278586     0.031324187
      2911.06       1.1420955     0.031330980
      2913.97       1.1629103     0.031493758
      2916.88       1.1810470     0.031683778
      2919.80       1.1870224     0.031888420
      2922.72       1.1937830     0.032081995
      2925.64       1.1934514     0.032235136
      2928.57       1.1904965     0.032265450
      2931.50       1.1776547     0.032312621
      2934.43       1.1603483     0.032201085
      2937.36       1.1367923     0.032038479
      2940.30       1.1255342     0.031803416
      2943.24       1.1028320     0.031561248
      2946.18       1.0935889     0.031299288
      2949.13       1.0571276     0.031071724
      2952.08       1.0249489     0.030976266
      2955.03       1.0284780     0.030950589
      2957.99       1.0136467     0.030984702
      2960.94      0.99510481     0.030558287
      2963.90      0.97182910     0.030468002
      2966.87      0.96173564     0.030383605
      2969.84      0.96334255     0.030289942
      2972.81      0.93872540     0.030111123
      2975.78      0.92343510     0.030032465
      2978.76      0.89740161     0.030070916
      2981.73      0.86896374     0.030235329
      2984.72      0.83608732     0.029970864
      2987.70      0.81736185     0.029791552
      2990.69      0.78726377     0.029888356
      2993.68      0.76327077     0.030075443
      2996.67      0.75419342     0.030301371
      2999.67      0.73837232     0.030449561
      3002.67      0.72185280     0.030659503
      3005.67      0.69634606     0.030802940
      3008.68      0.69562743     0.030884339
      3011.69      0.71084387     0.030717338
      3014.70      0.71699288     0.030688291
      3017.71      0.71545859     0.030467784
      3020.73      0.71584310     0.030097473
      3023.75      0.72209354     0.029795739
      3026.78      0.72767819     0.029497737
      3029.80      0.73142983     0.029143830
      3032.83      0.74308324     0.029119775
      3035.87      0.70881161     0.029194872
      3038.90      0.68665726     0.029342261
      3041.94      0.68949045     0.028892886
      3044.98      0.70543543     0.028752871
      3048.03      0.69351364     0.028721267
      3051.08      0.68125544     0.028687656
      3054.13      0.66522741     0.028657625
      3057.18      0.65021651     0.028521153
      3060.24      0.64820823     0.028580670
      3063.30      0.65530593     0.028452862
      3066.36      0.67188439     0.028427976
      3069.43      0.68329660     0.028405053
      3072.50      0.70121326     0.028383657
      3075.57      0.70834662     0.028370920
      3078.65      0.71375710     0.028259638
      3081.73      0.72209932     0.028351048
      3084.81      0.74162387     0.028244060
      3087.89      0.75419023     0.028222853
      3090.98      0.76311822     0.028106046
      3094.07      0.75561176     0.028172717
      3097.17      0.78198577     0.028046901
      3100.26      0.79418866     0.028015465
      3103.36      0.82772459     0.027991203
      3106.47      0.81474333     0.027997465
      3109.58      0.81376451     0.027984058
      3112.68      0.81263633     0.027984593
      3115.80      0.82268945     0.027886204
      3118.91      0.83043728     0.027979610
      3122.03      0.84151049     0.027902564
      3125.15      0.86639424     0.027909446
      3128.28      0.87989235     0.027929036
      3131.41      0.90416343     0.027914901
      3134.54      0.90790946     0.027913645
      3137.67      0.89948134     0.027797170
      3140.81      0.91362630     0.027870946
      3143.95      0.92610954     0.027749082
      3147.10      0.92482914     0.027807087
      3150.24      0.92066534     0.027684056
      3153.39      0.90854757     0.027549023
      3156.55      0.90645964     0.027587670
      3159.70      0.91469097     0.027452636
      3162.86      0.93001319     0.027420487
      3166.03      0.91608156     0.027404156
      3169.19      0.91062102     0.027375897
      3172.36      0.91110274     0.027266235
      3175.54      0.90664563     0.027344450
      3178.71      0.90962732     0.027346732
      3181.89      0.92604314     0.027431450
      3185.07      0.93218281     0.027576333
      3188.26      0.92979658     0.027268954
      3191.45      0.93272660     0.027261652
      3194.64      0.93292849     0.027286099
      3197.83      0.92345899     0.027560361
      3201.03      0.92482620     0.027671931
      3204.23      0.91580381     0.027872855
      3207.44      0.89291287     0.028077809
      3210.64      0.86967640     0.028194903
      3213.85      0.85563807     0.028233896
      3217.07      0.83288345     0.028186870
      3220.28      0.83506211     0.027960324
      3223.51      0.82487165     0.027767829
      3226.73      0.81045598     0.027549294
      3229.96      0.80095122     0.027302601
      3233.19      0.79460021     0.027072385
      3236.42      0.78967068     0.026936635
      3239.66      0.78991020     0.026824145
      3242.90      0.79497078     0.026971281
      3246.14      0.78781059     0.027180537
      3249.39      0.79296300     0.026836903
      3252.64      0.78989419     0.026853664
      3255.89      0.80728644     0.026848734
      3259.14      0.80929144     0.027217797
      3262.40      0.81529441     0.026827349
      3265.67      0.81799721     0.026711010
      3268.93      0.82229974     0.026746282
      3272.20      0.81913237     0.026828887
      3275.47      0.82857434     0.026883784
      3278.75      0.82791399     0.027050139
      3282.03      0.84416752     0.027191661
      3285.31      0.84718868     0.027284840
      3288.60      0.83772108     0.027252341
      3291.88      0.84150893     0.027240379
      3295.18      0.84430998     0.027152526
      3298.47      0.85049947     0.027009850
      3301.77      0.85846278     0.026823188
      3305.07      0.85257390     0.026617942
      3308.38      0.85855350     0.026407890
      3311.69      0.86855716     0.026192433
      3315.00      0.87281504     0.026102666
      3318.31      0.89142201     0.026134064
      3321.63      0.89143852     0.026373296
      3324.95      0.90217339     0.026103534
      3328.28      0.90382242     0.026119116
      3331.61      0.90385052     0.026115715
      3334.94      0.90799076     0.026103747
      3338.27      0.90891444     0.026029054
      3341.61      0.89869864     0.026024867
      3344.95      0.89711312     0.026013200
      3348.30      0.87861817     0.026005959
      3351.65      0.87708753     0.025993024
      3355.00      0.87470696     0.026015296
      3358.35      0.87984198     0.026029797
      3361.71      0.88303061     0.025965181
      3365.07      0.88730868     0.025997523
      3368.44      0.89426278     0.026033015
      3371.81      0.91753226     0.026060559
      3375.18      0.92953593     0.026021144
      3378.56      0.95060239     0.026039917
      3381.94      0.97553652     0.026053490
      3385.32      0.98765556     0.026070175
      3388.70      0.98869418     0.025995209
      3392.09      0.98397740     0.026001736
      3395.48      0.98114120     0.026001934
      3398.88      0.99030885     0.025992942
      3402.28      0.97860655     0.025927043
      3405.68      0.97718084     0.025937372
      3409.09      0.96994447     0.026027732
      3412.49      0.96472529     0.025988858
      3415.91      0.96878634     0.026034262
      3419.32      0.96117965     0.026073842
      3422.74      0.96863585     0.026057051
      3426.17      0.96601698     0.026090852
      3429.59      0.96937440     0.026335108
      3433.02      0.97766807     0.026159358
      3436.45      0.97145960     0.026137182
      3439.89      0.97244891     0.026141940
      3443.33      0.98161967     0.026621310
      3446.78      0.99272309     0.026499695
      3450.22      0.99984948     0.026627823
      3453.67      0.99589419     0.026881487
      3457.13       1.0137770     0.027118198
      3460.58       1.0185185     0.027528436
      3464.04       1.0351453     0.027719589
      3467.51       1.0349602     0.027965288
      3470.98       1.0500980     0.028050064
      3474.45       1.0715584     0.028037343
      3477.92       1.0934789     0.027844147
      3481.40       1.1078120     0.027810537
      3484.88       1.1117116     0.027514354
      3488.37       1.1236001     0.027300396
      3491.86       1.1328088     0.027267450
      3495.35       1.1547583     0.027212607
      3498.84       1.1613014     0.026986606
      3502.34       1.1685133     0.026899362
      3505.84       1.1644361     0.026982742
      3509.35       1.1736368     0.027322768
      3512.86       1.1800447     0.027040438
      3516.37       1.1857605     0.027106919
      3519.89       1.1893868     0.027214405
      3523.41       1.1912466     0.027462677
      3526.93       1.1883741     0.027451777
      3530.46       1.2087806     0.027468905
      3533.99       1.2355431     0.027681258
      3537.53       1.2470674     0.027890076
      3541.06       1.2664780     0.028155425
      3544.60       1.2649942     0.028365346
      3548.15       1.2754319     0.028945753
      3551.70       1.2637966     0.028907720
      3555.25       1.2773146     0.028876279
      3558.80       1.2934130     0.028887165
      3562.36       1.2944617     0.028990388
      3565.92       1.2774988     0.029155419
      3569.49       1.2482897     0.029127402
      3573.06       1.2195045     0.029151046
      3576.64       1.2081693     0.029046130
      3580.21       1.1796875     0.029268232
      3583.79       1.1561479     0.029041554
      3587.38       1.1309594     0.029134561
      3590.96       1.1143103     0.029566958
      3594.55       1.1148626     0.029187041
      3598.15       1.1207027     0.029175695
      3601.75       1.1261197     0.029254084
      3605.35       1.1232587     0.029307988
      3608.96       1.1275017     0.029319803
      3612.56       1.1368888     0.029501097
      3616.18       1.1479578     0.029886976
      3619.79       1.1553451     0.029848598
      3623.41       1.1824020     0.029712306
      3627.04       1.2057667     0.029807471
      3630.66       1.2041456     0.030053860
      3634.29       1.2084784     0.029865336
      3637.93       1.2314498     0.029805098
      3641.57       1.2387305     0.030027112
      3645.21       1.2526048     0.030463558
      3648.86       1.2488588     0.031280560
      3652.50       1.2557885     0.031451602
      3656.16       1.2762074     0.031583157
      3659.81       1.2936029     0.031846405
      3663.47       1.3095977     0.032301507
      3667.14       1.3293012     0.032852170
      3670.80       1.3625111     0.033444060
      3674.48       1.4038097     0.033967682
      3678.15       1.4257293     0.034786132
      3681.83       1.4548052     0.035135634
      3685.51       1.4673554     0.035327936
      3689.20       1.4978175     0.035820426
      3692.88       1.5301902     0.036623972
      3696.58       1.5613395     0.037805495
      3700.27       1.5601377     0.039351717
      3703.98       1.5768759     0.039312438
      3707.68       1.5907429     0.040243323
      3711.39       1.5603408     0.041648351
      3715.10       1.5531914     0.043632744
      3718.81       1.5116926     0.046496540
      3722.53       1.4945398     0.050353590
      3726.26       1.4810336     0.051322090
      3729.98       1.4193940     0.053730087
      3733.71       1.3532712     0.056011382
      3737.45       1.2905643     0.057571512
      3741.18       1.2156506     0.058407822
      3744.93       1.1271405     0.058362306
      3748.67       1.0432024     0.057384991
      3752.42      0.97349746     0.055626057
      3756.17      0.96046894     0.053130231
      3759.93      0.93083102     0.050372154
      3763.69      0.92604717     0.048238394
      3767.45      0.91240023     0.046203559
      3771.22      0.88905259     0.044571806
      3774.99      0.87386148     0.043120555
      3778.77      0.88759134     0.041543762
      3782.54      0.90720807     0.040347705
      3786.33      0.88996269     0.039015305
      3790.11      0.90150841     0.038051015
      3793.90      0.91477159     0.037170454
      3797.70      0.93990938     0.036195176
      3801.50      0.94828758     0.035431308
      3805.30      0.95382872     0.034661649
      3809.10      0.96575440     0.034142185
      3812.91      0.98438735     0.033626686
      3816.73       1.0027556     0.033104210
      3820.54       1.0222482     0.032691808
      3824.36       1.0573995     0.032258130
      3828.19       1.0719328     0.031917535
      3832.02       1.0845461     0.031480819
      3835.85       1.1031458     0.031276057
      3839.68       1.1071207     0.030886397
      3843.52       1.1256911     0.030635363
      3847.37       1.1398445     0.030355016
      3851.22       1.1593556     0.030125330
      3855.07       1.1674199     0.029882749
      3858.92       1.1645018     0.029698652
      3862.78       1.1942576     0.029414478
      3866.64       1.2071409     0.029824679
      3870.51       1.2245950     0.029199265
      3874.38       1.2387396     0.029024396
      3878.26       1.2599467     0.028822890
      3882.13       1.2852591     0.028955036
      3886.02       1.2880023     0.029267179
      3889.90       1.2976618     0.029357217
      3893.79       1.3152049     0.029234592
      3897.69       1.3464144     0.029456906
      3901.59       1.3392963     0.029572636
      3905.49       1.3574796     0.029670223
      3909.39       1.3692447     0.030169786
      3913.30       1.3962685     0.030649076
      3917.22       1.4284876     0.031002251
      3921.13       1.4455017     0.030980532
      3925.06       1.4657603     0.031205157
      3928.98       1.4751980     0.031357653
      3932.91       1.4994205     0.031456593
      3936.84       1.5314088     0.031512626
      3940.78       1.5304205     0.031716457
      3944.72       1.5233363     0.030819303
      3948.67       1.5272605     0.030335748
      3952.61       1.5170548     0.029629426
      3956.57       1.4843395     0.029068666
      3960.52       1.4608360     0.028794633
      3964.48       1.4501375     0.028270593
      3968.45       1.4179698     0.027743972
      3972.42       1.3904046     0.027663856
      3976.39       1.3597616     0.027192968
      3980.37       1.3327995     0.026863769
      3984.35       1.3225500     0.026919989
      3988.33       1.3032748     0.027032092
      3992.32       1.2749787     0.026847181
      3996.31       1.2599624     0.026636645
      4000.31       1.2438332     0.026627422
      4004.31       1.2348903     0.026614865
      4008.31       1.2433850     0.026476565
      4012.32       1.2409175     0.026529439
      4016.33       1.2255665     0.026432643
      4020.35       1.2138145     0.026415621
      4024.37       1.2157514     0.026356250
      4028.40       1.2127303     0.026296102
      4032.42       1.2058124     0.026220159
      4036.46       1.1984412     0.026127791
      4040.50       1.1867770     0.025963340
      4044.54       1.1688044     0.025959174
      4048.58       1.1769312     0.025862773
      4052.63       1.1849909     0.025682696
      4056.68       1.1835594     0.025644221
      4060.74       1.1872684     0.025795706
      4064.80       1.1997294     0.025321135
      4068.86       1.2023514     0.025180765
      4072.93       1.2110333     0.025167392
      4077.01       1.2051160     0.025103743
      4081.08       1.1961846     0.025150493
      4085.17       1.1922153     0.025288516
      4089.25       1.1812688     0.025224939
      4093.34       1.1728101     0.025222472
      4097.43       1.1621478     0.025147185
      4101.53       1.1472086     0.025006146
      4105.63       1.1313135     0.025018442
      4109.74       1.1004548     0.024642225
      4113.85       1.0851801     0.024395631
      4117.96       1.0770298     0.024099380
      4122.08       1.0713717     0.023877483
      4126.20       1.0826925     0.023862926
      4130.33       1.0824813     0.023986292
      4134.46       1.0818739     0.024206637
      4138.59       1.1056804     0.024526921
      4142.73       1.1136880     0.024224392
      4146.88       1.1145356     0.024312430
      4151.02       1.1231325     0.024250315
      4155.18       1.1256687     0.024693856
      4159.33       1.1169191     0.024343757
      4163.49       1.1300891     0.023865798
      4167.65       1.1322730     0.023633738
      4171.82       1.1319883     0.023699524
      4175.99       1.1249059     0.023884178
      4180.17       1.1010255     0.024110290
      4184.35       1.0942875     0.024508947
      4188.54       1.0777744     0.024749125
      4192.72       1.0808571     0.024857193
      4196.92       1.0776297     0.024548234
      4201.11       1.0772362     0.024092742
      4205.31       1.0720093     0.023647998
      4209.52       1.0582361     0.023550045
      4213.73       1.0548250     0.023359427
      4217.94       1.0520234     0.022952010
      4222.16       1.0435573     0.022812013
      4226.38       1.0488460     0.022891052
      4230.61       1.0487913     0.023173005
      4234.84       1.0579934     0.023927803
      4239.08       1.0538361     0.023365656
      4243.32       1.0558217     0.022901413
      4247.56       1.0618347     0.022590155
      4251.81       1.0630369     0.022227285
      4256.06       1.0668348     0.021781379
      4260.32       1.0728345     0.021281133
      4264.58       1.0827591     0.020872089
      4268.84       1.0967300     0.020548223
      4273.11       1.1233150     0.020240930
      4277.38       1.1254009     0.019925269
      4281.66       1.1361325     0.019748215
      4285.94       1.1362285     0.019640713
      4290.23       1.1337257     0.019756580
      4294.52       1.1246675     0.019770517
      4298.81       1.1153319     0.019569170
      4303.11       1.0989728     0.019484222
      4307.42       1.0887148     0.019487261
      4311.72       1.0749686     0.019481370
      4316.04       1.0531622     0.019488991
      4320.35       1.0283456     0.019420378
      4324.67       1.0102170     0.019319486
      4329.00      0.98984761     0.019258464
      4333.33      0.96551526     0.019162295
      4337.66      0.94570090     0.019119489
      4342.00      0.92820641     0.019087165
      4346.34      0.90681020     0.019031633
      4350.69      0.89327734     0.019047614
      4355.04      0.87728961     0.019026967
      4359.39      0.86837722     0.019006656
      4363.75      0.86272591     0.018988537
      4368.12      0.85465889     0.019002791
      4372.48      0.85856876     0.018976679
      4376.86      0.86855386     0.018828410
      4381.23      0.88262741     0.018749957
      4385.61      0.89883712     0.018690619
      4390.00      0.92403744     0.018697760
      4394.39      0.94918002     0.018635501
      4398.79      0.97058459     0.018585415
      4403.18       1.0003914     0.018599580
      4407.59       1.0293854     0.018609098
      4412.00       1.0454880     0.018607861
      4416.41       1.0639793     0.018692089
      4420.82       1.0835528     0.018699485
      4425.25       1.1054207     0.018713842
      4429.67       1.1200332     0.018651011
      4434.10       1.1372520     0.018761813
      4438.54       1.1455707     0.018949563
      4442.97       1.1629616     0.019022916
      4447.42       1.1851080     0.018908266
      4451.86       1.2049237     0.018928188
      4456.32       1.2359634     0.019113090
      4460.77       1.2586467     0.019363502
      4465.24       1.2819407     0.019589425
      4469.70       1.3153371     0.019900018
      4474.17       1.3365999     0.020050462
      4478.65       1.3612734     0.020164238
      4483.12       1.3926186     0.020175858
      4487.61       1.4222787     0.020077753
      4492.09       1.4519643     0.019826910
      4496.59       1.4760510     0.019625141
      4501.08       1.5058850     0.019274804
      4505.58       1.5375038     0.019092193
      4510.09       1.5752662     0.018994737
      4514.60       1.5874761     0.018501532
      4519.12       1.6129303     0.018307063
      4523.63       1.6287393     0.018471087
      4528.16       1.6519291     0.018714978
      4532.69       1.6710874     0.018946194
      4537.22       1.6744221     0.018882022
      4541.76       1.6887283     0.018969169
      4546.30       1.6943750     0.019226472
      4550.85       1.7015149     0.019457085
      4555.40       1.7078809     0.019729986
      4559.95       1.7021013     0.019928437
      4564.51       1.7086256     0.020149277
      4569.08       1.7156299     0.020211753
      4573.65       1.7068570     0.020273616
      4578.22       1.7079081     0.020202890
      4582.80       1.7116283     0.020246810
      4587.38       1.7119035     0.020130140
      4591.97       1.7191675     0.019819373
      4596.56       1.7151330     0.019658724
      4601.16       1.6945356     0.019240524
      4605.76       1.6845535     0.018934303
      4610.37       1.6588332     0.018628908
      4614.98       1.6390734     0.018512536
      4619.59       1.6121039     0.018399532
      4624.21       1.5861555     0.018126768
      4628.84       1.5653197     0.017903363
      4633.47       1.5394346     0.017674799
      4638.10       1.5183977     0.017423744
      4642.74       1.4909531     0.017151665
      4647.38       1.4682109     0.016982968
      4652.03       1.4363167     0.016738369
      4656.68       1.4032560     0.016512586
      4661.34       1.3727680     0.016283729
      4666.00       1.3499360     0.016195430
      4670.67       1.3279360     0.016157929
      4675.33       1.2981531     0.016120634
      4680.01       1.2615455     0.015864595
      4684.69       1.2174023     0.015810438
      4689.38       1.1732180     0.015820220
      4694.07       1.1473905     0.015739756
      4698.76       1.1275268     0.015653911
      4703.46       1.1084296     0.015615341
      4708.16       1.0828993     0.015530511
      4712.87       1.0790642     0.015545278
      4717.58       1.0708352     0.015481315
      4722.30       1.0795802     0.015377598
      4727.03       1.0877110     0.015335515
      4731.75       1.0875636     0.015304750
      4736.48       1.0974014     0.015248192
      4741.22       1.0903851     0.015234459
      4745.96       1.0977699     0.015207383
      4750.71       1.1050385     0.015216449
      4755.46       1.1101178     0.015190314
      4760.22       1.1054238     0.015260352
      4764.97       1.0946348     0.015300967
      4769.74       1.0798678     0.015325088
      4774.51       1.0719970     0.015418318
      4779.29       1.0677619     0.015629044
      4784.07       1.0708859     0.015396694
      4788.85       1.0591815     0.015283162
      4793.64       1.0446815     0.015327309
      4798.43       1.0422733     0.015532367
      4803.23       1.0507872     0.015729294
      4808.03       1.0523597     0.015819281
      4812.84       1.0577017     0.015997362
      4817.66       1.0592002     0.016243044
      4822.48       1.0681253     0.016426420
      4827.30       1.0794930     0.016817240
      4832.12       1.0851007     0.016701550
      4836.96       1.0994322     0.016735573
      4841.79       1.1122333     0.016877043
      4846.63       1.1365821     0.016732946
      4851.48       1.1589425     0.016620662
      4856.33       1.1752609     0.016620706
      4861.19       1.1948404     0.016833753
      4866.05       1.2092567     0.016829703
      4870.92       1.2209336     0.016918670
      4875.79       1.2299796     0.016734320
      4880.66       1.2375011     0.016651541
      4885.55       1.2338103     0.016588901
      4890.43       1.2293180     0.016559567
      4895.32       1.2131675     0.016515318
      4900.22       1.1942430     0.016351873
      4905.12       1.1752366     0.016125568
      4910.02       1.1641514     0.015900043
      4914.94       1.1495353     0.015743378
      4919.85       1.1165995     0.015780721
      4924.77       1.0926313     0.015386175
      4929.70       1.0734166     0.015260749
      4934.62       1.0592440     0.015349704
      4939.56       1.0442578     0.014946037
      4944.50       1.0262214     0.014767618
      4949.44       1.0064215     0.014771161
      4954.39       1.0012960     0.014884459
      4959.35      0.98852561     0.015007726
      4964.31      0.98727910     0.014998131
      4969.27      0.98105958     0.015189485
      4974.24      0.96816086     0.015124551
      4979.22      0.95391489     0.015202888
      4984.20      0.95019007     0.015346839
      4989.18      0.94950579     0.015552089
      4994.17      0.94871631     0.015742060
      4999.16      0.94562092     0.015737956
      5004.16      0.94461125     0.015747994
      5009.17      0.93859102     0.015659923
      5014.18      0.93497408     0.015694636
      5019.19      0.93942070     0.015741513
      5024.21      0.94589418     0.015502997
      5029.23      0.95821891     0.015533315
      5034.26      0.95142951     0.015462238
      5039.30      0.95239773     0.015653367
      5044.34      0.95387389     0.016087450
      5049.39      0.96208607     0.016935010
      5054.43      0.95890289     0.018433830
      5059.49      0.96000706     0.019033285
      5064.55      0.94561994     0.020151967
      5069.61      0.93564695     0.020340482
      5074.68      0.94081023     0.020666422
      5079.76      0.94517426     0.020980692
      5084.84      0.94583604     0.020907702
      5089.92      0.94857029     0.020489619
      5095.01      0.94718060     0.018770416
      5100.11      0.95643694     0.017591415
      5105.21      0.96569298     0.016922559
      5110.31      0.98070715     0.016723377
      5115.42      0.99684801     0.016787002
      5120.54       1.0041910     0.016387731
      5125.66       1.0164250     0.016169624
      5130.79       1.0179885     0.016385191
      5135.92       1.0270027     0.016393182
      5141.05       1.0414531     0.016621342
      5146.20       1.0625966     0.016488530
      5151.34       1.0805213     0.016366626
      5156.49       1.0969899     0.016199650
      5161.65       1.1106668     0.016273836
      5166.81       1.1163462     0.015747556
      5171.98       1.1369176     0.015612329
      5177.15       1.1500799     0.015698779
      5182.33       1.1612699     0.015992578
      5187.51       1.1902050     0.015920277
      5192.70       1.1954883     0.015706222
      5197.89       1.2081906     0.015613952
      5203.09       1.2272864     0.015626189
      5208.29       1.2424163     0.015785452
      5213.50       1.2520553     0.016284638
      5218.72       1.2529610     0.016330892
      5223.93       1.2623944     0.016401532
      5229.16       1.2615699     0.016353034
      5234.39       1.2738057     0.016265421
      5239.62       1.2879380     0.016256312
      5244.86       1.3029780     0.016227566
      5250.11       1.3024113     0.016245399
      5255.36       1.3036094     0.016390081
      5260.61       1.3021881     0.016372307
      5265.87       1.2994967     0.016060728
      5271.14       1.2997266     0.016003598
      5276.41       1.2852721     0.015830297
      5281.69       1.2731354     0.015834681
      5286.97       1.2659365     0.015699405
      5292.26       1.2421645     0.015635173
      5297.55       1.2171244     0.015438256
      5302.85       1.1917028     0.015176129
      5308.15       1.1688333     0.015042090
      5313.46       1.1450977     0.014992180
      5318.77       1.1351639     0.015139089
      5324.09       1.1218384     0.015260026
      5329.42       1.1152240     0.015154807
      5334.75       1.1253429     0.015071716
      5340.08       1.1277963     0.015164631
      5345.42       1.1497792     0.015093069
      5350.77       1.1665270     0.014876200
      5356.12       1.1876165     0.014959478
      5361.48       1.2098994     0.014832354
      5366.83       1.2375426     0.014906764
      5372.20       1.2546113     0.014856417
      5377.58       1.2768374     0.014836948
      5382.95       1.2900445     0.014641890
      5388.34       1.2958244     0.014656096
      5393.72       1.3005560     0.014616545
      5399.12       1.2963014     0.014605412
      5404.52       1.2946952     0.014343812
      5409.92       1.2954704     0.014246549
      5415.33       1.2859643     0.014161473
      5420.75       1.2828113     0.014060927
      5426.17       1.2751869     0.013922435
      5431.60       1.2725676     0.013867738
      5437.03       1.2667067     0.013825055
      5442.47       1.2541350     0.013904669
      5447.91       1.2504812     0.013765616
      5453.36       1.2434826     0.013713771
      5458.81       1.2344261     0.013696213
      5464.27       1.2295126     0.013930330
      5469.73       1.2219246     0.014087506
      5475.20       1.2163683     0.014332938
      5480.68       1.2102832     0.014013420
      5486.16       1.1888338     0.013930334
      5491.65       1.1753034     0.014047420
      5497.14       1.1646895     0.014336592
      5502.64       1.1579779     0.014877983
      5508.14       1.1385290     0.015371668
      5513.65       1.1336701     0.015414193
      5519.16       1.1207931     0.015416839
      5524.68       1.1013507     0.015753242
      5530.20       1.0884699     0.015852742
      5535.73       1.0813773     0.015962377
      5541.27       1.0710201     0.015620162
      5546.81       1.0626623     0.015381884
      5552.36       1.0532120     0.015419861
      5557.91       1.0495704     0.014897613
      5563.47       1.0515818     0.014665451
      5569.04       1.0504536     0.014534734
      5574.60       1.0437206     0.014556246
      5580.18       1.0397599     0.014692096
      5585.76       1.0290717     0.015019530
      5591.35       1.0270197     0.014857390
      5596.94       1.0141235     0.014641336
      5602.53       1.0126582     0.014142702
      5608.14       1.0021288     0.014003984
      5613.75      0.99630616     0.013769888
      5619.36      0.98919237     0.013716854
      5624.98      0.97656611     0.013598449
      5630.60      0.97008768     0.013537066
      5636.23      0.96286424     0.013353269
      5641.87      0.95855655     0.013023410
      5647.51      0.94952578     0.012751446
      5653.16      0.93745433     0.012516500
      5658.82      0.92389141     0.012290732
      5664.47      0.91920093     0.012193539
      5670.14      0.90630198     0.012108156
      5675.81      0.89972622     0.011933734
      5681.48      0.89361478     0.011760566
      5687.17      0.89242641     0.011478205
      5692.85      0.88570826     0.011298689
      5698.55      0.88004262     0.011191229
      5704.25      0.87448709     0.011141404
      5709.95      0.86828049     0.011004881
      5715.66      0.86065657     0.011000228
      5721.38      0.85549383     0.011094401
      5727.10      0.84920268     0.011107843
      5732.83      0.84501384     0.011118552
      5738.56      0.83815112     0.011187348
      5744.30      0.83567108     0.011404761
      5750.04      0.83823469     0.011553596
      5755.79      0.83737722     0.011382533
      5761.55      0.83383377     0.011231799
      5767.31      0.83408355     0.011033416
      5773.08      0.82882727     0.011133601
      5778.85      0.82533777     0.011326426
      5784.63      0.82180881     0.011563615
      5790.41      0.82065341     0.011839664
      5796.21      0.81406689     0.012160206
      5802.00      0.81101802     0.012410732
      5807.81      0.81091991     0.012799157
      5813.61      0.80896643     0.013297895
      5819.43      0.80817247     0.013996500
      5825.25      0.80469968     0.014828222
      5831.07      0.80009082     0.016035347
      5836.90      0.79622780     0.017458393
      5842.74      0.79188785     0.019467873
      5848.58      0.78970574     0.022121574
      5854.43      0.78647112     0.026020831
      5860.29      0.78111007     0.031178980
      5866.15      0.77962133     0.037176454
