# starting wavelength =        2184.2672
# ending wavelength =        6400.6997
# O2 telluric scale =        0
# O2 telluric shift =        0
# H2O telluric scale =        0
# H2O telluric shift =        0
      2185.07     -0.19564810     -0.20012886
      2187.25     -0.23480054      0.19546005
      2189.44     -0.21011475      0.19087378
      2191.63     -0.19738271      0.18632601
      2193.82     -0.11196143      0.18064343
      2196.01    -0.077434454      0.17694579
      2198.21    -0.038241710      0.17470013
      2200.41    0.0052950745      0.17097122
      2202.61     0.017536740      0.16720514
      2204.81     0.098179220      0.16313792
      2207.02      0.11820493      0.15943296
      2209.22      0.12655399      0.15471097
      2211.43      0.11491859      0.15166913
      2213.64      0.14315330      0.14928982
      2215.86      0.12904414      0.14676477
      2218.07      0.15489604      0.14425934
      2220.29      0.21634529      0.14188450
      2222.51      0.27939291      0.13960864
      2224.73      0.28635836      0.13672144
      2226.96      0.30177485      0.13609350
      2229.19      0.31494997      0.13632943
      2231.42      0.33555829      0.13438021
      2233.65      0.34849419      0.13320087
      2235.88      0.39609724      0.13048213
      2238.12      0.37543846      0.12809347
      2240.36      0.34477303      0.12537609
      2242.60      0.32688283      0.12257028
      2244.84      0.33708299      0.11949211
      2247.08      0.35854755      0.11661745
      2249.33      0.31115964      0.11322366
      2251.58      0.32022448      0.11082501
      2253.83      0.30146287      0.10874465
      2256.09      0.29750457      0.10896375
      2258.34      0.26766155      0.10808005
      2260.60      0.22978696      0.10336062
      2262.86      0.23736220      0.10140007
      2265.12      0.21803715     0.099886162
      2267.39      0.19951174     0.098427852
      2269.66      0.18064213     0.096738119
      2271.93      0.16403220     0.095423926
      2274.20      0.15176193     0.094187682
      2276.47      0.11279039     0.093085270
      2278.75      0.14451700     0.091784299
      2281.03      0.16262326     0.089779561
      2283.31      0.15969199     0.088440341
      2285.59      0.15309557     0.087295323
      2287.88      0.17527447     0.086153959
      2290.17      0.18107574     0.084741219
      2292.46      0.18181078     0.083585704
      2294.75      0.20039884     0.082356490
      2297.04      0.20456025     0.081134381
      2299.34      0.22748401     0.079545198
      2301.64      0.20180280     0.078479415
      2303.94      0.18225370     0.077624874
      2306.25      0.20518179     0.076791122
      2308.55      0.20063707     0.076167269
      2310.86      0.21822272     0.075446643
      2313.17      0.21819068     0.074642609
      2315.49      0.22473205     0.073453035
      2317.80      0.21346388     0.072413131
      2320.12      0.20789157     0.071480224
      2322.44      0.20662332     0.070547842
      2324.76      0.19087835     0.069422736
      2327.09      0.19179278     0.068601543
      2329.41      0.21441580     0.067764919
      2331.74      0.19105196     0.066738576
      2334.08      0.18858874     0.065944109
      2336.41      0.17920796     0.065203443
      2338.75      0.16814885     0.064325056
      2341.08      0.17302995     0.063668210
      2343.43      0.18867711     0.063206148
      2345.77      0.19859594     0.062831722
      2348.12      0.21026415     0.062361698
      2350.46      0.21786994     0.061871831
      2352.81      0.23560223     0.061499918
      2355.17      0.24845031     0.061031784
      2357.52      0.26326197     0.060610273
      2359.88      0.28853441     0.060037344
      2362.24      0.31412359     0.059210317
      2364.60      0.31023982     0.058430361
      2366.97      0.33201622     0.057599502
      2369.33      0.34375849     0.056490629
      2371.70      0.36499835     0.055649471
      2374.08      0.37712484     0.054823648
      2376.45      0.37710151     0.053772632
      2378.83      0.37935277     0.053100558
      2381.20      0.38185270     0.052320404
      2383.59      0.38491198     0.051732726
      2385.97      0.37920388     0.051187372
      2388.36      0.40198769     0.050468868
      2390.75      0.40946658     0.049970451
      2393.14      0.41156724     0.049528772
      2395.53      0.42352194     0.049320072
      2397.93      0.43309225     0.049426320
      2400.32      0.44700028     0.071441694
      2402.72      0.45761435     0.070231734
      2405.13      0.47053236     0.068993066
      2407.53      0.51463159     0.067581559
      2409.94      0.49198580     0.065700334
      2412.35      0.51051940     0.064617906
      2414.76      0.51782391     0.063532833
      2417.18      0.54081107     0.062170152
      2419.59      0.53353265     0.061454339
      2422.01      0.52856163     0.061099148
      2424.44      0.51950037     0.060560214
      2426.86      0.49534221     0.060360877
      2429.29      0.51388443     0.060120248
      2431.72      0.50394667     0.059635886
      2434.15      0.50415426     0.059643124
      2436.58      0.50532635     0.059210218
      2439.02      0.49702900     0.059124691
      2441.46      0.48105455     0.059546129
      2443.90      0.48462551     0.060590297
      2446.34      0.47006135     0.060559721
      2448.79      0.46138258     0.059822397
      2451.24      0.45945375     0.058763225
      2453.69      0.44896945     0.058193488
      2456.14      0.45075411     0.057186245
      2458.60      0.45170410     0.056450982
      2461.06      0.44598155     0.055746644
      2463.52      0.45902098     0.054660246
      2465.98      0.44582622     0.054213022
      2468.45      0.44430849     0.053357353
      2470.92      0.39986910     0.052772170
      2473.39      0.39778114     0.052285583
      2475.86      0.39371307     0.051649745
      2478.34      0.39195943     0.051387408
      2480.82      0.40840710     0.051049284
      2483.30      0.40890743     0.051114477
      2485.78      0.42394884     0.051501714
      2488.27      0.40998212     0.052079158
      2490.76      0.42753252     0.052479176
      2493.25      0.43165894     0.053621341
      2495.74      0.42382383     0.053836512
      2498.24      0.42480208     0.053740298
      2500.74      0.41439636     0.053931989
      2503.24      0.41802778     0.053362409
      2505.74      0.41197316     0.052852638
      2508.25      0.41318723     0.051962361
      2510.75      0.40931037     0.051448916
      2513.26      0.42055811     0.051765116
      2515.78      0.44367908     0.049960931
      2518.29      0.43917731     0.048721353
      2520.81      0.43902975     0.047489496
      2523.33      0.43952439     0.046645134
      2525.86      0.43791783     0.045689767
      2528.38      0.43372367     0.044993048
      2530.91      0.45516861     0.044090414
      2533.44      0.45324652     0.043592176
      2535.98      0.45869227     0.043287502
      2538.51      0.46125950     0.043877957
      2541.05      0.46680146     0.043587291
      2543.59      0.46326760     0.043104006
      2546.13      0.46369432     0.042829630
      2548.68      0.46881330     0.043116829
      2551.23      0.48141838     0.043530513
      2553.78      0.47342266     0.043913671
      2556.34      0.47376245     0.044297415
      2558.89      0.47375675     0.044597881
      2561.45      0.47078633     0.044742446
      2564.01      0.43279055     0.045834769
      2566.58      0.41916491     0.045410515
      2569.14      0.38873319     0.045407145
      2571.71      0.39395143     0.044738293
      2574.28      0.38953699     0.044293837
      2576.86      0.38332659     0.043659891
      2579.44      0.37575403     0.042817904
      2582.01      0.36873500     0.042225599
      2584.60      0.36338736     0.041148505
      2587.18      0.37428968     0.039998592
      2589.77      0.37237939     0.039146723
      2592.36      0.37194279     0.038395355
      2594.95      0.35815981     0.037527417
      2597.55      0.35875147     0.036948994
      2600.14      0.36907128     0.036272444
      2602.74      0.38838331     0.035586058
      2605.35      0.39239670     0.035262068
      2607.95      0.40449238     0.034861908
      2610.56      0.41693196     0.034732904
      2613.17      0.43685451     0.034666215
      2615.79      0.43819035     0.034083561
      2618.40      0.43586817     0.034106001
      2621.02      0.44164004     0.033985380
      2623.64      0.45765558     0.034119852
      2626.26      0.46831446     0.033933395
      2628.89      0.48521336     0.033894444
      2631.52      0.50436470     0.033818455
      2634.15      0.52246055     0.033805957
      2636.79      0.54053826     0.033798957
      2639.42      0.56180735     0.033738282
      2642.06      0.56972874     0.033088614
      2644.70      0.57964163     0.032789975
      2647.35      0.60624421     0.032212899
      2650.00      0.62234519     0.031881474
      2652.65      0.61968770     0.031252349
      2655.30      0.63062980     0.030709980
      2657.96      0.64606325     0.030317249
      2660.61      0.65009326     0.029912634
      2663.27      0.65605135     0.029547901
      2665.94      0.66543389     0.029325843
      2668.60      0.68407464     0.028869008
      2671.27      0.70871948     0.028502081
      2673.94      0.73305400     0.028241063
      2676.62      0.74836018     0.027993602
      2679.29      0.76861419     0.027696480
      2681.97      0.78596664     0.027648175
      2684.66      0.79613523     0.027538362
      2687.34      0.80857166     0.027593890
      2690.03      0.82749889     0.027799427
      2692.72      0.83988343     0.027672835
      2695.41      0.84980456     0.027635192
      2698.11      0.85352954     0.027608516
      2700.81      0.90509469     0.038938086
      2703.51      0.92079972     0.038961666
      2706.21      0.94539202     0.038471429
      2708.92      0.97029981     0.038360135
      2711.62      0.98256013     0.038700509
      2714.34      0.98292342     0.038571835
      2717.05       1.0066800     0.038651545
      2719.77       1.0007386     0.038152420
      2722.49      0.99477530     0.038108959
      2725.21      0.98413049     0.037695557
      2727.94      0.99505321     0.037145344
      2730.66      0.98715759     0.037178438
      2733.39      0.99699364     0.037106773
      2736.13       1.0178943     0.036967115
      2738.86       1.0434556     0.037510931
      2741.60       1.0790253     0.038000631
      2744.34       1.0945005     0.038171633
      2747.09       1.1295529     0.038542924
      2749.84       1.1606429     0.038831296
      2752.59       1.1407650     0.039264375
      2755.34       1.1416722     0.039614457
      2758.09       1.1333333     0.039766765
      2760.85       1.1279785     0.040301931
      2763.61       1.1027312     0.040437479
      2766.38       1.1069056     0.040101769
      2769.14       1.1152788     0.040526993
      2771.91       1.1000536     0.040898700
      2774.69       1.1009536     0.040946059
      2777.46       1.1245007     0.041133181
      2780.24       1.1583479     0.041632938
      2783.02       1.1693452     0.041900623
      2785.80       1.1998928     0.041693756
      2788.59       1.2400428     0.041753665
      2791.38       1.2671847     0.041554911
      2794.17       1.2867859     0.041415739
      2796.96       1.2905864     0.041207762
      2799.76       1.3147085     0.040682945
      2802.56       1.3283927     0.040204341
      2805.36       1.3297963     0.039779252
      2808.17       1.3518790     0.039369669
      2810.98       1.3799674     0.039052156
      2813.79       1.3945085     0.038598957
      2816.60       1.3790352     0.037834815
      2819.42       1.3812995     0.037465098
      2822.24       1.3833286     0.036983678
      2825.06       1.3975104     0.036456790
      2827.88       1.4026990     0.036235759
      2830.71       1.4301095     0.036101557
      2833.54       1.3940186     0.036288952
      2836.38       1.3970941     0.036433013
      2839.21       1.3874423     0.036466082
      2842.05       1.3723721     0.036530531
      2844.90       1.3740978     0.036429284
      2847.74       1.3777839     0.036352870
      2850.59       1.3775579     0.036122416
      2853.44       1.3836624     0.036358201
      2856.29       1.3833855     0.036558026
      2859.15       1.3857722     0.036772223
      2862.01       1.4060463     0.036716255
      2864.87       1.4137785     0.036886204
      2867.74       1.3824516     0.037113838
      2870.60       1.3825580     0.037768453
      2873.47       1.3777752     0.038140432
      2876.35       1.4052739     0.037249773
      2879.22       1.4308881     0.037409040
      2882.10       1.4383606     0.037677913
      2884.99       1.4601383     0.036709825
      2887.87       1.4553606     0.037010929
      2890.76       1.5040824     0.037645915
      2893.65       1.5031159     0.038267105
      2896.54       1.5072202     0.039292260
      2899.44       1.5412256     0.039819533
      2902.34       1.5346441     0.040332909
      2905.24       1.4984608     0.040354998
      2908.15       1.4462819     0.039095132
      2911.06       1.4390863     0.037818866
      2913.97       1.4039166     0.036790956
      2916.88       1.4094277     0.035759287
      2919.80       1.3777984     0.034896147
      2922.72       1.3563972     0.034354243
      2925.64       1.3543959     0.034570461
      2928.57       1.3502211     0.034451711
      2931.50       1.3341797     0.033194375
      2934.43       1.3461965     0.033365077
      2937.36       1.3494014     0.033227380
      2940.30       1.3512795     0.032432562
      2943.24       1.3635194     0.032281574
      2946.18       1.3710786     0.031960545
      2949.13       1.3514714     0.031647730
      2952.08       1.3635875     0.031477793
      2955.03       1.3460258     0.031385601
      2957.99       1.3462081     0.031358281
      2960.94       1.3470496     0.031197100
      2963.90       1.3433386     0.031284535
      2966.87       1.3560332     0.031424161
      2969.84       1.3425705     0.031535251
      2972.81       1.3467589     0.032062716
      2975.78       1.3266964     0.032015664
      2978.76       1.3363830     0.031865865
      2981.73       1.3516345     0.032015987
      2984.72       1.3482510     0.032424177
      2987.70       1.3411084     0.032850524
      2990.69       1.3516768     0.033187875
      2993.68       1.3454100     0.033645401
      2996.67       1.3406243     0.034166572
      2999.67       1.3173413     0.034575893
      3002.67       1.3188632     0.034705446
      3005.67       1.3098901     0.034565673
      3008.68       1.2827966     0.034194543
      3011.69       1.2544129     0.033693254
      3014.70       1.2580448     0.033102599
      3017.71       1.2655115     0.032519094
      3020.73       1.2438182     0.032145819
      3023.75       1.2356384     0.032004342
      3026.78       1.2293543     0.032104717
      3029.80       1.2218293     0.032871079
      3032.83       1.2126228     0.032559221
      3035.87       1.2563350     0.032498078
      3038.90       1.3004321     0.032585783
      3041.94       1.3268055     0.032692672
      3044.98       1.3493483     0.032682353
      3048.03       1.3799857     0.032507880
      3051.08       1.3997781     0.032294999
      3054.13       1.4301641     0.032032969
      3057.18       1.4286255     0.031712889
      3060.24       1.4490441     0.031188097
      3063.30       1.4408694     0.030911986
      3066.36       1.4384303     0.030672071
      3069.43       1.4405477     0.030446371
      3072.50       1.4472817     0.030284931
      3075.57       1.4538674     0.030156423
      3078.65       1.4427267     0.030678347
      3081.73       1.4366296     0.031617230
      3084.81       1.4274801     0.030734471
      3087.89       1.4262859     0.030036078
      3090.98       1.4115765     0.030338205
      3094.07       1.4341445     0.031176603
      3097.17       1.4290016     0.032046276
      3100.26       1.4177140     0.033010557
      3103.36       1.4075021     0.033698590
      3106.47       1.4086185     0.034430656
      3109.58       1.4101151     0.034959553
      3112.68       1.3856143     0.035134565
      3115.80       1.3756804     0.034720109
      3118.91       1.3777066     0.033781658
      3122.03       1.3593843     0.032918307
      3125.15       1.3802848     0.032202265
      3128.28       1.3905938     0.031288952
      3131.41       1.3962727     0.030577573
      3134.54       1.3927184     0.030208269
      3137.67       1.3996235     0.031248791
      3140.81       1.3980129     0.031148495
      3143.95       1.4027027     0.030218715
      3147.10       1.4036389     0.029581317
      3150.24       1.3848108     0.029525794
      3153.39       1.3919058     0.029450481
      3156.55       1.3733157     0.029409678
      3159.70       1.3769783     0.029149633
      3162.86       1.3564234     0.029052450
      3166.03       1.3544574     0.029124161
      3169.19       1.3338601     0.029016259
      3172.36       1.3191500     0.028736828
      3175.54       1.3306776     0.028640657
      3178.71       1.3196899     0.028670393
      3181.89       1.2960872     0.028797670
      3185.07       1.3041929     0.028601930
      3188.26       1.3091102     0.028547675
      3191.45       1.2927052     0.028549094
      3194.64       1.2925182     0.028413577
      3197.83       1.3166535     0.028654378
      3201.03       1.3231428     0.028796721
      3204.23       1.3302601     0.028851379
      3207.44       1.3368714     0.029026224
      3210.64       1.3459371     0.029407203
      3213.85       1.3547595     0.029560750
      3217.07       1.3413789     0.030470612
      3220.28       1.3432918     0.029738386
      3223.51       1.3439363     0.029457608
      3226.73       1.3565528     0.029561292
      3229.96       1.3495047     0.029757678
      3233.19       1.3485316     0.030006989
      3236.42       1.3577252     0.030335255
      3239.66       1.3127497     0.030620418
      3242.90       1.2844880     0.030633815
      3246.14       1.2850055     0.030827252
      3249.39       1.2677636     0.031247272
      3252.64       1.2453780     0.031009117
      3255.89       1.2375789     0.030799738
      3259.14       1.2369651     0.030466428
      3262.40       1.2222218     0.030047972
      3265.67       1.2106431     0.029549585
      3268.93       1.2156342     0.029121111
      3272.20       1.2277846     0.028836884
      3275.47       1.2310176     0.028681386
      3278.75       1.2265848     0.029222899
      3282.03       1.2395649     0.028390878
      3285.31       1.2647816     0.028172807
      3288.60       1.2732363     0.028311804
      3291.88       1.2779330     0.028212051
      3295.18       1.2945814     0.028368150
      3298.47       1.2958889     0.028430445
      3301.77       1.2826475     0.028540344
      3305.07       1.2920294     0.028540778
      3308.38       1.3076871     0.028879645
      3311.69       1.2995065     0.029097774
      3315.00       1.3106201     0.029177065
      3318.31       1.3126719     0.029631416
      3321.63       1.3082609     0.029725470
      3324.95       1.3279587     0.030070524
      3328.28       1.3279588     0.030068994
      3331.61       1.3377579     0.030911755
      3334.94       1.3243894     0.030246854
      3338.27       1.2940354     0.029919692
      3341.61       1.2758247     0.029784427
      3344.95       1.2866645     0.029845573
      3348.30       1.2753938     0.030757431
      3351.65       1.2546759     0.030456349
      3355.00       1.2487825     0.031084820
      3358.35       1.2561157     0.031387186
      3361.71       1.2210902     0.031159961
      3365.07       1.2243520     0.031560130
      3368.44       1.2078456     0.032532299
      3371.81       1.1998945     0.033116946
      3375.18       1.1957356     0.033446272
      3378.56       1.2161882     0.033367633
      3381.94       1.2268514     0.033243281
      3385.32       1.2094835     0.032190402
      3388.70       1.2310949     0.031772016
      3392.09       1.2255156     0.031184699
      3395.48       1.2087796     0.031390838
      3398.88       1.2169127     0.029851724
      3402.28       1.2196272     0.029077507
      3405.68       1.2409072     0.028611614
      3409.09       1.2642717     0.028743508
      3412.49       1.2802967     0.029640123
      3415.91       1.2945383     0.028599256
      3419.32       1.2929595     0.028990360
      3422.74       1.3025197     0.029326394
      3426.17       1.2904555     0.029241532
      3429.59       1.2757071     0.029722470
      3433.02       1.2714844     0.030297575
      3436.45       1.2875695     0.030270942
      3439.89       1.3245298     0.030245624
      3443.33       1.3304484     0.030177920
      3446.78       1.3142974     0.029685849
      3450.22       1.2978114     0.029716360
      3453.67       1.3079880     0.029305572
      3457.13       1.3143057     0.028222932
      3460.58       1.2977065     0.027744628
      3464.04       1.3034332     0.027676255
      3467.51       1.3202790     0.027594276
      3470.98       1.3421880     0.027797098
      3474.45       1.3470757     0.028199919
      3477.92       1.3430487     0.029019013
      3481.40       1.3232531     0.028539087
      3484.88       1.2980314     0.028575561
      3488.37       1.2667568     0.028810823
      3491.86       1.2279506     0.028625906
      3495.35       1.2164482     0.028438192
      3498.84       1.2327083     0.028281265
      3502.34       1.2382075     0.027839133
      3505.84       1.2489280     0.027453052
      3509.35       1.2334035     0.027220728
      3512.86       1.2271083     0.027090653
      3516.37       1.2230812     0.028008799
      3519.89       1.2227693     0.027416410
      3523.41       1.2433135     0.026792972
      3526.93       1.2318432     0.026909481
      3530.46       1.2554682     0.027350437
      3533.99       1.2928036     0.027680247
      3537.53       1.3004144     0.028165620
      3541.06       1.3057151     0.028568780
      3544.60       1.3273894     0.028684194
      3548.15       1.3229332     0.029126589
      3551.70       1.3200769     0.029053220
      3555.25       1.3008246     0.028950696
      3558.80       1.3169968     0.028576870
      3562.36       1.3223419     0.028300139
      3565.92       1.3287264     0.028127396
      3569.49       1.3399551     0.027783903
      3573.06       1.3468339     0.027651241
      3576.64       1.3263753     0.027699085
      3580.21       1.3289184     0.027983246
      3583.79       1.3296000     0.028514163
      3587.38       1.3305054     0.028091438
      3590.96       1.3306076     0.028079700
      3594.55       1.2975935     0.028121396
      3598.15       1.3038967     0.028009841
      3601.75       1.2860374     0.028023955
      3605.35       1.2694444     0.027968673
      3608.96       1.2821118     0.027941280
      3612.56       1.2796591     0.027886898
      3616.18       1.2651666     0.027714993
      3619.79       1.2403921     0.027654259
      3623.41       1.2070763     0.027616663
      3627.04       1.1909707     0.027741508
      3630.66       1.1743062     0.027792761
      3634.29       1.1800430     0.027814101
      3637.93       1.1749799     0.027806422
      3641.57       1.1921509     0.027975349
      3645.21       1.1971086     0.028202435
      3648.86       1.2131409     0.028481148
      3652.50       1.2140736     0.028834971
      3656.16       1.2040578     0.029178403
      3659.81       1.1880890     0.029476465
      3663.47       1.1737886     0.029680415
      3667.14       1.1698125     0.030132806
      3670.80       1.1595346     0.030541552
      3674.48       1.1601878     0.030874974
      3678.15       1.1463295     0.031273583
      3681.83       1.1300746     0.031651619
      3685.51       1.1308418     0.032002844
      3689.20       1.1059100     0.032417080
      3692.88       1.0670227     0.033114830
      3696.58       1.0786043     0.033474479
      3700.27       1.1279216     0.033428682
      3703.98       1.1343121     0.033772499
      3707.68       1.1341987     0.034368374
      3711.39       1.1708218     0.035028537
      3715.10       1.1648410     0.035865341
      3718.81       1.1478534     0.036608726
      3722.53       1.1410707     0.037550073
      3726.26       1.1442535     0.038410354
      3729.98       1.1354034     0.038726399
      3733.71       1.1283938     0.039190345
      3737.45       1.1430408     0.039597730
      3741.18       1.1382015     0.039949197
      3744.93       1.1291844     0.040227121
      3748.67       1.1111022     0.040501383
      3752.42       1.1254736     0.040601109
      3756.17       1.1168365     0.040866510
      3759.93       1.0922352     0.041255863
      3763.69       1.0906611     0.042224009
      3767.45       1.1240278     0.042671732
      3771.22       1.1251328     0.042028427
      3774.99       1.0924769     0.042495013
      3778.77       1.0919668     0.042362834
      3782.54       1.1140379     0.042929111
      3786.33       1.1077737     0.043567140
      3790.11       1.1335963     0.044816895
      3793.90       1.1653567     0.046212056
      3797.70       1.1846511     0.048347967
      3801.50       1.2092508     0.050876506
      3805.30       1.2352981     0.055329684
      3809.10       1.2792698     0.055652316
      3812.91       1.3046251     0.057501151
      3816.73       1.2978587     0.057088816
      3820.54       1.2967978     0.058116814
      3824.36       1.2771764     0.055882854
      3828.19       1.2521235     0.057657261
      3832.02       1.2675987     0.058981263
      3835.85       1.2382656     0.062344228
      3839.68       1.2193914     0.064949863
      3843.52       1.1758485     0.064977632
      3847.37       1.1752150     0.066129292
      3851.22       1.1413578     0.063422548
      3855.07       1.1361845     0.062562816
      3858.92       1.1316717     0.061279136
      3862.78       1.1449624     0.057701266
      3866.64       1.1316442     0.056233633
      3870.51       1.1293870     0.055551744
      3874.38       1.1226059     0.055469508
      3878.26       1.1126881     0.056275470
      3882.13       1.1239271     0.055134770
      3886.02       1.1148273     0.055743864
      3889.90       1.0902341     0.055728783
      3893.79       1.0919419     0.055699644
      3897.69       1.0903692     0.056392219
      3901.59       1.0897312     0.055776887
      3905.49       1.0972803     0.055541709
      3909.39       1.0947088     0.056078964
      3913.30       1.1043509     0.055803835
      3917.22       1.1046933     0.055546089
      3921.13       1.1105651     0.054485139
      3925.06       1.1196535     0.054059328
      3928.98       1.1725736     0.054401275
      3932.91       1.1987595     0.053849530
      3936.84       1.2302509     0.053304913
      3940.78       1.2437268     0.052545590
      3944.72       1.2576951     0.052058399
      3948.67       1.2697627     0.051684625
      3952.61       1.2729237     0.051397341
      3956.57       1.2988347     0.051145781
      3960.52       1.2953013     0.051021179
      3964.48       1.2978016     0.050817948
      3968.45       1.2858571     0.050648167
      3972.42       1.2630679     0.050535196
      3976.39       1.2591934     0.050421885
      3980.37       1.2266982     0.050444956
      3984.35       1.2052468     0.050249311
      3988.33       1.1912220     0.050049710
      3992.32       1.1531274     0.049887835
      3996.31       1.1432183     0.049732009
      4000.31       1.1431038     0.049675431
      4004.31       1.1454577     0.049487518
      4008.31       1.1337952     0.049359409
      4012.32       1.1431204     0.049248371
      4016.33       1.1290448     0.048767122
      4020.35       1.1274157     0.049968409
      4024.37       1.1215034     0.049994016
      4028.40       1.0948858     0.050006845
      4032.42       1.0950554     0.050227836
      4036.46       1.0883323     0.050308888
      4040.50       1.1143565     0.053047149
      4044.54       1.1016308     0.054162154
      4048.58       1.1078279     0.055274034
      4052.63       1.1181086     0.055263783
      4056.68       1.1113475     0.055885964
      4060.74       1.0881219     0.057750562
      4064.80       1.1120130     0.057432870
      4068.86       1.1211293     0.055270146
      4072.93       1.1668380     0.054389890
      4077.01       1.1628474     0.053427927
      4081.08       1.1716601     0.052597936
      4085.17       1.1826166     0.051475116
      4089.25       1.1857717     0.049522940
      4093.34       1.1675452     0.049144219
      4097.43       1.1551842     0.050056432
      4101.53       1.1541846     0.049544539
      4105.63       1.1219393     0.047868855
      4109.74       1.1239663     0.047438369
      4113.85       1.1235225     0.047110953
      4117.96       1.1170802     0.047626124
      4122.08       1.0938808     0.046311500
      4126.20       1.0869820     0.046046033
      4130.33       1.0927351     0.045790736
      4134.46       1.0820645     0.046292835
      4138.59       1.0917715     0.045056848
      4142.73       1.1218539     0.044804151
      4146.88       1.1335173     0.044575586
      4151.02       1.1438986     0.044197330
      4155.18       1.1351689     0.043987548
      4159.33       1.1515157     0.043778933
      4163.49       1.1666319     0.043591423
      4167.65       1.1681317     0.042433154
      4171.82       1.1675592     0.043033701
      4175.99       1.1713137     0.042803450
      4180.17       1.1711228     0.042587728
      4184.35       1.1370867     0.041446297
      4188.54       1.1189983     0.042069555
      4192.72       1.0979508     0.041920634
      4196.92       1.0684678     0.041811873
      4201.11       1.0380660     0.040739366
      4205.31       1.0180565     0.041377636
      4209.52       1.0066214     0.041247589
      4213.73      0.98936583     0.040202745
      4217.94      0.98016855     0.040010064
      4222.16      0.98086310     0.040595484
      4226.38      0.97996892     0.040427136
      4230.61      0.97469816     0.039396574
      4234.84      0.97754185     0.039999023
      4239.08      0.99732154     0.039836077
      4243.32       1.0174834     0.038900922
      4247.56       1.0239238     0.038761925
      4251.81       1.0366970     0.039444787
      4256.06       1.0299459     0.039386349
      4260.32       1.0107614     0.038434977
      4264.58      0.99196721     0.038301573
      4268.84      0.96786807     0.039077756
      4273.11      0.94758622     0.038407577
      4277.38      0.93312486     0.038388919
      4281.66      0.92287964     0.038439354
      4285.94      0.91328170     0.038779503
      4290.23      0.90440783     0.038831122
      4294.52      0.88372101     0.038897958
      4298.81      0.86707003     0.039880253
      4303.11      0.87855147     0.039129910
      4307.42      0.88533198     0.039033261
      4311.72      0.88734422     0.039024148
      4316.04      0.90417177     0.039223719
      4320.35      0.92417511     0.039190816
      4324.67      0.93520665     0.039148991
      4329.00      0.94414967     0.039263592
      4333.33      0.95542355     0.039215343
      4337.66      0.96006937     0.039143457
      4342.00      0.97526726     0.038179134
      4346.34      0.99057435     0.038529863
      4350.69      0.99202045     0.038251084
      4355.04      0.99299956     0.037207400
      4359.39       1.0155940     0.037440866
      4363.75       1.0180384     0.037117923
      4368.12       1.0259460     0.036854704
      4372.48       1.0233342     0.036660654
      4376.86       1.0221738     0.036531048
      4381.23       1.0310398     0.036450231
      4385.61       1.0497365     0.035631020
      4390.00       1.0598150     0.036048697
      4394.39       1.0594840     0.035926350
      4398.79       1.0753771     0.035193819
      4403.18       1.0858097     0.035753523
      4407.59       1.0922470     0.035603369
      4412.00       1.1008139     0.034939839
      4416.41       1.1195270     0.035556444
      4420.82       1.1186569     0.035476915
      4425.25       1.1240043     0.034802404
      4429.67       1.1333928     0.035469053
      4434.10       1.1247415     0.034960197
      4438.54       1.1009853     0.035002589
      4442.97       1.0916267     0.035050435
      4447.42       1.0657548     0.035134650
      4451.86       1.0605994     0.035168823
      4456.32       1.0511284     0.035249684
      4460.77       1.0414865     0.035269264
      4465.24       1.0400795     0.035234551
      4469.70       1.0351964     0.035219220
      4474.17       1.0191388     0.035082155
      4478.65       1.0220682     0.034970127
      4483.12       1.0282030     0.034873156
      4487.61       1.0352481     0.034697935
      4492.09       1.0278308     0.034648313
      4496.59       1.0399364     0.034658744
      4501.08       1.0482154     0.034663375
      4505.58       1.0596662     0.034615200
      4510.09       1.0653570     0.033783562
      4514.60       1.0736301     0.034255815
      4519.12       1.0636002     0.034097261
      4523.63       1.0481714     0.033022741
      4528.16       1.0294964     0.033175552
      4532.69       1.0155257     0.032814296
      4537.22       1.0019539     0.032056034
      4541.76       1.0055062     0.031706298
      4546.30      0.99844687     0.030714015
      4550.85      0.99675899     0.030937671
      4555.40      0.98967971     0.030782310
      4559.95      0.98761710     0.030121884
      4564.51      0.99249638     0.030556411
      4569.08      0.99188923     0.030516151
      4573.65      0.99499319     0.029932893
      4578.22      0.99827664     0.030413706
      4582.80       1.0146801     0.029874121
      4587.38       1.0186380     0.029863782
      4591.97       1.0400982     0.030474768
      4596.56       1.0448623     0.029976330
      4601.16       1.0498574     0.030570405
      4605.76       1.0517481     0.030075879
      4610.37       1.0445539     0.030066398
      4614.98       1.0364381     0.030667354
      4619.59       1.0390385     0.030099909
      4624.21       1.0323959     0.030042246
      4628.84       1.0296490     0.030032257
      4633.47       1.0137250     0.029928952
      4638.10      0.99786580     0.030392059
      4642.74      0.97580964     0.029671602
      4647.38      0.96652167     0.029521186
      4652.03      0.95707855     0.029364354
      4656.68      0.95382174     0.029257499
      4661.34      0.95669085     0.029172643
      4666.00      0.95674471     0.028877734
      4670.67      0.95332219     0.028667768
      4675.33      0.96315593     0.028593342
      4680.01      0.96105268     0.028621533
      4684.69      0.95908594     0.028742267
      4689.38      0.94515183     0.028887048
      4694.07      0.93990719     0.028831742
      4698.76      0.93060341     0.029116199
      4703.46      0.92896055     0.029208124
      4708.16      0.91511199     0.028938122
      4712.87      0.89156060     0.029754906
      4717.58      0.87683567     0.029897743
      4722.30      0.85281081     0.030285841
      4727.03      0.84113710     0.030317894
      4731.75      0.84014061     0.029887843
      4736.48      0.84386047     0.030518695
      4741.22      0.84570405     0.030087657
      4745.96      0.84132652     0.030812652
      4750.71      0.84265740     0.030728878
      4755.46      0.82760145     0.030112150
      4760.22      0.82899927     0.030425957
      4764.97      0.82692866     0.029840430
      4769.74      0.82241543     0.030515873
      4774.51      0.81887727     0.029980692
      4779.29      0.80756630     0.029903128
      4784.07      0.80587263     0.029611496
      4788.85      0.80271081     0.029472867
      4793.64      0.79443211     0.029757885
      4798.43      0.78661041     0.028997109
      4803.23      0.79376627     0.029214628
      4808.03      0.78851851     0.028472769
      4812.84      0.78730954     0.028268527
      4817.66      0.80262292     0.027782809
      4822.48      0.80144898     0.027586304
      4827.30      0.80652159     0.027377992
      4832.12      0.80184047     0.027287369
      4836.96      0.81035310     0.027102050
      4841.79      0.81392141     0.027025080
      4846.63      0.80646847     0.027044223
      4851.48      0.81267308     0.027038202
      4856.33      0.80911445     0.027005961
      4861.19      0.79875544     0.026870771
      4866.05      0.79345383     0.026792735
      4870.92      0.78876312     0.026568995
      4875.79      0.78973306     0.026420974
      4880.66      0.79238916     0.026080595
      4885.55      0.79249864     0.025937648
      4890.43      0.79622369     0.025386279
      4895.32      0.80184287     0.025783444
      4900.22      0.79219128     0.025345451
      4905.12      0.78997745     0.025791757
      4910.02      0.79265291     0.025493163
      4914.94      0.78659630     0.026082791
      4919.85      0.78610883     0.025988522
      4924.77      0.78616464     0.026797168
      4929.70      0.79010043     0.026955883
      4934.62      0.79163619     0.027943427
      4939.56      0.79098717     0.028149637
      4944.50      0.79684086     0.028403138
      4949.44      0.79671526     0.028960304
      4954.39      0.79492042     0.029243094
      4959.35      0.79949773     0.030150014
      4964.31      0.80553578     0.030528470
      4969.27      0.81302631     0.031359894
      4974.24      0.81897747     0.031679401
      4979.22      0.82093922     0.032761737
      4984.20      0.81973408     0.033320052
      4989.18      0.80841040     0.034610496
      4994.17      0.78989976     0.034999434
      4999.16      0.78191278     0.035710392
      5004.16      0.77735503     0.035898580
      5009.17      0.78195626     0.035989665
      5014.18      0.78322776     0.035628430
      5019.19      0.78776593     0.035366614
      5024.21      0.80499223     0.035236477
      5029.23      0.81614234     0.035298250
      5034.26      0.81853130     0.035096886
      5039.30      0.83086261     0.034583919
      5044.34      0.83736964     0.034225802
      5049.39      0.82801041     0.034573874
      5054.43      0.82543919     0.033851251
      5059.49      0.82210851     0.032845202
      5064.55      0.82173033     0.032531174
      5069.61      0.81235581     0.032003853
      5074.68      0.79968350     0.031856119
      5079.76      0.79438024     0.031291458
      5084.84      0.77904347     0.031122781
      5089.92      0.77297736     0.030614420
      5095.01      0.77553592     0.029887833
      5100.11      0.76820874     0.030190642
      5105.21      0.76159927     0.029295130
      5110.31      0.75156954     0.029251429
      5115.42      0.76115445     0.028517077
      5120.54      0.76545294     0.028830341
      5125.66      0.76464551     0.028294817
      5130.79      0.76210366     0.028589879
      5135.92      0.76757287     0.028221565
      5141.05      0.76274603     0.028998693
      5146.20      0.75721035     0.028812165
      5151.34      0.75943327     0.028654569
      5156.49      0.75298112     0.028744471
      5161.65      0.74919247     0.029077686
      5166.81      0.74251854     0.029245109
      5171.98      0.73446172     0.029382578
      5177.15      0.73364284     0.029442182
      5182.33      0.74399441     0.029793432
      5187.51      0.74998514     0.030086634
      5192.70      0.74572068     0.030448427
      5197.89      0.73912064     0.030786210
      5203.09      0.73410178     0.031059695
      5208.29      0.72936086     0.031861741
      5213.50      0.72419792     0.032396456
      5218.72      0.68918662     0.033889968
      5223.93      0.68729594     0.034840246
      5229.16      0.65835447     0.037090767
      5234.39      0.63583471     0.037769020
      5239.62      0.60573856     0.039229753
      5244.86      0.57966059     0.039035644
      5250.11      0.56433118     0.040137091
      5255.36      0.56052057     0.039564678
      5260.61      0.56754347     0.038104681
      5265.87      0.57809388     0.037703109
      5271.14      0.60244285     0.034974867
      5276.41      0.62493247     0.034353817
      5281.69      0.64731686     0.033193550
      5286.97      0.66477823     0.033479294
      5292.26      0.65948175     0.032736001
      5297.55      0.67811642     0.032326635
      5302.85      0.67698997     0.032904698
      5308.15      0.67542230     0.032724773
      5313.46      0.67567621     0.033380526
      5318.77      0.66734497     0.033142600
      5324.09      0.67660553     0.033129920
      5329.42      0.66362328     0.033059706
      5334.75      0.64256525     0.033016948
      5340.08      0.63269259     0.033420085
      5345.42      0.61848338     0.032663088
      5350.77      0.60384909     0.032937212
      5356.12      0.60290744     0.033099721
      5361.48      0.58784396     0.033808552
      5366.83      0.58779586     0.033390923
      5372.20      0.57833001     0.033737067
      5377.58      0.55863904     0.034067187
      5382.95      0.54073599     0.034395589
      5388.34      0.52443878     0.035400347
      5393.72      0.51300446     0.035336535
      5399.12      0.52529956     0.036157833
      5404.52      0.51132681     0.036731978
      5409.92      0.51997892     0.036449766
      5415.33      0.53840527     0.037552557
      5420.75      0.53087165     0.037397114
      5426.17      0.53289035     0.038274445
      5431.60      0.51868505     0.038939113
      5437.03      0.50516602     0.038536480
      5442.47      0.51054695     0.038844203
      5447.91      0.50778787     0.038117097
      5453.36      0.48956663     0.038184230
      5458.81      0.49617244     0.038831782
      5464.27      0.46705394     0.038088259
      5469.73      0.46415130     0.038115493
      5475.20      0.44520085     0.038729891
      5480.68      0.44838417     0.037977479
      5486.16      0.42905059     0.037748301
      5491.65      0.43564127     0.037657823
      5497.14      0.44099690     0.037805135
      5502.64      0.46992948     0.038623522
      5508.14      0.46328000     0.037549226
      5513.65      0.47400747     0.036884321
      5519.16      0.48204435     0.036862422
      5524.68      0.46928735     0.035865910
      5530.20      0.47251167     0.035164641
      5535.73      0.47637165     0.034844217
      5541.27      0.48070572     0.034131688
      5546.81      0.47087523     0.033557217
      5552.36      0.46552946     0.033326769
      5557.91      0.45130032     0.032893685
      5563.47      0.43973514     0.032416283
      5569.04      0.43308828     0.032305372
      5574.60      0.44122869     0.032406715
      5580.18      0.46456205     0.032671863
      5585.76      0.47267945     0.032432288
      5591.35      0.47240268     0.033048133
      5596.94      0.49577112     0.033630841
      5602.53      0.49630410     0.033639687
      5608.14      0.52329962     0.034507489
      5613.75      0.51533997     0.034321033
      5619.36      0.52560168     0.034559889
      5624.98      0.52821086     0.035264705
      5630.60      0.51548341     0.034692993
      5636.23      0.51397762     0.034687657
      5641.87      0.50625011     0.035195658
      5647.51      0.49209930     0.034773719
      5653.16      0.46965167     0.035032466
      5658.82      0.45298566     0.035245769
      5664.47      0.43158578     0.035251758
      5670.14      0.41877832     0.035590326
      5675.81      0.41476495     0.036294589
      5681.48      0.41202392     0.036721744
      5687.17      0.41749928     0.037961941
      5692.85      0.40583659     0.039278769
      5698.55      0.40278829     0.040149366
      5704.25      0.40784326     0.040384252
      5709.95      0.40906387     0.041176456
      5715.66      0.42005334     0.042264234
      5721.38      0.41337274     0.042630587
      5727.10      0.42888977     0.043179228
      5732.83      0.44766573     0.043245261
      5738.56      0.43007854     0.042413146
      5744.30      0.42844475     0.042767757
      5750.04      0.42514642     0.042962347
      5755.79      0.39675056     0.042370912
      5761.55      0.38198909     0.043296907
      5767.31      0.34961737     0.043637875
      5773.08      0.34977793     0.043815058
      5778.85      0.32571815     0.043047331
      5784.63      0.29664889     0.043367866
      5790.41      0.27286669     0.043539108
      5796.21      0.27129906     0.043323040
      5802.00      0.25061452     0.043818202
      5807.81      0.24741937     0.043925090
      5813.61      0.26465612     0.042632693
      5819.43      0.26849502     0.042065020
      5825.25      0.28146189     0.041697368
      5831.07      0.30608228     0.041945258
      5836.90      0.31243144     0.041024965
      5842.74      0.31145710     0.040386513
      5848.58      0.30995236     0.039809557
      5854.43      0.32156796     0.040219421
      5860.29      0.33376205     0.039493136
      5866.15      0.32174261     0.039033750
      5872.01      0.32827708     0.038717691
      5877.89      0.33367139     0.038801496
      5883.76      0.32242040     0.039038233
      5889.65      0.30401078     0.038924890
      5895.54      0.32521606     0.038815409
      5901.43      0.34203066     0.038803439
      5907.34      0.35953152     0.040069049
      5913.24      0.36012056     0.041087588
      5919.16      0.36277722     0.042113830
      5925.08      0.34630788     0.042745138
      5931.00      0.34038576     0.044671702
      5936.93      0.32996893     0.046927725
      5942.87      0.32019378     0.048961416
      5948.81      0.29403388     0.049187371
      5954.76      0.29132610     0.049909203
      5960.72      0.28588031     0.051070211
      5966.68      0.28843215     0.050774678
      5972.64      0.28281482     0.049561617
      5978.62      0.27689191     0.048855451
      5984.60      0.28019509     0.047698767
      5990.58      0.27188526     0.047724206
      5996.57      0.27355583     0.046176727
      6002.57      0.30327784     0.046003599
      6008.57      0.32510247     0.046573654
      6014.58      0.33917035     0.048118205
      6020.60      0.34078908     0.050297521
      6026.62      0.34547502     0.050539525
      6032.65      0.35147715     0.051281977
      6038.68      0.34779529     0.052209663
      6044.72      0.36940957     0.053490998
      6050.76      0.36442935     0.053715890
      6056.81      0.35785630     0.055313042
      6062.87      0.34900457     0.056065957
      6068.93      0.35150311     0.056034138
      6075.00      0.35011684     0.055802662
      6081.08      0.35634541     0.055134999
      6087.16      0.35460893     0.056723781
      6093.25      0.31712722     0.057382110
      6099.34      0.29209274     0.057553625
      6105.44      0.29591746     0.057487244
      6111.54      0.29332124     0.056536345
      6117.66      0.27401357     0.056182852
      6123.78      0.25482239     0.057077064
      6129.90      0.24712906     0.058972137
      6136.03      0.23506360     0.060123396
      6142.17      0.23556862     0.059339591
      6148.31      0.23146593     0.058768355
      6154.46      0.23899907     0.058513973
      6160.61      0.23554963     0.058633545
      6166.77      0.22313763     0.059600276
      6172.94      0.23600473     0.059071330
      6179.11      0.25648428     0.059256549
      6185.29      0.26150014     0.059184759
      6191.48      0.25808523     0.059171451
      6197.67      0.23436035     0.059405317
      6203.87      0.25684220     0.042526606
      6210.07      0.26559597     0.042432833
      6216.28      0.26851863     0.042557921
      6222.50      0.27524921     0.042941460
      6228.72      0.27744536     0.042986943
      6234.95      0.28294476     0.043677761
      6241.19      0.29116414     0.044235682
      6247.42      0.30071628     0.044618065
      6253.67      0.31860929     0.045137367
      6259.93      0.30891892     0.045244459
      6266.19      0.31355491     0.045761447
      6272.46      0.31190664     0.046120528
      6278.73      0.33288322     0.046783368
      6285.01      0.36263740     0.047590393
      6291.29      0.37092196     0.048194622
      6297.58      0.37114273     0.048368309
      6303.88      0.37112338     0.048701915
      6310.19      0.36120165     0.049393316
      6316.50      0.34458951     0.049620350
      6322.81      0.34111577     0.049654451
      6329.14      0.34268748     0.049808131
      6335.47      0.34668950     0.050131195
      6341.80      0.32460504     0.050015608
      6348.14      0.30743749     0.050648604
      6354.49      0.29616384     0.051599823
      6360.85      0.27645809     0.052728049
      6367.21      0.25900520     0.054246146
      6373.57      0.23927303     0.055876614
      6379.95      0.23421758     0.057385629
      6386.33      0.22994093     0.058556521
      6392.72      0.22867642     0.060468317
      6399.11      0.22977567     0.062447051
