# starting wavelength =        2744.0359
# ending wavelength =        6262.2934
# O2 telluric scale =        0
# O2 telluric shift =        0
# H2O telluric scale =        0
# H2O telluric shift =        0
      2744.34       3.8225016      0.29856560
      2747.09       3.8429344      0.25885302
      2749.84       3.8680273      0.23425360
      2752.59       3.9042675      0.20777363
      2755.34       3.9240082      0.18521483
      2758.09       3.9420464      0.16930272
      2760.85       3.9929486      0.15899026
      2763.61       4.0056953      0.14738476
      2766.38       4.0150449      0.13766241
      2769.14       4.0186679      0.13032407
      2771.91       4.0653630      0.12320062
      2774.69       4.0750926      0.11924890
      2777.46       4.0617528      0.11372652
      2780.24       4.0713235      0.11049017
      2783.02       4.0881304      0.10612556
      2785.80       4.1049265      0.10212059
      2788.59       4.1176072     0.099971847
      2791.38       4.1372346     0.096271303
      2794.17       4.1621664     0.094399911
      2796.96       4.1944216     0.090942210
      2799.76       4.1864060     0.089405543
      2802.56       4.1813793     0.086232088
      2805.36       4.1804489     0.083304590
      2808.17       4.1857688     0.081857919
      2810.98       4.1430742     0.079241398
      2813.79       4.1155981     0.077923243
      2816.60       4.0558773     0.075422187
      2819.42       4.0432324     0.072882977
      2822.24       4.0117113     0.071614021
      2825.06       3.9789710     0.069209762
      2827.88       3.9411430     0.068182611
      2830.71       3.8968060     0.065940711
      2833.54       3.8567382     0.063841042
      2836.38       3.8216055     0.062819084
      2839.21       3.7761281     0.060878705
      2842.05       3.7343329     0.059953981
      2844.90       3.6948735     0.058159291
      2847.74       3.6647048     0.056454712
      2850.59       3.6366861     0.055736467
      2853.44       3.6086985     0.054046441
      2856.29       3.5687387     0.053475245
      2859.15       3.5448842     0.052013812
      2862.01       3.5130645     0.050660294
      2864.87       3.4761792     0.050155272
      2867.74       3.4518894     0.048947938
      2870.60       3.4270980     0.047632298
      2873.47       3.3939762     0.047236481
      2876.35       3.3996115     0.046145635
      2879.22       3.3778886     0.045805878
      2882.10       3.3656674     0.044789729
      2884.99       3.3572594     0.043812395
      2887.87       3.3420958     0.043354861
      2890.76       3.3292866     0.042416393
      2893.65       3.3186071     0.041559634
      2896.54       3.3253400     0.041288296
      2899.44       3.3198475     0.040488353
      2902.34       3.3115478     0.040296625
      2905.24       3.3351228     0.039490204
      2908.15       3.3561608     0.038756369
      2911.06       3.3767394     0.038389022
      2913.97       3.3890641     0.037710206
      2916.88       3.4145640     0.037069331
      2919.80       3.4189461     0.036972387
      2922.72       3.4248574     0.036409364
      2925.64       3.4280284     0.035880257
      2928.57       3.4498840     0.035793576
      2931.50       3.4820256     0.035230497
      2934.43       3.5066373     0.034483560
      2937.36       3.5206091     0.034440845
      2940.30       3.5354611     0.033899858
      2943.24       3.5374588     0.033383332
      2946.18       3.5448094     0.033306475
      2949.13       3.5569727     0.032737264
      2952.08       3.5607798     0.032660306
      2955.03       3.5669020     0.032098256
      2957.99       3.5607636     0.031544516
      2960.94       3.5476481     0.031443841
      2963.90       3.5163835     0.030705552
      2966.87       3.4905521     0.030148573
      2969.84       3.4664517     0.030030363
      2972.81       3.4251333     0.029510563
      2975.78       3.3903164     0.028998482
      2978.76       3.3631060     0.028921866
      2981.73       3.3291379     0.028400728
      2984.72       3.2938924     0.027904760
      2987.70       3.2596733     0.027824614
      2990.69       3.2108424     0.027391011
      2993.68       3.1832249     0.026958459
      2996.67       3.1509856     0.026568992
      2999.67       3.1203490     0.026546171
      3002.67       3.0875760     0.025985912
      3005.67       3.0834143     0.025617937
      3008.68       3.0832302     0.025622052
      3011.69       3.0694319     0.025294199
      3014.70       3.0601920     0.024985920
      3017.71       3.0545363     0.025025995
      3020.73       3.0446646     0.024724834
      3023.75       3.0435439     0.024397468
      3026.78       3.0454891     0.024448246
      3029.80       3.0470058     0.024127162
      3032.83       3.0352226     0.023835890
      3035.87       3.0378644     0.023867358
      3038.90       3.0436375     0.023563076
      3041.94       3.0446097     0.023280251
      3044.98       3.0380784     0.023024611
      3048.03       3.0432450     0.023076189
      3051.08       3.0551563     0.022794060
      3054.13       3.0476249     0.022562788
      3057.18       3.0464600     0.022651778
      3060.24       3.0462803     0.022418316
      3063.30       3.0437272     0.022175283
      3066.36       3.0437547     0.021918069
      3069.43       3.0392293     0.021987660
      3072.50       3.0306687     0.021712668
      3075.57       3.0169692     0.021427988
      3078.65       3.0059673     0.021486580
      3081.73       2.9728760     0.021233701
      3084.81       2.9430659     0.020976569
      3087.89       2.9120080     0.020713477
      3090.98       2.8864440     0.020776866
      3094.07       2.8602665     0.020500903
      3097.17       2.8373840     0.020015375
      3100.26       2.8224490     0.019739958
      3103.36       2.7948290     0.019479652
      3106.47       2.7757314     0.019220828
      3109.58       2.7643190     0.019272581
      3112.68       2.7541287     0.019008916
      3115.80       2.7383817     0.018777695
      3118.91       2.7171896     0.018359827
      3122.03       2.7105841     0.018135261
      3125.15       2.7098553     0.017915367
      3128.28       2.7055584     0.017701795
      3131.41       2.6802413     0.017513748
      3134.54       2.6657070     0.017306732
      3137.67       2.6616808     0.017090986
      3140.81       2.6366478     0.017163893
      3143.95       2.6173712     0.016778958
      3147.10       2.6086653     0.016571912
      3150.24       2.5844627     0.016386777
      3153.39       2.5652505     0.016201326
      3156.55       2.5504307     0.016017849
      3159.70       2.5308763     0.015847115
      3162.86       2.5115295     0.015681847
      3166.03       2.4969739     0.015521488
      3169.19       2.4861802     0.015365891
      3172.36       2.4721723     0.015050487
      3175.54       2.4657001     0.014901573
      3178.71       2.4559977     0.014768695
      3181.89       2.4549281     0.014846909
      3185.07       2.4527504     0.014708227
      3188.26       2.4484486     0.014573932
      3191.45       2.4451081     0.014455867
      3194.64       2.4540702     0.014326896
      3197.83       2.4528715     0.014217312
      3201.03       2.4625210     0.014098408
      3204.23       2.4582045     0.013845281
      3207.44       2.4674111     0.013735983
      3210.64       2.4700851     0.013644044
      3213.85       2.4781266     0.013550599
      3217.07       2.4818069     0.013460955
      3220.28       2.4886751     0.013375918
      3223.51       2.4915950     0.013301904
      3226.73       2.4996676     0.013222287
      3229.96       2.5116498     0.013147113
      3233.19       2.5160696     0.013083907
      3236.42       2.5158067     0.013013351
      3239.66       2.5111229     0.012929749
      3242.90       2.5075609     0.012829430
      3246.14       2.5074694     0.012571593
      3249.39       2.5071821     0.012458098
      3252.64       2.5025771     0.012352228
      3255.89       2.4985384     0.012238674
      3259.14       2.4897967     0.012136307
      3262.40       2.4750388     0.012038316
      3265.67       2.4462047     0.011950646
      3268.93       2.4382267     0.011838673
      3272.20       2.4233904     0.011735020
      3275.47       2.4127102     0.011629284
      3278.75       2.3965794     0.011530477
      3282.03       2.3936266     0.011428245
      3285.31       2.3862068     0.011338822
      3288.60       2.3798583     0.011251567
      3291.88       2.3746799     0.011171503
      3295.18       2.3685491     0.011107319
      3298.47       2.3663930     0.011048415
      3301.77       2.3690335     0.010992287
      3305.07       2.3681781     0.010940242
      3308.38       2.3666116     0.010884176
      3311.69       2.3742779     0.010818250
      3315.00       2.3753631     0.010755525
      3318.31       2.3765804     0.010685465
      3321.63       2.3727632     0.010621756
      3324.95       2.3649402     0.010560334
      3328.28       2.3580959     0.010498075
      3331.61       2.3593250     0.010424040
      3334.94       2.3538154     0.010356997
      3338.27       2.3495713     0.010284760
      3341.61       2.3376925     0.010214369
      3344.95       2.3289955     0.010027006
      3348.30       2.3207860    0.0099523379
      3351.65       2.3098901    0.0098811508
      3355.00       2.2976780    0.0098142958
      3358.35       2.2838915    0.0097452845
      3361.71       2.2721980    0.0097717209
      3365.07       2.2518671    0.0096973663
      3368.44       2.2294780    0.0096247501
      3371.81       2.2104128    0.0095484801
      3375.18       2.1978232    0.0094662643
      3378.56       2.1778834    0.0093916507
      3381.94       2.1688559    0.0093108973
      3385.32       2.1580594    0.0092397123
      3388.70       2.1489852    0.0090459972
      3392.09       2.1426081    0.0089797832
      3395.48       2.1365737    0.0089200448
      3398.88       2.1331383    0.0088655953
      3402.28       2.1293477    0.0088172476
      3405.68       2.1240710    0.0087738291
      3409.09       2.1301994    0.0087257992
      3412.49       2.1314929    0.0086870536
      3415.91       2.1315355    0.0086486955
      3419.32       2.1237931    0.0086128532
      3422.74       2.1193223    0.0085694495
      3426.17       2.1141754    0.0085228140
      3429.59       2.1066953    0.0084803498
      3433.02       2.1020459    0.0083280002
      3436.45       2.1004653    0.0082870146
      3439.89       2.0996333    0.0082487844
      3443.33       2.0958213    0.0082134105
      3446.78       2.0941733    0.0081764562
      3450.22       2.0859907    0.0081456909
      3453.67       2.0789784    0.0081119945
      3457.13       2.0732221    0.0080731324
      3460.58       2.0685958    0.0081241070
      3464.04       2.0649846    0.0080772916
      3467.51       2.0550254    0.0079258410
      3470.98       2.0482595    0.0078721756
      3474.45       2.0432768    0.0078192585
      3477.92       2.0296858    0.0077722769
      3481.40       2.0175710    0.0077269638
      3484.88       2.0090932    0.0076822450
      3488.37       2.0030709    0.0076371357
      3491.86       1.9939887    0.0075966136
      3495.35       1.9895985    0.0074611900
      3498.84       1.9821920    0.0074271943
      3502.34       1.9740968    0.0074757025
      3505.84       1.9693875    0.0074366659
      3509.35       1.9602320    0.0074023030
      3512.86       1.9545924    0.0073719154
      3516.37       1.9522020    0.0073448650
      3519.89       1.9532172    0.0073201722
      3523.41       1.9553172    0.0072097117
      3526.93       1.9594997    0.0071871864
      3530.46       1.9615814    0.0071691016
      3533.99       1.9618777    0.0071531935
      3537.53       1.9664786    0.0072138813
      3541.06       1.9687878    0.0071970167
      3544.60       1.9713309    0.0070926804
      3548.15       1.9780511    0.0070694507
      3551.70       1.9850873    0.0070449180
      3555.25       1.9872926    0.0070242485
      3558.80       1.9886166    0.0070037419
      3562.36       1.9890606    0.0069825826
      3565.92       1.9887660    0.0068757724
      3569.49       1.9844241    0.0069379402
      3573.06       1.9832056    0.0069174938
      3576.64       1.9779004    0.0068990175
      3580.21       1.9777637    0.0068771723
      3583.79       1.9740603    0.0068554988
      3587.38       1.9724375    0.0067431171
      3590.96       1.9653229    0.0067168470
      3594.55       1.9583645    0.0067619016
      3598.15       1.9474821    0.0067293116
      3601.75       1.9322285    0.0066987346
      3605.35       1.9178383    0.0065805016
      3608.96       1.9017448    0.0065459377
      3612.56       1.8834488    0.0065101834
      3616.18       1.8689914    0.0065410335
      3619.79       1.8533846    0.0065007870
      3623.41       1.8333450    0.0063847945
      3627.04       1.8163893    0.0063472621
      3630.66       1.8035098    0.0063117599
      3634.29       1.7917035    0.0062809268
      3637.93       1.7825551    0.0062541302
      3641.57       1.7683853    0.0062341100
      3645.21       1.7629823    0.0062127842
      3648.86       1.7581129    0.0061955118
      3652.50       1.7497772    0.0061821211
      3656.16       1.7486635    0.0060947473
      3659.81       1.7478014    0.0061490643
      3663.47       1.7484887    0.0061318823
      3667.14       1.7487658    0.0061153433
      3670.80       1.7502426    0.0061006746
      3674.48       1.7539439    0.0060177991
      3678.15       1.7573150    0.0060686271
      3681.83       1.7616803    0.0060533126
      3685.51       1.7678682    0.0060395848
      3689.20       1.7719414    0.0059674455
      3692.88       1.7746767    0.0059537122
      3696.58       1.7802115    0.0059999213
      3700.27       1.7850379    0.0059864419
      3703.98       1.7881180    0.0059131549
      3707.68       1.7890443    0.0059092927
      3711.39       1.7869199    0.0059087665
      3715.10       1.7848986    0.0059700865
      3718.81       1.7812326    0.0058936173
      3722.53       1.7760883    0.0058835313
      3726.26       1.7704195    0.0058680837
      3729.98       1.7653734    0.0058464594
      3733.71       1.7576202    0.0058062561
      3737.45       1.7466551    0.0057767560
      3741.18       1.7351797    0.0057450434
      3744.93       1.7213495    0.0056397626
      3748.67       1.7097696    0.0056622005
      3752.42       1.6985250    0.0056327605
      3756.17       1.6897510    0.0056076344
      3759.93       1.6815014    0.0055197395
      3763.69       1.6690951    0.0055521090
      3767.45       1.6566019    0.0055253787
      3771.22       1.6477300    0.0054333383
      3774.99       1.6384881    0.0054074754
      3778.77       1.6291667    0.0054400135
      3782.54       1.6187067    0.0053546801
      3786.33       1.6097111    0.0053293699
      3790.11       1.6027457    0.0053046970
      3793.90       1.5952304    0.0053366517
      3797.70       1.5850788    0.0052514437
      3801.50       1.5773629    0.0052262529
      3805.30       1.5660194    0.0052048161
      3809.10       1.5556792    0.0051773585
      3812.91       1.5468243    0.0051559561
      3816.73       1.5389341    0.0051363502
      3820.54       1.5342702    0.0051136488
      3824.36       1.5301004    0.0050945728
      3828.19       1.5255879    0.0050768740
      3832.02       1.5206519    0.0050059545
      3835.85       1.5162241    0.0050514528
      3839.68       1.5131726    0.0050336458
      3843.52       1.5132013    0.0049654294
      3847.37       1.5109723    0.0050103036
      3851.22       1.5102575    0.0050023081
      3855.07       1.5090794    0.0049439829
      3858.92       1.5110579    0.0049392000
      3862.78       1.5129657    0.0049846016
      3866.64       1.5132407    0.0049259231
      3870.51       1.5149957    0.0049204534
      3874.38       1.5142349    0.0049648196
      3878.26       1.5149364    0.0049042754
      3882.13       1.5185518    0.0048947736
      3886.02       1.5216168    0.0048826248
      3889.90       1.5258773    0.0048724913
      3893.79       1.5312577    0.0048622235
      3897.69       1.5337232    0.0048554402
      3901.59       1.5379795    0.0048522655
      3905.49       1.5433339    0.0048490735
      3909.39       1.5484552    0.0048443622
      3913.30       1.5500197    0.0048311729
      3917.22       1.5557482    0.0047654471
      3921.13       1.5577023    0.0048045708
      3925.06       1.5576707    0.0047940349
      3928.98       1.5570534    0.0047268464
      3932.91       1.5535818    0.0047633859
      3936.84       1.5426998    0.0047000615
      3940.78       1.5341179    0.0046840644
      3944.72       1.5236009    0.0047187260
      3948.67       1.5062993    0.0046536769
      3952.61       1.4956030    0.0046363418
      3956.57       1.4811824    0.0046166995
      3960.52       1.4697592    0.0045972526
      3964.48       1.4561618    0.0046261003
      3968.45       1.4462801    0.0045556263
      3972.42       1.4356456    0.0045391637
      3976.39       1.4274008    0.0045278648
      3980.37       1.4170977    0.0045159604
      3984.35       1.4077226    0.0045064796
      3988.33       1.4053012    0.0044921303
      3992.32       1.4014499    0.0044803666
      3996.31       1.3976987    0.0044668519
      4000.31       1.3937632    0.0044525965
      4004.31       1.3899087    0.0043926543
      4008.31       1.3849947    0.0044232216
      4012.32       1.3832520    0.0043623668
      4016.33       1.3817080    0.0043920354
      4020.35       1.3781560    0.0043798246
      4024.37       1.3735633    0.0043247644
      4028.40       1.3745289    0.0043534511
      4032.42       1.3728167    0.0042978201
      4036.46       1.3716150    0.0043313846
      4040.50       1.3689132    0.0042775268
      4044.54       1.3669603    0.0042685532
      4048.58       1.3635875    0.0042560663
      4052.63       1.3611921    0.0042467580
      4056.68       1.3566418    0.0042351253
      4060.74       1.3530129    0.0042258111
      4064.80       1.3526132    0.0041703883
      4068.86       1.3486005    0.0042027358
      4072.93       1.3453455    0.0041952667
      4077.01       1.3449352    0.0041814830
      4081.08       1.3394435    0.0041749535
      4085.17       1.3375953    0.0041605957
      4089.25       1.3331987    0.0041504561
      4093.34       1.3273749    0.0041359907
      4097.43       1.3214888    0.0041267979
      4101.53       1.3162770    0.0040705109
      4105.63       1.3091683    0.0040995571
      4109.74       1.3008867    0.0040425610
      4113.85       1.2934740    0.0040699270
      4117.96       1.2844533    0.0040144407
      4122.08       1.2767653    0.0040421983
      4126.20       1.2696330    0.0039880292
      4130.33       1.2606463    0.0040161674
      4134.46       1.2509623    0.0039671587
      4138.59       1.2427829    0.0039899161
      4142.73       1.2357441    0.0039346538
      4146.88       1.2294645    0.0038850556
      4151.02       1.2215395    0.0039153093
      4155.18       1.2154358    0.0038680777
      4159.33       1.2048970    0.0038997067
      4163.49       1.2003557    0.0038502010
      4167.65       1.1930481    0.0038774759
      4171.82       1.1843873    0.0038281233
      4175.99       1.1754324    0.0038529056
      4180.17       1.1687391    0.0037983264
      4184.35       1.1610672    0.0038169796
      4188.54       1.1532708    0.0037619299
      4192.72       1.1461236    0.0037774243
      4196.92       1.1383073    0.0037226406
      4201.11       1.1292082    0.0037021025
      4205.31       1.1204286    0.0036901308
      4209.52       1.1097905    0.0036782412
      4213.73       1.1018250    0.0036751574
      4217.94       1.0947005    0.0036521392
      4222.16       1.0895917    0.0036433182
      4226.38       1.0831955    0.0036313680
      4230.61       1.0783766    0.0036236422
      4234.84       1.0746405    0.0036180126
      4239.08       1.0722721    0.0036120593
      4243.32       1.0729849    0.0036069636
      4247.56       1.0727854    0.0036056097
      4251.81       1.0730481    0.0036065845
      4256.06       1.0745962    0.0036086891
      4260.32       1.0796580    0.0035740202
      4264.58       1.0849103    0.0036086908
      4268.84       1.0893278    0.0035738989
      4273.11       1.0951812    0.0036097534
      4277.38       1.1003310    0.0035742671
      4281.66       1.1049134    0.0035772883
      4285.94       1.1100633    0.0036128485
      4290.23       1.1136455    0.0035793999
      4294.52       1.1159857    0.0035869165
      4298.81       1.1194234    0.0035874863
      4303.11       1.1260052    0.0035908419
      4307.42       1.1288646    0.0035925539
      4311.72       1.1319469    0.0035986575
      4316.04       1.1365242    0.0036053366
      4320.35       1.1418956    0.0036041972
      4324.67       1.1477352    0.0036083125
      4329.00       1.1552269    0.0035767386
      4333.33       1.1590277    0.0036156278
      4337.66       1.1643293    0.0035841024
      4342.00       1.1698251    0.0036196075
      4346.34       1.1735940    0.0036207681
      4350.69       1.1747356    0.0035835428
      4355.04       1.1755308    0.0036122165
      4359.39       1.1741749    0.0035719170
      4363.75       1.1696305    0.0035642704
      4368.12       1.1652673    0.0035889828
      4372.48       1.1613354    0.0035458694
      4376.86       1.1541542    0.0035363428
      4381.23       1.1475393    0.0035298159
      4385.61       1.1397369    0.0035181084
      4390.00       1.1293975    0.0035069236
      4394.39       1.1178834    0.0035002528
      4398.79       1.1087208    0.0034852353
      4403.18       1.0989499    0.0034685795
      4407.59       1.0896672    0.0034562371
      4412.00       1.0809937    0.0034377446
      4416.41       1.0684150    0.0033908347
      4420.82       1.0576971    0.0034080084
      4425.25       1.0470471    0.0033891433
      4429.67       1.0372636    0.0033421643
      4434.10       1.0287191    0.0033275273
      4438.54       1.0210649    0.0033461753
      4442.97       1.0150951    0.0033031688
      4447.42       1.0082211    0.0032920356
      4451.86       1.0039782    0.0033112206
      4456.32      0.99979998    0.0032685162
      4460.77      0.99377007    0.0032567280
      4465.24      0.98844779    0.0032451295
      4469.70      0.98184548    0.0032343448
      4474.17      0.97583718    0.0032213706
      4478.65      0.97040729    0.0032088736
      4483.12      0.96359263    0.0031987435
      4487.61      0.95646248    0.0031844504
      4492.09      0.94947138    0.0031708787
      4496.59      0.94021643    0.0031316538
      4501.08      0.93096071    0.0031500463
      4505.58      0.92304836    0.0031392090
      4510.09      0.91553689    0.0031023635
      4514.60      0.90865050    0.0030921201
      4519.12      0.90479328    0.0031118681
      4523.63      0.90151799    0.0031060335
      4528.16      0.90081671    0.0030741699
      4532.69      0.90061168    0.0030723542
      4537.22      0.90192978    0.0031002230
      4541.76      0.90619445    0.0030747550
      4546.30      0.91119979    0.0030789274
      4550.85      0.91624139    0.0030871079
      4555.40      0.92408182    0.0031216076
      4559.95      0.93353206    0.0030995358
      4564.51      0.94352087    0.0031078340
      4569.08      0.95152189    0.0031197105
      4573.65      0.95914267    0.0031194583
      4578.22      0.96694904    0.0031805479
      4582.80      0.97223223    0.0031833354
      4587.38      0.97681250    0.0031636924
      4591.97      0.98137655    0.0031649881
      4596.56      0.98527149    0.0032236658
      4601.16      0.98899056    0.0033038685
      4605.76      0.99327337    0.0033763797
      4610.37      0.99545645    0.0034007561
      4614.98      0.99589021    0.0034494227
      4619.59      0.99648426    0.0034735352
      4624.21      0.99670379    0.0035096023
      4628.84      0.99627319    0.0034480447
      4633.47      0.99655326    0.0034006657
      4638.10      0.99341362    0.0033400262
      4642.74      0.99379810    0.0032675253
      4647.38      0.99242423    0.0031865645
      4652.03      0.98749137    0.0031578766
      4656.68      0.98384052    0.0031170262
      4661.34      0.97717791    0.0031229881
      4666.00      0.97072005    0.0031407451
      4670.67      0.96538711    0.0030797921
      4675.33      0.95846376    0.0030395448
      4680.01      0.95313051    0.0030525897
      4684.69      0.94580179    0.0030414887
      4689.38      0.93858057    0.0030300802
      4694.07      0.92975677    0.0029952045
      4698.76      0.92183741    0.0029840816
      4703.46      0.91331550    0.0029743002
      4708.16      0.90534410    0.0029643912
      4712.87      0.89898417    0.0029806781
      4717.58      0.89275383    0.0029461531
      4722.30      0.88517212    0.0029363008
      4727.03      0.87655702    0.0029263151
      4731.75      0.87021049    0.0029142247
      4736.48      0.86405716    0.0029019465
      4741.22      0.85737577    0.0028912511
      4745.96      0.85250628    0.0028550927
      4750.71      0.84510263    0.0028450665
      4755.46      0.83843507    0.0028601418
      4760.22      0.83290043    0.0028467742
      4764.97      0.82646039    0.0028348626
      4769.74      0.81993830    0.0028226016
      4774.51      0.81289529    0.0027879666
      4779.29      0.80747033    0.0027760336
      4784.07      0.80259617    0.0027654140
      4788.85      0.79833444    0.0027552929
      4793.64      0.79180778    0.0027456480
      4798.43      0.78782928    0.0027163882
      4803.23      0.78610813    0.0026913065
      4808.03      0.78193241    0.0026834070
      4812.84      0.77597964    0.0026714113
      4817.66      0.77225406    0.0026362726
      4822.48      0.76662902    0.0025773775
      4827.30      0.76113173    0.0024987295
      4832.12      0.75631677    0.0024611628
      4836.96      0.75042417    0.0024889696
      4841.79      0.74390992    0.0025456418
      4846.63      0.73456633    0.0021818495
      4851.48      0.73052216    0.0020844808
      4856.33      0.72531084    0.0020516580
      4861.19      0.72054871    0.0020485127
      4866.05      0.71553432    0.0020650408
      4870.92      0.71303138    0.0020928998
      4875.79      0.70927230    0.0021225732
      4880.66      0.70524384    0.0021431992
      4885.55      0.70243974    0.0021618061
      4890.43      0.70224177    0.0020979655
      4895.32      0.69958823    0.0020232913
      4900.22      0.69551124    0.0019517984
      4905.12      0.69191361    0.0018920395
      4910.02      0.68733043    0.0018337349
      4914.94      0.68245775    0.0017853869
      4919.85      0.67761231    0.0017610009
      4924.77      0.67404793    0.0017920720
      4929.70      0.66895553    0.0018546008
      4934.62      0.66395020    0.0017843963
      4939.56      0.66186184    0.0017330901
      4944.50      0.65987200    0.0017339364
      4949.44      0.65721750    0.0017428808
      4954.39      0.65588304    0.0017445834
      4959.35      0.65487512    0.0017407417
      4964.31      0.65540366    0.0017398029
      4969.27      0.65496621    0.0017511241
      4974.24      0.65780746    0.0017776109
      4979.22      0.66147407    0.0018200696
      4984.20      0.66572417    0.0018768408
      4989.18      0.66873526    0.0019484190
      4994.17      0.67332583    0.0020321383
      4999.16      0.67857227    0.0021240906
      5004.16      0.68253819    0.0022177040
      5009.17      0.68780646    0.0023021662
      5014.18      0.69283581    0.0023766655
      5019.19      0.69860399    0.0024310256
      5024.21      0.70250812    0.0024640852
      5029.23      0.70563872    0.0024775233
      5034.26      0.71000971    0.0024786480
      5039.30      0.71173475    0.0024856052
      5044.34      0.71318686    0.0025189846
      5049.39      0.71444875    0.0025068175
      5054.43      0.71631188    0.0025094245
      5059.49      0.71825324    0.0025110790
      5064.55      0.72092048    0.0025165232
      5069.61      0.72255295    0.0025213253
      5074.68      0.72313884    0.0025251380
      5079.76      0.72293788    0.0025290744
      5084.84      0.72235911    0.0025322460
      5089.92      0.72241181    0.0025347690
      5095.01      0.72175110    0.0025364400
      5100.11      0.72090380    0.0025374976
      5105.21      0.71771738    0.0025190738
      5110.31      0.71666625    0.0025184356
      5115.42      0.71465821    0.0025189124
      5120.54      0.71385841    0.0025178759
      5125.66      0.71125899    0.0025168003
      5130.79      0.70705248    0.0025174626
      5135.92      0.70316462    0.0025207623
      5141.05      0.70090226    0.0025229913
      5146.20      0.69842017    0.0025058137
      5151.34      0.69768972    0.0025097464
      5156.49      0.69665950    0.0025372340
      5161.65      0.69433996    0.0025440517
      5166.81      0.69072526    0.0025538448
      5171.98      0.68909019    0.0025644786
      5177.15      0.68779776    0.0025682081
      5182.33      0.68709148    0.0025505797
      5187.51      0.68632490    0.0025597825
      5192.70      0.68433367    0.0025732216
      5197.89      0.68335435    0.0025865399
      5203.09      0.68176470    0.0025994282
      5208.29      0.68079316    0.0026122537
      5213.50      0.68133726    0.0026260922
      5218.72      0.68034848    0.0026338239
      5223.93      0.67929347    0.0026354078
      5229.16      0.67681786    0.0026323234
      5234.39      0.67534923    0.0026270734
      5239.62      0.67759244    0.0026188068
      5244.86      0.67977650    0.0025865015
      5250.11      0.67912729    0.0025802940
      5255.36      0.67874952    0.0025967080
      5260.61      0.67959769    0.0025962832
      5265.87      0.68291022    0.0026006722
      5271.14      0.68500159    0.0025888501
      5276.41      0.68752100    0.0025849207
      5281.69      0.68961706    0.0025784173
      5286.97      0.69012010    0.0025774249
      5292.26      0.69141395    0.0025774374
      5297.55      0.69425015    0.0025741238
      5302.85      0.69589705    0.0025702280
      5308.15      0.69870161    0.0025687926
      5313.46      0.70100743    0.0025692832
      5318.77      0.70355884    0.0025720012
      5324.09      0.70612782    0.0026626494
      5329.42      0.70786255    0.0027586948
      5334.75      0.71165124    0.0026676646
      5340.08      0.71455278    0.0028012214
      5345.42      0.71665169    0.0027897129
      5350.77      0.71634869    0.0027544342
      5356.12      0.71926719    0.0028493436
      5361.48      0.72289705    0.0029678052
      5366.83      0.72687533    0.0031188327
      5372.20      0.72676547    0.0032742893
      5377.58      0.72920979    0.0034021063
      5382.95      0.72728325    0.0035674511
      5388.34      0.72349398    0.0034744143
      5393.72      0.72307331    0.0033710085
      5399.12      0.72302744    0.0032181787
      5404.52      0.72111329    0.0031025283
      5409.92      0.71951856    0.0029708484
      5415.33      0.71926711    0.0028729897
      5420.75      0.71946146    0.0028242774
      5426.17      0.72059924    0.0030249516
      5431.60      0.72034829    0.0028523298
      5437.03      0.71804521    0.0027359904
      5442.47      0.71654359    0.0028714632
      5447.91      0.71498437    0.0028618099
      5453.36      0.71314407    0.0026818196
      5458.81      0.71251261    0.0026738441
      5464.27      0.70964629    0.0026946396
      5469.73      0.70780678    0.0027296607
      5475.20      0.70445376    0.0027712025
      5480.68      0.70187324    0.0028139669
      5486.16      0.69713018    0.0028353026
      5491.65      0.69305111    0.0028871579
      5497.14      0.69151533    0.0029012814
      5502.64      0.68896141    0.0028596819
      5508.14      0.68571607    0.0028633514
      5513.65      0.68433231    0.0028291578
      5519.16      0.68301666    0.0027648159
      5524.68      0.68387411    0.0027254027
      5530.20      0.68255522    0.0026945847
      5535.73      0.68124058    0.0026738116
      5541.27      0.68094648    0.0026764733
      5546.81      0.68213934    0.0027691067
      5552.36      0.68012640    0.0027647566
      5557.91      0.68030865    0.0026973660
      5563.47      0.68184752    0.0027020293
      5569.04      0.67963351    0.0027063296
      5574.60      0.67962581    0.0026875768
      5580.18      0.68012811    0.0027093863
      5585.76      0.68183316    0.0027114959
      5591.35      0.68349900    0.0026943371
      5596.94      0.68709300    0.0027200679
      5602.53      0.69183718    0.0027067408
      5608.14      0.69271505    0.0027128782
      5613.75      0.69486182    0.0027410652
      5619.36      0.69802016    0.0027276552
      5624.98      0.69831825    0.0027384728
      5630.60      0.70075801    0.0027582988
      5636.23      0.70056948    0.0027768210
      5641.87      0.70264038    0.0027769254
      5647.51      0.70687787    0.0028122982
      5653.16      0.71053846    0.0028309648
      5658.82      0.71556670    0.0028672965
      5664.47      0.72221018    0.0028963090
      5670.14      0.72598601    0.0029149494
      5675.81      0.72897742    0.0029801547
      5681.48      0.74042638    0.0029943953
      5687.17      0.74965543    0.0030535738
      5692.85      0.75576435    0.0030608403
      5698.55      0.76014117    0.0030848190
      5704.25      0.76689788    0.0031058025
      5709.95      0.77242136    0.0031136677
      5715.66      0.77146385    0.0031185740
      5721.38      0.77299677    0.0031128176
      5727.10      0.77507643    0.0031032399
      5732.83      0.77444054    0.0030914442
      5738.56      0.77268115    0.0030875138
      5744.30      0.77048125    0.0030870252
      5750.04      0.77131192    0.0030842914
      5755.79      0.77103810    0.0030774326
      5761.55      0.77156939    0.0030716099
      5767.31      0.76889421    0.0030460765
      5773.08      0.76513389    0.0030465920
      5778.85      0.76201738    0.0030457638
      5784.63      0.76105647    0.0030460465
      5790.41      0.76017677    0.0030427284
      5796.21      0.75585968    0.0030420642
      5802.00      0.75050512    0.0030432095
      5807.81      0.74699404    0.0030512975
      5813.61      0.74523955    0.0030551555
      5819.43      0.74373349    0.0030613429
      5825.25      0.74084314    0.0030669849
      5831.07      0.74187603    0.0030548177
      5836.90      0.74170904    0.0030883361
      5842.74      0.74098663    0.0030740183
      5848.58      0.73551020    0.0030841026
      5854.43      0.73452759    0.0030892860
      5860.29      0.73470071    0.0030946835
      5866.15      0.73420223    0.0030978931
      5872.01      0.73112639    0.0031016467
      5877.89      0.73123743    0.0031038411
      5883.76      0.73241673    0.0031077729
      5889.65      0.73314357    0.0030921765
      5895.54      0.73309047    0.0031228451
      5901.43      0.73400285    0.0031342939
      5907.34      0.73377436    0.0031422064
      5913.24      0.73163687    0.0031568579
      5919.16      0.73217642    0.0031428562
      5925.08      0.73097818    0.0031762056
      5931.00      0.72955119    0.0031678621
      5936.93      0.73113965    0.0032000458
      5942.87      0.73011004    0.0031903565
      5948.81      0.72668945    0.0032054263
      5954.76      0.72377383    0.0032130896
      5960.72      0.71949589    0.0032248995
      5966.68      0.71900128    0.0032417771
      5972.64      0.72225183    0.0032561811
      5978.62      0.72029174    0.0032387563
      5984.60      0.71567455    0.0032421847
      5990.58      0.71482649    0.0032637186
      5996.57      0.71486577    0.0032974830
      6002.57      0.71409224    0.0032452155
      6008.57      0.71132345    0.0033446402
      6014.58      0.71004320    0.0034833361
      6020.60      0.70465923    0.0033271165
      6026.62      0.70109939    0.0034350489
      6032.65      0.69573535    0.0036303643
      6038.68      0.69104187    0.0035378783
      6044.72      0.68579019    0.0036445065
      6050.76      0.68076175    0.0039133979
      6056.81      0.67492565    0.0039694463
      6062.87      0.67343000    0.0040125340
      6068.93      0.67221564    0.0042870440
      6075.00      0.66607395    0.0044173794
      6081.08      0.65934265    0.0041481338
      6087.16      0.65797087    0.0041439854
      6093.25      0.65193017    0.0041393606
      6099.34      0.64488976    0.0040163653
      6105.44      0.64313389    0.0039038958
      6111.54      0.64333199    0.0037170977
      6117.66      0.63563758    0.0035735487
      6123.78      0.62788379    0.0036338564
      6129.90      0.62625084    0.0034790501
      6136.03      0.62101413    0.0033346204
      6142.17      0.61737126    0.0033017063
      6148.31      0.61706338    0.0031407942
      6154.46      0.61355878    0.0029483004
      6160.61      0.60997087    0.0029265738
      6166.77      0.60355829    0.0029224639
      6172.94      0.59911882    0.0027780629
      6179.11      0.59525579    0.0026752753
      6185.29      0.59281108    0.0026126031
      6191.48      0.58740584    0.0026182775
      6197.67      0.58507007    0.0026271233
      6203.87      0.57881896    0.0025304414
      6210.07      0.57729888    0.0024887396
      6216.28      0.58072978    0.0024895270
      6222.50      0.58528570    0.0025355570
      6228.72      0.58708098    0.0025416766
      6234.95      0.58951090    0.0025674779
      6241.19      0.59335334    0.0026424494
      6247.42      0.59660097    0.0027362448
      6253.67      0.59879430    0.0028874612
      6259.93      0.60265594    0.0030329306
