# starting wavelength =        3071.0677
# ending wavelength =        7964.4790
# O2 telluric scale =        0
# O2 telluric shift =        0
# H2O telluric scale =        0
# H2O telluric shift =        0
      3072.50       1.0118729      0.14359517
      3075.57       1.0172414      0.14197845
      3078.65       1.0018137      0.14075953
      3081.73       1.0071764      0.13924805
      3084.81      0.99884845      0.13836976
      3087.89       1.0158331      0.13736488
      3090.98      0.95840582      0.13605519
      3094.07      0.97036280      0.13514571
      3097.17      0.94033322      0.13428601
      3100.26      0.93504014      0.13354076
      3103.36      0.95236103      0.13247168
      3106.47      0.96613560      0.13172505
      3109.58      0.96196356      0.13047551
      3112.68      0.96553703      0.12957551
      3115.80      0.98775911      0.12841694
      3118.91      0.97275093      0.12774988
      3122.03      0.95034794      0.12698705
      3125.15      0.92658246      0.12599555
      3128.28      0.93081477      0.12526074
      3131.41      0.96481307      0.12439981
      3134.54      0.96496977      0.12366919
      3137.67      0.93135923      0.12269542
      3140.81      0.94117949      0.12224111
      3143.95      0.95968714      0.12135320
      3147.10      0.97816467      0.12083493
      3150.24       1.0074035      0.12034362
      3153.39       1.0081619      0.11968146
      3156.55       1.0085704      0.11926828
      3159.70       1.0292798      0.11878645
      3162.86       1.0620566      0.11845886
      3166.03       1.0918703      0.11792266
      3169.19       1.0696054      0.11772215
      3172.36       1.1202875      0.11697735
      3175.54       1.1294771      0.11671214
      3178.71       1.0978228      0.11599719
      3181.89       1.1219989      0.11526578
      3185.07       1.1133440      0.11501379
      3188.26       1.1630718      0.11436225
      3191.45       1.1804501      0.11400289
      3194.64       1.1806497      0.11353404
      3197.83       1.1532830      0.11281415
      3201.03       1.1565090      0.11258289
      3204.23       1.1479853      0.11189884
      3207.44       1.1270706      0.11145771
      3210.64       1.1387570      0.11093766
      3213.85       1.1228944      0.11027204
      3217.07       1.1775584      0.11005451
      3220.28       1.1826744      0.10940375
      3223.51       1.1985685      0.10887598
      3226.73       1.2150021      0.10834358
      3229.96       1.1776210      0.10773762
      3233.19       1.1648163      0.10697241
      3236.42       1.1487674      0.10650650
      3239.66       1.1206691      0.10600734
      3242.90       1.0984421      0.10533489
      3246.14       1.0818482      0.10510661
      3249.39       1.0612489      0.10441302
      3252.64       1.0773028      0.10375921
      3255.89       1.0838936      0.10322095
      3259.14       1.0076962      0.10260576
      3262.40      0.98361919      0.10187652
      3265.67      0.96309433      0.10136031
      3268.93      0.98916616      0.10094417
      3272.20      0.99192523      0.10050179
      3275.47       1.0093136     0.099931070
      3278.75      0.99329371     0.099754933
      3282.03       1.0175947     0.099176532
      3285.31       1.0033708     0.098795130
      3288.60       1.0090687     0.098269162
      3291.88       1.0172569     0.098141696
      3295.18       1.0180704     0.097715971
      3298.47       1.0196596     0.097112327
      3301.77       1.0177760     0.096647192
      3305.07       1.0435042     0.095997935
      3308.38       1.0923380     0.095728207
      3311.69       1.0635035     0.095071179
      3315.00       1.0946601     0.094502782
      3318.31       1.0898559     0.093905923
      3321.63       1.0842728     0.093167475
      3324.95       1.1112958     0.092580311
      3328.28       1.1155058     0.092061751
      3331.61       1.1193073     0.091472938
      3334.94       1.1114668     0.090900406
      3338.27       1.1144020     0.090222424
      3341.61       1.1338226     0.089682583
      3344.95       1.1588339     0.089062141
      3348.30       1.1287998     0.088753144
      3351.65       1.1009578     0.088252203
      3355.00       1.0862818     0.087656139
      3358.35       1.0796610     0.087261266
      3361.71       1.0921568     0.086992740
      3365.07       1.0948494     0.086583099
      3368.44       1.0686100     0.086178184
      3371.81       1.0687044     0.085848430
      3375.18       1.0387260     0.085426557
      3378.56       1.0217364     0.085123281
      3381.94       1.0089495     0.085001589
      3385.32      0.97308302     0.084756699
      3388.70      0.96844482     0.084383889
      3392.09      0.95784144     0.084150916
      3395.48      0.98949429     0.083986463
      3398.88      0.99570899     0.083626422
      3402.28      0.97124650     0.083393248
      3405.68      0.96518604     0.083182005
      3409.09      0.95206262     0.083007979
      3412.49      0.95730389     0.082651743
      3415.91      0.96388219     0.082435378
      3419.32      0.99734865     0.082213091
      3422.74       1.0001869     0.082024325
      3426.17      0.99819515     0.081700058
      3429.59      0.99889963     0.081554093
      3433.02       1.0234406     0.081433591
      3436.45       1.0538463     0.081307473
      3439.89       1.0404245     0.081040138
      3443.33       1.0515150     0.080879483
      3446.78       1.0692771     0.080694272
      3450.22       1.0696661     0.080511994
      3453.67       1.0654959     0.080182008
      3457.13       1.0639070     0.080054471
      3460.58       1.0459972     0.079781928
      3464.04       1.0360181     0.079700693
      3467.51      0.99541595     0.079621788
      3470.98       1.0207928     0.079542754
      3474.45       1.0406013     0.079488363
      3477.92       1.0312173     0.079475451
      3481.40       1.0312419     0.079321163
      3484.88       1.0241945     0.079309413
      3488.37       1.0668146     0.079191304
      3491.86       1.0909170     0.079217648
      3495.35       1.0870390     0.079248913
      3498.84       1.1059235     0.079171356
      3502.34       1.1015109     0.079017521
      3505.84       1.1259208     0.078951818
      3509.35       1.1214183     0.078697238
      3512.86       1.1188388     0.078432930
      3516.37       1.1233300     0.078276477
      3519.89       1.1272489     0.078118423
      3523.41       1.1479016     0.077959622
      3526.93       1.1358037     0.077624476
      3530.46       1.1616095     0.077463944
      3533.99       1.1177468     0.077249394
      3537.53       1.1022955     0.077026147
      3541.06       1.0982116     0.076822294
      3544.60       1.0956695     0.076466711
      3548.15       1.1104842     0.076249715
      3551.70       1.1228743     0.076043138
      3555.25       1.1117052     0.075875743
      3558.80       1.1192579     0.075612772
      3562.36       1.1176829     0.075522775
      3565.92       1.1373278     0.075486903
      3569.49       1.1501193     0.075353122
      3573.06       1.1667301     0.075312160
      3576.64       1.1379841     0.075261994
      3580.21       1.1350401     0.075081737
      3583.79       1.1054436     0.075033716
      3587.38       1.0750930     0.074990123
      3590.96       1.0658049     0.074816537
      3594.55       1.0466515     0.074765631
      3598.15       1.0298388     0.074724172
      3601.75       1.0254019     0.074649209
      3605.35       1.0317924     0.074561477
      3608.96       1.0524829     0.074453602
      3612.56       1.0500570     0.074214486
      3616.18       1.0549348     0.074108719
      3619.79       1.0688056     0.073841732
      3623.41       1.0610934     0.073709304
      3627.04       1.0664195     0.073588771
      3630.66       1.0483720     0.073343016
      3634.29       1.0404345     0.073330327
      3637.93       1.0388041     0.073022803
      3641.57       1.0343875     0.072877023
      3645.21       1.0282692     0.072592805
      3648.86       1.0065517     0.072465035
      3652.50      0.99351258     0.072292585
      3656.16      0.97742356     0.072111591
      3659.81      0.96074396     0.071953271
      3663.47      0.94329135     0.071701344
      3667.14      0.93262219     0.071603544
      3670.80      0.91281731     0.071408899
      3674.48      0.90023192     0.071457290
      3678.15      0.90391955     0.071258690
      3681.83      0.91568750     0.071199073
      3685.51      0.92800541     0.070995985
      3689.20      0.94737987     0.070916967
      3692.88      0.94695998     0.070865544
      3696.58      0.96228239     0.070687749
      3700.27      0.98833181     0.070636869
      3703.98      0.99785948     0.070584094
      3707.68       1.0040206     0.070542512
      3711.39      0.99969541     0.070366713
      3715.10      0.99063266     0.070153324
      3718.81      0.99610291     0.070176740
      3722.53       1.0199100     0.069959463
      3726.26       1.0300689     0.069866126
      3729.98       1.0396143     0.069743045
      3733.71       1.0586506     0.069505225
      3737.45       1.0528928     0.069377899
      3741.18       1.0651519     0.069222958
      3744.93       1.0671900     0.068961507
      3748.67       1.0855675     0.068817942
      3752.42       1.1061664     0.068668338
      3756.17       1.1388917     0.068429993
      3759.93       1.1524972     0.068406477
      3763.69       1.1645815     0.068156441
      3767.45       1.1485292     0.067931845
      3771.22       1.1387391     0.067827825
      3774.99       1.1497066     0.067751502
      3778.77       1.1417094     0.067637772
      3782.54       1.1499501     0.067453449
      3786.33       1.1643999     0.067325644
      3790.11       1.1712666     0.067393344
      3793.90       1.1543535     0.067265410
      3797.70       1.1636869     0.067196325
      3801.50       1.1664741     0.067093387
      3805.30       1.1876278     0.067197501
      3809.10       1.2219200     0.067112282
      3812.91       1.2354799     0.067144931
      3816.73       1.2643118     0.067051180
      3820.54       1.2920093     0.067068453
      3824.36       1.3236134     0.066969661
      3828.19       1.3291328     0.067079720
      3832.02       1.3466925     0.066954223
      3835.85       1.3712573     0.066950104
      3839.68       1.3837791     0.066824049
      3843.52       1.4154436     0.066781922
      3847.37       1.4323378     0.066633726
      3851.22       1.4424819     0.066570155
      3855.07       1.4707566     0.066496789
      3858.92       1.4962571     0.066325402
      3862.78       1.4960210     0.066231317
      3866.64       1.5120541     0.066167610
      3870.51       1.4974569     0.066105115
      3874.38       1.4896635     0.066035236
      3878.26       1.4797852     0.065846696
      3882.13       1.4946262     0.065765561
      3886.02       1.5061379     0.065703766
      3889.90       1.5290369     0.065555423
      3893.79       1.5254553     0.065516954
      3897.69       1.5580481     0.065483530
      3901.59       1.5513299     0.065370775
      3905.49       1.5504906     0.065374347
      3909.39       1.5207222     0.065381573
      3913.30       1.4987919     0.065228581
      3917.22       1.4837037     0.065084127
      3921.13       1.4718212     0.065062289
      3925.06       1.4743777     0.064941324
      3928.98       1.4691352     0.064942533
      3932.91       1.4710193     0.064954869
      3936.84       1.4526466     0.064977395
      3940.78       1.4482783     0.064882965
      3944.72       1.4397573     0.064899883
      3948.67       1.4567383     0.064922823
      3952.61       1.4623954     0.064963217
      3956.57       1.4734767     0.064891525
      3960.52       1.4715492     0.064806983
      3964.48       1.4538103     0.064830365
      3968.45       1.4840326     0.064844468
      3972.42       1.4754047     0.064854171
      3976.39       1.4782581     0.064765115
      3980.37       1.4775321     0.064659774
      3984.35       1.5030186     0.064663231
      3988.33       1.5209049     0.064665843
      3992.32       1.5248256     0.064651440
      3996.31       1.5373740     0.064548031
      4000.31       1.5372802     0.064555013
      4004.31       1.5443858     0.064536859
      4008.31       1.5754038     0.064420400
      4012.32       1.5642685     0.064400840
      4016.33       1.5806891     0.064270574
      4020.35       1.5691735     0.064266151
      4024.37       1.5736073     0.064150984
      4028.40       1.5928162     0.064127547
      4032.42       1.6023847     0.064120523
      4036.46       1.6174234     0.064039710
      4040.50       1.6132656     0.064091077
      4044.54       1.5939448     0.064153435
      4048.58       1.5596842     0.064115423
      4052.63       1.5679689     0.064197688
      4056.68       1.5417649     0.064155895
      4060.74       1.5252069     0.064208493
      4064.80       1.5095318     0.064263128
      4068.86       1.4986241     0.064170246
      4072.93       1.4910242     0.064204545
      4077.01       1.4441913     0.064153234
      4081.08       1.4389974     0.064222353
      4085.17       1.4187692     0.064266068
      4089.25       1.4007869     0.064316441
      4093.34       1.3771500     0.064288169
      4097.43       1.3894326     0.064344062
      4101.53       1.3939298     0.064278091
      4105.63       1.3899656     0.064328780
      4109.74       1.3857468     0.064312371
      4113.85       1.3722718     0.064365017
      4117.96       1.3646169     0.064324032
      4122.08       1.3684682     0.064486234
      4126.20       1.3878136     0.064450805
      4130.33       1.3861073     0.064416259
      4134.46       1.4093942     0.064474481
      4138.59       1.4283957     0.064448271
      4142.73       1.4520277     0.064610976
      4146.88       1.4628714     0.064598046
      4151.02       1.4856874     0.064569934
      4155.18       1.4999998     0.064675443
      4159.33       1.5205637     0.064800152
      4163.49       1.5384224     0.064805240
      4167.65       1.5786222     0.064906110
      4171.82       1.5868442     0.064910599
      4175.99       1.6067029     0.065027030
      4180.17       1.6035303     0.065132168
      4184.35       1.6145942     0.065156882
      4188.54       1.6285613     0.065301246
      4192.72       1.6197769     0.065362596
      4196.92       1.6086929     0.065517371
      4201.11       1.6011646     0.065705780
      4205.31       1.5941756     0.065796044
      4209.52       1.5968099     0.065869612
      4213.73       1.5913860     0.066068757
      4217.94       1.5670339     0.066198911
      4222.16       1.5436373     0.066271108
      4226.38       1.5141657     0.066453838
      4230.61       1.4693019     0.066521675
      4234.84       1.4571055     0.066648792
      4239.08       1.4341389     0.066705618
      4243.32       1.4302919     0.066952625
      4247.56       1.4168285     0.066950977
      4251.81       1.4052587     0.066957565
      4256.06       1.3912409     0.067087725
      4260.32       1.3815760     0.067082488
      4264.58       1.3584834     0.067147155
      4268.84       1.3286521     0.067151392
      4273.11       1.2890384     0.067272621
      4277.38       1.2783243     0.067355909
      4281.66       1.2551629     0.067350546
      4285.94       1.2638247     0.067463669
      4290.23       1.2501540     0.067443764
      4294.52       1.2304100     0.067601144
      4298.81       1.2449302     0.067628073
      4303.11       1.2586668     0.067747466
      4307.42       1.2608471     0.067835466
      4311.72       1.2689763     0.067813565
      4316.04       1.2850233     0.067985013
      4320.35       1.2786083     0.067998172
      4324.67       1.2818079     0.068181499
      4329.00       1.2995810     0.068320280
      4333.33       1.3203473     0.068349226
      4337.66       1.3343322     0.068604132
      4342.00       1.3510897     0.069027796
      4346.34       1.3626917     0.069990597
      4350.69       1.3871705     0.069944451
      4355.04       1.4040023     0.069663962
      4359.39       1.4008874     0.069445126
      4363.75       1.4090767     0.069631572
      4368.12       1.4092003     0.069989373
      4372.48       1.3937464     0.070295937
      4376.86       1.3743684     0.070562902
      4381.23       1.3453450     0.070835405
      4385.61       1.3234773     0.071162643
      4390.00       1.3137949     0.071847345
      4394.39       1.3043757     0.072271442
      4398.79       1.3133535     0.072852505
      4403.18       1.2932029     0.072697259
      4407.59       1.2828528     0.073041619
      4412.00       1.2873317     0.073345567
      4416.41       1.2765248     0.073170176
      4420.82       1.2549042     0.073323110
      4425.25       1.2416569     0.073349430
      4429.67       1.2152268     0.073172889
      4434.10       1.1889100     0.072798579
      4438.54       1.1851119     0.072200883
      4442.97       1.1699697     0.071324727
      4447.42       1.1825223     0.069544302
      4451.86       1.1756048     0.068177002
      4456.32       1.1925119     0.066634764
      4460.77       1.1679744     0.064932044
      4465.24       1.1757418     0.063179160
      4469.70       1.1960367     0.061275125
      4474.17       1.1833776     0.059283459
      4478.65       1.1372939     0.057403505
      4483.12       1.1427132     0.055469721
      4487.61       1.1348623     0.053585435
      4492.09       1.1641865     0.051719633
      4496.59       1.1663284     0.049911917
      4501.08       1.2019716     0.059066741
      4505.58       1.1741393     0.056687342
      4510.09       1.1543583     0.054718601
      4514.60       1.1301152     0.052766367
      4519.12       1.1533819     0.051057470
      4523.63       1.1654693     0.049478905
      4528.16       1.1662961     0.048185615
      4532.69       1.1727800     0.047028534
      4537.22       1.1621446     0.045710407
      4541.76       1.1634018     0.044769572
      4546.30       1.1580083     0.043911159
      4550.85       1.1790887     0.043082487
      4555.40       1.1861796     0.042410511
      4559.95       1.1831354     0.041730199
      4564.51       1.1807193     0.041124430
      4569.08       1.1737193     0.040663129
      4573.65       1.1575641     0.040163522
      4578.22       1.1398779     0.039725183
      4582.80       1.1401685     0.039269183
      4587.38       1.1415257     0.038839047
      4591.97       1.1413357     0.038454536
      4596.56       1.1201828     0.038093482
      4601.16       1.1182356     0.037660198
      4605.76       1.1118399     0.037351847
      4610.37       1.1103296     0.037004319
      4614.98       1.1041069     0.036693353
      4619.59       1.0608431     0.036775920
      4624.21       1.0550488     0.036843496
      4628.84       1.1063614     0.036530072
      4633.47       1.1301778     0.036056483
      4638.10       1.1650607     0.035892519
      4642.74       1.1715507     0.035875567
      4647.38       1.1973475     0.036071340
      4652.03       1.1954888     0.036371317
      4656.68       1.1971154     0.036710285
      4661.34       1.2154104     0.037025994
      4666.00       1.2528686     0.037350072
      4670.67       1.2685001     0.037662568
      4675.33       1.2432383     0.037686252
      4680.01       1.2261410     0.037767467
      4684.69       1.2353565     0.037828486
      4689.38       1.2150599     0.037784550
      4694.07       1.2147015     0.037677801
      4698.76       1.2022732     0.037151445
      4703.46       1.2268609     0.036764050
      4708.16       1.2242772     0.036358389
      4712.87       1.2147316     0.035929009
      4717.58       1.2015094     0.035504466
      4722.30       1.2034819     0.035136781
      4727.03       1.1985308     0.034620168
      4731.75       1.1788201     0.034363200
      4736.48       1.1657940     0.034338491
      4741.22       1.1620804     0.034630529
      4745.96       1.1872325     0.034354159
      4750.71       1.1871557     0.033806487
      4755.46       1.1838708     0.033529475
      4760.22       1.1556673     0.033443866
      4764.97       1.1547496     0.033272192
      4769.74       1.1354235     0.033252543
      4774.51       1.1287909     0.033336531
      4779.29       1.1151062     0.033415080
      4784.07       1.1105048     0.033452696
      4788.85       1.1109148     0.033441372
      4793.64       1.0854294     0.033390597
      4798.43       1.0592265     0.033371832
      4803.23       1.0653077     0.033310158
      4808.03       1.0693157     0.033411169
      4812.84       1.0637514     0.033574333
      4817.66       1.0566528     0.033478050
      4822.48       1.0691283     0.033468365
      4827.30       1.0744341     0.033425523
      4832.12       1.0661686     0.033344303
      4836.96       1.0551912     0.033248531
      4841.79       1.0456260     0.033234269
      4846.63       1.0640930     0.033010546
      4851.48       1.0780370     0.032691272
      4856.33       1.0911269     0.032605691
      4861.19       1.0974738     0.032772642
      4866.05       1.1068151     0.032494843
      4870.92       1.1239731     0.032227311
      4875.79       1.1271088     0.031976008
      4880.66       1.1333433     0.031737402
      4885.55       1.1288744     0.031711207
      4890.43       1.1464292     0.031739178
      4895.32       1.1469333     0.031640470
      4900.22       1.1443719     0.031607158
      4905.12       1.1458379     0.031554004
      4910.02       1.1487532     0.031559762
      4914.94       1.1564003     0.031396064
      4919.85       1.1604920     0.031212639
      4924.77       1.1520854     0.031171925
      4929.70       1.1492360     0.031142608
      4934.62       1.1343151     0.031004476
      4939.56       1.1357815     0.031214607
      4944.50       1.1290080     0.031299735
      4949.44       1.1240673     0.031159266
      4954.39       1.1202469     0.030885057
      4959.35       1.1078765     0.030869316
      4964.31       1.0960789     0.031064159
      4969.27       1.1103880     0.031160317
      4974.24       1.1294935     0.031398831
      4979.22       1.1195236     0.031660422
      4984.20       1.1180746     0.032088715
      4989.18       1.1113412     0.032573770
      4994.17       1.1214157     0.032740982
      4999.16       1.1110779     0.032839538
      5004.16       1.0991739     0.033072757
      5009.17       1.1014501     0.033305659
      5014.18       1.1024047     0.033272683
      5019.19       1.1076037     0.033354293
      5024.21       1.1063431     0.033039161
      5029.23       1.0806806     0.032715093
      5034.26       1.0982285     0.032094568
      5039.30       1.0716535     0.031618971
      5044.34       1.0679265     0.030948409
      5049.39       1.0735143     0.030327863
      5054.43       1.0536262     0.029515331
      5059.49       1.0443046     0.029151591
      5064.55       1.0459366     0.028704785
      5069.61       1.0528315     0.028743441
      5074.68       1.0392170     0.028419511
      5079.76       1.0369002     0.028010813
      5084.84       1.0383249     0.027620675
      5089.92       1.0405009     0.027434402
      5095.01       1.0585732     0.027327846
      5100.11       1.0593813     0.027130683
      5105.21       1.0564744     0.026974276
      5110.31       1.0514784     0.026786934
      5115.42       1.0563419     0.026700240
      5120.54       1.0585118     0.026654268
      5125.66       1.0608672     0.026587991
      5130.79       1.0481422     0.026281090
      5135.92       1.0579235     0.026157904
      5141.05       1.0615608     0.026177669
      5146.20       1.0587239     0.026034189
      5151.34       1.0594806     0.026284246
      5156.49       1.0501190     0.026369568
      5161.65       1.0541330     0.026369292
      5166.81       1.0518170     0.026230746
      5171.98       1.0473642     0.026344687
      5177.15       1.0554596     0.026640929
      5182.33       1.0560213     0.026686274
      5187.51       1.0605475     0.026779418
      5192.70       1.0637843     0.026922340
      5197.89       1.0771504     0.027055481
      5203.09       1.0637729     0.027259397
      5208.29       1.0782915     0.027050252
      5213.50       1.0737866     0.026762522
      5218.72       1.0665964     0.026507222
      5223.93       1.0640974     0.026297928
      5229.16       1.0613292     0.025956641
      5234.39       1.0477621     0.025552642
      5239.62       1.0613437     0.024938064
      5244.86       1.0595582     0.024520939
      5250.11       1.0658974     0.024265812
      5255.36       1.0517676     0.024126287
      5260.61       1.0411693     0.023887496
      5265.87       1.0419840     0.023484530
      5271.14       1.0366321     0.023453630
      5276.41       1.0294940     0.023398192
      5281.69       1.0456426     0.023379575
      5286.97       1.0439900     0.023439069
      5292.26       1.0351935     0.023408660
      5297.55       1.0304211     0.023376512
      5302.85       1.0346664     0.023271102
      5308.15       1.0281849     0.023302905
      5313.46       1.0285657     0.023075571
      5318.77       1.0331056     0.023029500
      5324.09       1.0332897     0.023027817
      5329.42       1.0301522     0.023060324
      5334.75       1.0164853     0.023115308
      5340.08      0.99427396     0.023145315
      5345.42      0.98990858     0.023046273
      5350.77      0.97172965     0.023097551
      5356.12      0.96222320     0.023230261
      5361.48      0.94426530     0.023230661
      5366.83      0.94353349     0.022887454
      5372.20      0.93507364     0.022464677
      5377.58      0.93651244     0.022242788
      5382.95      0.92045188     0.022214432
      5388.34      0.90890470     0.022311529
      5393.72      0.89412953     0.022189277
      5399.12      0.89647271     0.021896889
      5404.52      0.89256780     0.021840009
      5409.92      0.89704469     0.021864343
      5415.33      0.91143847     0.021965980
      5420.75      0.91782386     0.022206274
      5426.17      0.93147281     0.022672079
      5431.60      0.94787735     0.023140520
      5437.03      0.96469509     0.023559837
      5442.47      0.97510480     0.023945522
      5447.91      0.99104857     0.024193521
      5453.36       1.0065969     0.024545287
      5458.81       1.0167689     0.024832186
      5464.27       1.0315214     0.025080332
      5469.73       1.0408516     0.025100254
      5475.20       1.0350732     0.025120190
      5480.68       1.0364853     0.024920927
      5486.16       1.0319524     0.024748642
      5491.65       1.0279280     0.024633650
      5497.14       1.0201447     0.024566943
      5502.64       1.0093703     0.024254169
      5508.14      0.99647031     0.023816511
      5513.65      0.97815854     0.023393538
      5519.16      0.95651845     0.022884731
      5524.68      0.93919763     0.022731193
      5530.20      0.92909660     0.022522337
      5535.73      0.92506426     0.022082509
      5541.27      0.92544430     0.021767580
      5546.81      0.93496226     0.021562354
      5552.36      0.92919948     0.021267569
      5557.91      0.93120586     0.021073321
      5563.47      0.93457421     0.020915816
      5569.04      0.93553702     0.020707844
      5574.60      0.92472919     0.020570463
      5580.18      0.91237220     0.020355636
      5585.76      0.90601905     0.020204709
      5591.35      0.90421217     0.020012077
      5596.94      0.89772785     0.019896373
      5602.53      0.89484398     0.019837830
      5608.14      0.89046574     0.019791591
      5613.75      0.89027073     0.019673678
      5619.36      0.88711159     0.015972124
      5624.98      0.89158074     0.015933501
      5630.60      0.89278652     0.015899653
      5636.23      0.89302943     0.015854196
      5641.87      0.88548726     0.015946697
      5647.51      0.88444112     0.016005659
      5653.16      0.88346244     0.015930328
      5658.82      0.88378538     0.015779144
      5664.47      0.88282355     0.015713389
      5670.14      0.88264155     0.015818292
      5675.81      0.88279665     0.015934054
      5681.48      0.88057808     0.015986742
      5687.17      0.88693616     0.015984355
      5692.85      0.89082536     0.015977334
      5698.55      0.90130743     0.015969055
      5704.25      0.90207771     0.016085740
      5709.95      0.91541529     0.016234180
      5715.66      0.92044686     0.016467721
      5721.38      0.92849784     0.016697154
      5727.10      0.94153528     0.016778069
      5732.83      0.94955628     0.016974833
      5738.56      0.95658144     0.017239219
      5744.30      0.96291198     0.017553456
      5750.04      0.97141738     0.017765932
      5755.79      0.97894002     0.018085744
      5761.55      0.97680584     0.018405043
      5767.31      0.99246618     0.018673306
      5773.08       1.0058561     0.018845043
      5778.85       1.0102930     0.019076313
      5784.63       1.0193186     0.019282200
      5790.41       1.0234665     0.019553466
      5796.21       1.0254739     0.019752997
      5802.00       1.0248389     0.019783806
      5807.81       1.0135003     0.019787217
      5813.61       1.0130905     0.019767264
      5819.43       1.0044691     0.019733497
      5825.25      0.99710683     0.019621808
      5831.07      0.98968917     0.019419177
      5836.90      0.98553095     0.019118004
      5842.74      0.97830362     0.018575284
      5848.58      0.96510435     0.018208748
      5854.43      0.94467188     0.017896199
      5860.29      0.92525449     0.017710703
      5866.15      0.91158017     0.017579628
      5872.01      0.90885423     0.017226662
      5877.89      0.90395176     0.016874241
      5883.76      0.88851537     0.016555841
      5889.65      0.87203625     0.016447914
      5895.54      0.85687713     0.016386279
      5901.43      0.84292395     0.016278251
      5907.34      0.83466908     0.016043442
      5913.24      0.82038998     0.015921192
      5919.16      0.81218900     0.015896235
      5925.08      0.80564932     0.015994044
      5931.00      0.79080511     0.016151536
      5936.93      0.79299201     0.016071615
      5942.87      0.78189084     0.016331728
      5948.81      0.78977909     0.016224326
      5954.76      0.79262505     0.016017907
      5960.72      0.80077505     0.015951847
      5966.68      0.80561521     0.015881673
      5972.64      0.81373519     0.015903538
      5978.62      0.82704519     0.015851582
      5984.60      0.83551118     0.016130191
      5990.58      0.83798556     0.016386018
      5996.57      0.85182567     0.016626788
      6002.57      0.85366805     0.016863727
      6008.57      0.85653011     0.017167364
      6014.58      0.85676056     0.017605990
      6020.60      0.85433652     0.017980561
      6026.62      0.86364637     0.018208296
      6032.65      0.86562666     0.018346732
      6038.68      0.87838029     0.018775693
      6044.72      0.89868138     0.019233257
      6050.76      0.89763157     0.019455476
      6056.81      0.90780370     0.019559180
      6062.87      0.91091052     0.019719288
      6068.93      0.91476014     0.019476049
      6075.00      0.90928532     0.019540962
      6081.08      0.91375115     0.019252633
      6087.16      0.90970759     0.019286730
      6093.25      0.91095981     0.019235209
      6099.34      0.91631268     0.019056312
      6105.44      0.90810201     0.018600972
      6111.54      0.90503739     0.018464092
      6117.66      0.90361075     0.018260941
      6123.78      0.89175576     0.018156812
      6129.90      0.88817241     0.017939640
      6136.03      0.88661266     0.017763821
      6142.17      0.88592287     0.017641745
      6148.31      0.87014147     0.017711976
      6154.46      0.87132568     0.017784236
      6160.61      0.86876889     0.018217223
      6166.77      0.86540237     0.018312329
      6172.94      0.86700735     0.018319921
      6179.11      0.85713974     0.018449842
      6185.29      0.86694049     0.018381676
      6191.48      0.86522385     0.018199999
      6197.67      0.87442777     0.018068318
      6203.87      0.88002107     0.018029608
      6210.07      0.88819009     0.018064937
      6216.28      0.88408253     0.018007675
      6222.50      0.88413442     0.018045308
      6228.72      0.87595656     0.018144298
      6234.95      0.88672724     0.018094112
      6241.19      0.89145860     0.018146295
      6247.42      0.88858768     0.018272325
      6253.67      0.88608525     0.018468247
      6259.93      0.90018107     0.018247599
      6266.19      0.91989248     0.018064087
      6272.46      0.92536862     0.018049505
      6278.73      0.94300910     0.018187689
      6285.01      0.94577730     0.018166930
      6291.29      0.94716007     0.017841284
      6297.58      0.95895018     0.017689345
      6303.88      0.95971738     0.017605904
      6310.19      0.96155013     0.017499426
      6316.50      0.96222502     0.017446337
      6322.81      0.97253190     0.017132262
      6329.14      0.97247382     0.017002850
      6335.47      0.97775049     0.016825502
      6341.80      0.97230934     0.016693488
      6348.14      0.96935801     0.016498465
      6354.49      0.96185782     0.016384383
      6360.85      0.95629660     0.016198600
      6367.21      0.94707230     0.016089276
      6373.57      0.94786964     0.015848689
      6379.95      0.93920753     0.015692282
      6386.33      0.93137326     0.015548398
      6392.72      0.91827247     0.015359217
      6399.11      0.91241569     0.015144643
      6405.51      0.90529708     0.014983939
      6411.92      0.89092104     0.014997540
      6418.32      0.87950994     0.014812970
      6424.74      0.86408694     0.014648652
      6431.17      0.86121572     0.014579224
      6437.60      0.84570894     0.014433687
      6444.04      0.84163578     0.014361286
      6450.48      0.82658735     0.014405082
      6456.94      0.80123062     0.014537141
      6463.39      0.78377896     0.014527690
      6469.85      0.77759867     0.014516841
      6476.33      0.77383251     0.014422484
      6482.80      0.77776209     0.014231841
      6489.28      0.77503720     0.014136997
      6495.77      0.77433832     0.014172254
      6502.27      0.77755599     0.014317886
      6508.77      0.77147976     0.014379612
      6515.28      0.78212425     0.014329192
      6521.80      0.77965939     0.014382977
      6528.32      0.78138310     0.014528228
      6534.85      0.77784798     0.014583343
      6541.38      0.78125648     0.014577911
      6547.92      0.78478434     0.014803562
      6554.47      0.78786072     0.014850906
      6561.03      0.79207107     0.014967924
      6567.59      0.79614026     0.015229258
      6574.16      0.80513784     0.015303694
      6580.73      0.80634514     0.015289712
      6587.31      0.80668040     0.015500633
      6593.90      0.80403277     0.015693733
      6600.50      0.80851846     0.015866834
      6607.10      0.81327140     0.015913782
      6613.70      0.82525963     0.016014234
      6620.32      0.82329379     0.016215142
      6626.94      0.82323765     0.016449812
      6633.57      0.81828754     0.016474399
      6640.20      0.81732346     0.016540900
      6646.84      0.81007639     0.016460746
      6653.49      0.79866159     0.016466107
      6660.14      0.79368843     0.016504996
      6666.80      0.79143440     0.016423025
      6673.47      0.77606608     0.016220029
      6680.14      0.76187178     0.016099205
      6686.82      0.76092870     0.015986523
      6693.51      0.74968871     0.015685948
      6700.20      0.73654453     0.015536571
      6706.90      0.71892063     0.015420251
      6713.61      0.71112042     0.015393224
      6720.32      0.71199970     0.015206272
      6727.05      0.70556071     0.014992073
      6733.77      0.70797076     0.014628125
      6740.51      0.70145146     0.014385638
      6747.25      0.69229191     0.014238078
      6754.00      0.68187908     0.014189464
      6760.75      0.67866072     0.014233531
      6767.51      0.68740039     0.013983410
      6774.28      0.70590955     0.013826520
      6781.05      0.70534506     0.013851969
      6787.84      0.71565975     0.013975193
      6794.62      0.72626277     0.014041182
      6801.42      0.73661166     0.014200981
      6808.22      0.74184255     0.014552313
      6815.03      0.74590963     0.014573414
      6821.85      0.75706648     0.014987168
      6828.67      0.76043798     0.015377226
      6835.50      0.76066374     0.015414507
      6842.33      0.76373947     0.015497620
      6849.17      0.77543610     0.015824517
      6856.02      0.77658858     0.015825723
      6862.88      0.79188783     0.015847492
      6869.74      0.79297843     0.015737993
      6876.61      0.79113965     0.015986088
      6883.49      0.78219815     0.016383144
      6890.37      0.78403289     0.016283467
      6897.27      0.77017191     0.016103683
      6904.16      0.76280645     0.015758796
      6911.07      0.74704727     0.015809911
      6917.98      0.73932779     0.015542630
      6924.89      0.73062216     0.015702146
      6931.82      0.72656479     0.015600554
      6938.75      0.71298121     0.015630867
      6945.69      0.70747936     0.015435024
      6952.64      0.70438233     0.015612964
      6959.59      0.69362392     0.015337737
      6966.55      0.68357450     0.015215188
      6973.52      0.68254107     0.015198361
      6980.49      0.66227342     0.015453112
      6987.47      0.64430832     0.015645711
      6994.46      0.64790118     0.015711871
      7001.46      0.65680972     0.015833772
      7008.46      0.65369673     0.015964690
      7015.46      0.65577175     0.016359754
      7022.48      0.67452067     0.016236135
      7029.51      0.68899661     0.016484158
      7036.53      0.70535657     0.016489598
      7043.57      0.70859789     0.016611518
      7050.62      0.72227501     0.016513718
      7057.66      0.73824495     0.016368549
      7064.72      0.74417029     0.016209600
      7071.79      0.74301429     0.016124123
      7078.86      0.75511948     0.016058195
      7085.94      0.76024669     0.016108995
      7093.03      0.76735584     0.016206756
      7100.12      0.76629499     0.016388698
      7107.22      0.77048249     0.016136359
      7114.33      0.77273434     0.015881416
      7121.44      0.77306188     0.015627118
      7128.56      0.77307397     0.015508965
      7135.69      0.77108671     0.015389652
      7142.83      0.76771495     0.015251774
      7149.97      0.76129790     0.015243304
      7157.12      0.76247923     0.014950386
      7164.28      0.75963947     0.014559319
      7171.44      0.74809886     0.014264806
      7178.62      0.73791951     0.014012637
      7185.80      0.72156266     0.013951076
      7192.98      0.71374142     0.013759287
      7200.17      0.70682977     0.013693278
      7207.38      0.71008958     0.013439666
      7214.58      0.70406489     0.013344833
      7221.80      0.70307084     0.013325584
      7229.02      0.69634313     0.013475933
      7236.25      0.69394234     0.013517026
      7243.49      0.68968180     0.013684956
      7250.73      0.68775070     0.013906217
      7257.98      0.68219668     0.014142918
      7265.24      0.68460995     0.014437134
      7272.51      0.68679585     0.014785920
      7279.78      0.68064243     0.015259503
      7287.06      0.68275443     0.015926750
      7294.35      0.68906175     0.016744352
      7301.64      0.69025485     0.017589108
      7308.94      0.69308012     0.019039182
      7316.25      0.70022692     0.020994696
      7323.57      0.70177366     0.023725519
      7330.89      0.70558516     0.026428797
      7338.22      0.70979870     0.029925789
      7345.56      0.71996568     0.034973190
      7352.91      0.68298510     0.013895948
      7360.26      0.68536767     0.014127295
      7367.62      0.68165163     0.014321840
      7374.99      0.68150455     0.014506891
      7382.37      0.67872272     0.014920303
      7389.75      0.67815322     0.015370493
      7397.14      0.67497364     0.015928230
      7404.53      0.67991914     0.016254580
      7411.94      0.67321467     0.016908809
      7419.35      0.68163478     0.016885665
      7426.77      0.68017978     0.017586356
      7434.20      0.68135945     0.018082399
      7441.63      0.68133815     0.018364255
      7449.07      0.68075560     0.018794671
      7456.52      0.68726809     0.018905781
      7463.98      0.69539234     0.019183456
      7471.45      0.70235213     0.020217375
      7478.92      0.70458030     0.020123109
      7486.40      0.70456255     0.020212727
      7493.88      0.69846040     0.020227947
      7501.38      0.68846622     0.020807056
      7508.88      0.70566565     0.021267192
      7516.39      0.72037508     0.021277525
      7523.91      0.72237829     0.021305258
      7531.43      0.72716148     0.021244791
      7538.96      0.73623845     0.021005563
      7546.50      0.72539597     0.021039710
      7554.05      0.73646895     0.020875747
      7561.60      0.73275020     0.020877931
      7569.16      0.72769111     0.020501983
      7576.73      0.72999159     0.020249861
      7584.31      0.72522650     0.019908898
      7591.89      0.72037681     0.019965607
      7599.49      0.71949553     0.019742618
      7607.09      0.71559274     0.035596068
      7614.70      0.71082640     0.031999593
      7622.31      0.71284671     0.029558147
      7629.93      0.70961267     0.027476654
      7637.56      0.70207427     0.026302944
      7645.20      0.69189922     0.025931207
      7652.85      0.71545895     0.024492114
      7660.50      0.73100218     0.023495864
      7668.16      0.73697772     0.022757472
      7675.83      0.72836735     0.022306038
      7683.50      0.74189109     0.021759745
      7691.19      0.73720391     0.021518014
      7698.88      0.73365732     0.021136877
      7706.58      0.73068204     0.020901280
      7714.29      0.71924989     0.020794405
      7722.00      0.72444180     0.020605213
      7729.73      0.73560349     0.020935580
      7737.45      0.73613292     0.021148161
      7745.19      0.74160223     0.021360215
      7752.94      0.75230665     0.021618432
      7760.69      0.75087536     0.021767830
      7768.45      0.73931342     0.021952017
      7776.22      0.74832251     0.021953547
      7784.00      0.75539577     0.021876228
      7791.78      0.75463626     0.022081822
      7799.57      0.75098315     0.022546697
      7807.37      0.75223071     0.022895777
      7815.18      0.74610978     0.023338928
      7822.99      0.73453628     0.023777227
      7830.82      0.72009497     0.024735575
      7838.65      0.71844289     0.025385531
      7846.49      0.71457646     0.026097084
      7854.34      0.72403919     0.026813580
      7862.19      0.71019159     0.027750053
      7870.05      0.72103254     0.028704314
      7877.93      0.71864486     0.029499714
      7885.80      0.73161437     0.030165770
      7893.69      0.73359052     0.031051290
      7901.58      0.75603324     0.031712524
      7909.49      0.76302184     0.032799751
      7917.40      0.78489076     0.034034235
      7925.31      0.80554900     0.035714977
      7933.24      0.80572131     0.038413709
      7941.17      0.81128460     0.038385395
      7949.11      0.85050679     0.038855463
      7957.06      0.88852642     0.039700040
