# starting wavelength =        1718.8623
# ending wavelength =        4694.2844
# O2 telluric scale =        0
# O2 telluric shift =        0
# H2O telluric scale =        0
# H2O telluric shift =        0
      1719.02      0.40693407     0.020544625
      1720.74      0.39677336     0.020058233
      1722.46      0.38660833     0.019571635
      1724.18      0.37642743     0.019084276
      1725.91      0.36623642     0.018596435
      1727.63      0.35603460     0.018108075
      1729.36      0.34603185     0.017627952
      1731.09      0.34269350     0.017424234
      1732.82      0.33935186     0.017220315
      1734.55      0.33600691     0.017016195
      1736.29      0.33266056     0.016811988
      1738.03      0.32930902     0.016607465
      1739.76      0.32595394     0.016402726
      1741.50      0.32186234     0.016184460
      1743.24      0.31775663     0.015965876
      1744.99      0.31364431     0.015746940
      1746.73      0.30952824     0.015527804
      1748.48      0.30541016     0.015308562
      1750.23      0.30128545     0.015088966
      1751.98      0.29741275     0.014832573
      1753.73      0.29354878     0.014574083
      1755.48      0.28968292     0.014315467
      1757.24      0.28581142     0.014056472
      1759.00      0.28193587     0.013797208
      1760.76      0.27805629     0.013537673
      1762.52      0.27609866     0.013391992
      1764.28      0.27426626     0.013253685
      1766.04      0.27243196     0.013115235
      1767.81      0.27059589     0.012976650
      1769.58      0.26875893     0.012837999
      1771.35      0.26691918     0.012699136
      1773.12      0.27160859     0.012628601
      1774.89      0.27673676     0.012562533
      1776.67      0.28186668     0.012496442
      1778.44      0.28700508     0.012430242
      1780.22      0.29214807     0.012363983
      1782.00      0.29729388     0.012297688
      1783.79      0.30706407     0.012361658
      1785.57      0.31706930     0.012432063
      1787.36      0.32708481     0.012502541
      1789.14      0.33711058     0.012573090
      1790.93      0.34714114     0.012643673
      1792.72      0.35718677     0.012714363
      1794.52      0.36159331     0.012738406
      1796.31      0.36591667     0.012761755
      1798.11      0.37024650     0.012785138
      1799.90      0.37458075     0.012808546
      1801.70      0.37891941     0.012831977
      1803.51      0.38324900     0.012856231
      1805.31      0.38725197     0.012905549
      1807.12      0.39125901     0.012954917
      1808.92      0.39527011     0.013004335
      1810.73      0.39928284     0.013053773
      1812.54      0.40330180     0.013103287
      1814.36      0.40733103     0.013155390
      1816.17      0.41141573     0.013230635
      1817.99      0.41550702     0.013306002
      1819.80      0.41960245     0.013381446
      1821.62      0.42370199     0.013456965
      1823.45      0.42780539     0.013532555
      1825.27      0.43129495     0.013581840
      1827.09      0.43199429     0.013511654
      1828.92      0.43269433     0.013441398
      1830.75      0.43339475     0.013371105
      1832.58      0.43409619     0.013300708
      1834.41      0.43479834     0.013230241
      1836.25      0.43733299     0.013205826
      1838.08      0.44462017     0.013301054
      1839.92      0.45191850     0.013396428
      1841.76      0.45922458     0.013491903
      1843.61      0.46653745     0.013587467
      1845.45      0.47385419     0.013683081
      1847.29      0.48041731     0.013767119
      1849.14      0.48579140     0.013832914
      1850.99      0.49116762     0.013898736
      1852.84      0.49655272     0.013964666
      1854.69      0.50194279     0.014030657
      1856.55      0.50733818     0.014096713
      1858.41      0.51156065     0.014159025
      1860.26      0.51464396     0.014217674
      1862.12      0.51773192     0.014276410
      1863.99      0.52082293     0.014335205
      1865.85      0.52391556     0.014394030
      1867.72      0.52701284     0.014452945
      1869.58      0.53412036     0.014590781
      1871.45      0.54343861     0.014772124
      1873.33      0.55276052     0.014953538
      1875.20      0.56209702     0.015135236
      1877.07      0.57144325     0.015317124
      1878.95      0.58079861     0.015499189
      1880.83      0.58564669     0.015565117
      1882.71      0.58935833     0.015601680
      1884.59      0.59307381     0.015638282
      1886.48      0.59679316     0.015674922
      1888.37      0.60051395     0.015711576
      1890.25      0.60424075     0.015748289
      1892.15      0.60992079     0.015811826
      1894.04      0.61566711     0.015876259
      1895.93      0.62141639     0.015940725
      1897.83      0.62717420     0.016005287
      1899.73      0.63293794     0.016069916
      1901.62      0.63794733     0.016125173
      1903.53      0.63901911     0.016131516
      1905.43      0.64009198     0.016137866
      1907.34      0.64116588     0.016144222
      1909.24      0.64224027     0.016150581
      1911.15      0.64331637     0.016156950
      1913.06      0.64289176     0.016171931
      1914.98      0.63988038     0.016201747
      1916.89      0.63686766     0.016231576
      1918.81      0.63385032     0.016261451
      1920.73      0.63082991     0.016291356
      1922.65      0.62780663     0.016321290
      1924.57      0.62546533     0.016239194
      1926.50      0.62359021     0.016079970
      1928.42      0.62171318     0.015920585
      1930.35      0.61983437     0.015761048
      1932.28      0.61795462     0.015601430
      1934.21      0.61607188     0.015441560
      1936.15      0.61056924     0.015265901
      1938.08      0.60438613     0.015087234
      1940.02      0.59819326     0.014908286
      1941.96      0.59199455     0.014729168
      1943.91      0.58578921     0.014549859
      1945.85      0.57948983     0.014371332
      1947.79      0.57244316     0.014200746
      1949.74      0.56538543     0.014029892
      1951.69      0.55832106     0.013858878
      1953.64      0.55125360     0.013687789
      1955.60      0.54417464     0.013516421
      1957.55      0.53802131     0.013360216
      1959.51      0.53333273     0.013228029
      1961.47      0.52864181     0.013095777
      1963.43      0.52394387     0.012963327
      1965.40      0.51924097     0.012830737
      1967.36      0.51453368     0.012698023
      1969.33      0.51088590     0.012593930
      1971.30      0.50770156     0.012502347
      1973.27      0.50451406     0.012410674
      1975.24      0.50132519     0.012318961
      1977.22      0.49813118     0.012227101
      1979.20      0.49501819     0.012136780
      1981.18      0.49809124     0.012166162
      1983.16      0.50116733     0.012195573
      1985.14      0.50424475     0.012224997
      1987.12      0.50732690     0.012254466
      1989.11      0.51041227     0.012283966
      1991.10      0.51516423     0.012340272
      1993.09      0.52299978     0.012446162
      1995.09      0.53084302     0.012552156
      1997.08      0.53869443     0.012658261
      1999.08      0.54654968     0.012764417
      2001.08      0.55441645     0.012870730
      2003.08      0.56142542     0.012987223
      2005.08      0.56808379     0.013107988
      2007.09      0.57474539     0.013228811
      2009.09      0.58141714     0.013349819
      2011.10      0.58809579     0.013470952
      2013.11      0.59485327     0.013590174
      2015.13      0.60242196     0.013688919
      2017.14      0.60999798     0.013787760
      2019.16      0.61758135     0.013886696
      2021.18      0.62517251     0.013985735
      2023.20      0.63276735     0.014084821
      2025.22      0.64082740     0.014215774
      2027.25      0.64937089     0.014380078
      2029.28      0.65791798     0.014544451
      2031.31      0.66647845     0.014709082
      2033.34      0.67504768     0.014873881
      2035.37      0.68362515     0.015038838
      2037.41      0.68992183     0.015127162
      2039.44      0.69598489     0.015207451
      2041.48      0.70205377     0.015287816
      2043.53      0.70812882     0.015368264
      2045.57      0.71420641     0.015448745
      2047.61      0.71958139     0.015524676
      2049.66      0.72358251     0.015591622
      2051.71      0.72758530     0.015658596
      2053.76      0.73159477     0.015725681
      2055.82      0.73560805     0.015792831
      2057.87      0.73962515     0.015860044
      2059.93      0.74154608     0.015880371
      2061.99      0.74292870     0.015888655
      2064.05      0.74431362     0.015896954
      2066.12      0.74569985     0.015905260
      2068.18      0.74708657     0.015913569
      2070.25      0.74794339     0.015916938
      2072.32      0.74734446     0.015906754
      2074.39      0.74674503     0.015896561
      2076.47      0.74614525     0.015886362
      2078.55      0.74554456     0.015876147
      2080.62      0.74494329     0.015865923
      2082.71      0.74450760     0.015855902
      2084.79      0.74412364     0.015845942
      2086.87      0.74373909     0.015835967
      2088.96      0.74335418     0.015825983
      2091.05      0.74296887     0.015815988
      2093.14      0.74221471     0.015798041
      2095.23      0.74045410     0.015758394
      2097.33      0.73869164     0.015718705
      2099.43      0.73692754     0.015678980
      2101.52      0.73516262     0.015639236
      2103.63      0.73339482     0.015599427
      2105.73      0.73263133     0.015572917
      2107.84      0.73213075     0.015549884
      2109.94      0.73162941     0.015526817
      2112.05      0.73112754     0.015503726
      2114.17      0.73062516     0.015480611
      2116.28      0.73004621     0.015460849
      2118.40      0.72931625     0.015447658
      2120.52      0.72858554     0.015434453
      2122.64      0.72785416     0.015421236
      2124.76      0.72712243     0.015408013
      2126.88      0.72638953     0.015394769
      2129.01      0.72380798     0.015342588
      2131.14      0.72102767     0.015286224
      2133.27      0.71824608     0.015229833
      2135.40      0.71546035     0.015173358
      2137.54      0.71267175     0.015116826
      2139.68      0.71100748     0.015095645
      2141.82      0.71054971     0.015112371
      2143.96      0.71009116     0.015129125
      2146.10      0.70963219     0.015145894
      2148.25      0.70917296     0.015162673
      2150.40      0.70857599     0.015173738
      2152.55      0.70644797     0.015120733
      2154.70      0.70431754     0.015067668
      2156.86      0.70218518     0.015014555
      2159.01      0.70005185     0.014961417
      2161.17      0.69791514     0.014908196
      2163.33      0.69719191     0.014875005
      2165.50      0.69707975     0.014850474
      2167.66      0.69696742     0.014825903
      2169.83      0.69685498     0.014801311
      2172.00      0.69674243     0.014776693
      2174.17      0.69844234     0.014793012
      2176.35      0.70374975     0.014890803
      2178.52      0.70906253     0.014988693
      2180.70      0.71438068     0.015086681
      2182.88      0.71970121     0.015184713
      2185.07      0.72503008     0.015282899
      2187.25      0.72549777     0.015291227
      2189.44      0.72590444     0.015298427
      2191.63      0.72631174     0.015305638
      2193.82      0.72671940     0.015312856
      2196.01      0.72712752     0.015320081
      2198.21      0.72423740     0.015266102
      2200.41      0.71962130     0.015180096
      2202.61      0.71499752     0.015093946
      2204.81      0.71036963     0.015007719
      2207.02      0.70573917     0.014921445
      2209.22      0.70172656     0.014843746
      2211.43      0.69887562     0.014782215
      2213.64      0.69602152     0.014720617
      2215.86      0.69316616     0.014658991
      2218.07      0.69030639     0.014597269
      2220.29      0.68733215     0.014533650
      2222.51      0.68240327     0.014437860
      2224.73      0.67747223     0.014342027
      2226.96      0.67253359     0.014246047
      2229.19      0.66758954     0.014149961
      2231.42      0.66264387     0.014053844
      2233.65      0.66038267     0.014007163
      2235.88      0.65888685     0.013974575
      2238.12      0.65738938     0.013941950
      2240.36      0.65589045     0.013909294
      2242.60      0.65439070     0.013876620
      2244.84      0.65472690     0.013882874
      2247.08      0.65674340     0.013924755
      2249.33      0.65876055     0.013966650
      2251.58      0.66078099     0.014008613
      2253.83      0.66280363     0.014050622
      2256.09      0.66493207     0.014095822
      2258.34      0.66732097     0.014148909
      2260.60      0.66971350     0.014202076
      2262.86      0.67210835     0.014255295
      2265.12      0.67450552     0.014308566
      2267.39      0.67678244     0.014360547
      2269.66      0.67731144     0.014393619
      2271.93      0.67784096     0.014426723
      2274.20      0.67837076     0.014459844
      2276.47      0.67890136     0.014493015
      2278.75      0.67943247     0.014526219
      2281.03      0.68437741     0.014643238
      2283.31      0.69005123     0.014774119
      2285.59      0.69572748     0.014905055
      2287.88      0.70141283     0.015036202
      2290.17      0.70710365     0.015167476
      2292.46      0.71447794     0.015296626
      2294.75      0.72266927     0.015424940
      2297.04      0.73086845     0.015553377
      2299.34      0.73907548     0.015681937
      2301.64      0.74728687     0.015810565
      2303.94      0.75290927     0.015904604
      2306.25      0.75601886     0.015965064
      2308.55      0.75913141     0.016025582
      2310.86      0.76224561     0.016086132
      2313.17      0.76536443     0.016146772
      2315.49      0.76854557     0.016210112
      2317.80      0.77183602     0.016278238
      2320.12      0.77512821     0.016346400
      2322.44      0.77842526     0.016414662
      2324.76      0.78172542     0.016482989
      2327.09      0.78424963     0.016536410
      2329.41      0.78414724     0.016539363
      2331.74      0.78404470     0.016542321
      2334.08      0.78394207     0.016545281
      2336.41      0.78383938     0.016548243
      2338.75      0.78405163     0.016557913
      2341.08      0.78665999     0.016618569
      2343.43      0.78927107     0.016679289
      2345.77      0.79188324     0.016740034
      2348.12      0.79449976     0.016800879
      2350.46      0.79720789     0.016863643
      2352.81      0.80461136     0.017024458
      2355.17      0.81201713     0.017185322
      2357.52      0.81943520     0.017346454
      2359.88      0.82686019     0.017507736
      2362.24      0.83429287     0.017669185
      2364.60      0.84387911     0.017858478
      2366.97      0.85362004     0.018049877
      2369.33      0.86337001     0.018241453
      2371.70      0.87312904     0.018433208
      2374.08      0.88289310     0.018625061
      2376.45      0.88723322     0.018715173
      2378.83      0.89084552     0.018791639
      2381.20      0.89445931     0.018868136
      2383.59      0.89807903     0.018944759
      2385.97      0.90170209     0.019021453
      2388.36      0.90486931     0.019099008
      2390.75      0.90795131     0.019176804
      2393.14      0.91103457     0.019254631
      2395.53      0.91412256     0.019332578
      2397.93      0.91721369     0.019410604
      2400.32      0.92287844     0.019516354
      2402.72      0.92914735     0.019628682
      2405.13      0.93542201     0.019741112
      2407.53      0.94170367     0.019853668
      2409.94      0.94798725     0.019966258
      2412.35      0.95366500     0.020078756
      2414.76      0.95919812     0.020191300
      2417.18      0.96473684     0.020303958
      2419.59      0.97027779     0.020416661
      2422.01      0.97582771     0.020529547
      2424.44      0.97275570     0.020492058
      2426.86      0.96770312     0.020420031
      2429.29      0.96264290     0.020347896
      2431.72      0.95757708     0.020275680
      2434.15      0.95250668     0.020203399
      2436.58      0.94359615     0.020089664
      2439.02      0.93397201     0.019968219
      2441.46      0.92433340     0.019846592
      2443.90      0.91468515     0.019724843
      2446.34      0.90503207     0.019603033
      2448.79      0.90251811     0.019488297
      2451.24      0.90090924     0.019374367
      2453.69      0.89929877     0.019260323
      2456.14      0.89768750     0.019146223
      2458.60      0.89607382     0.019031952
      2461.06      0.89273101     0.018967202
      2463.52      0.88929070     0.018905077
      2465.98      0.88584902     0.018842927
      2468.45      0.88240223     0.018780685
      2470.92      0.87896378     0.018718642
      2473.39      0.87591154     0.018665149
      2475.86      0.87285447     0.018611570
      2478.34      0.86979438     0.018557939
      2480.82      0.86673097     0.018504250
      2483.30      0.86407107     0.018457877
      2485.78      0.86424989     0.018462968
      2488.27      0.86442900     0.018468068
      2490.76      0.86460828     0.018473172
      2493.25      0.86478764     0.018478278
      2495.74      0.86574199     0.018508439
      2498.24      0.86915567     0.018618108
      2500.74      0.87257269     0.018727884
      2503.24      0.87599104     0.018837704
      2505.74      0.87941474     0.018947695
      2508.25      0.88119582     0.019008106
      2510.75      0.88019186     0.018984449
      2513.26      0.87918732     0.018960778
      2515.78      0.87818131     0.018937072
      2518.29      0.87717432     0.018913344
      2520.81      0.88010028     0.018953339
      2523.33      0.88667544     0.019052454
      2525.86      0.89325698     0.019151666
      2528.38      0.89984552     0.019250983
      2530.91      0.90644106     0.019350405
      2533.44      0.91116684     0.019443151
      2535.98      0.91503377     0.019532944
      2538.51      0.91890480     0.019622832
      2541.05      0.92277732     0.019712755
      2543.59      0.92665580     0.019802816
      2546.13      0.94003306     0.020059544
      2548.68      0.95487577     0.020342005
      2551.23      0.96972560     0.020624602
      2553.78      0.98459819     0.020907632
      2556.34      0.99906556     0.021184385
      2558.89       1.0077581     0.021371041
      2561.45       1.0164541     0.021557768
      2564.01       1.0251641     0.021744798
      2566.58       1.0338824     0.021932007
      2569.14       1.0393019     0.022042275
      2571.71       1.0363676     0.021957735
      2574.28       1.0334285     0.021873060
      2576.86       1.0304866     0.021788303
      2579.44       1.0275417     0.021703459
      2582.01       1.0233603     0.021613547
      2584.60       1.0180247     0.021518826
      2587.18       1.0126840     0.021424016
      2589.77       1.0073404     0.021329152
      2592.36       1.0019891     0.021234154
      2594.95      0.98688082     0.020986041
      2597.55      0.96882977     0.020691741
      2600.14      0.95077194     0.020397331
      2602.74      0.93268354     0.020102423
      2605.35      0.91499786     0.019811729
      2607.95      0.90867399     0.019642225
      2610.56      0.90234775     0.019472657
      2613.17      0.89601145     0.019302820
      2615.79      0.88966862     0.019132807
      2618.40      0.88312931     0.018976677
      2621.02      0.87617684     0.018850690
      2623.64      0.86921335     0.018724503
      2626.26      0.86224338     0.018598198
      2628.89      0.85526562     0.018471753
      2631.52      0.84704228     0.018304618
      2634.15      0.83803604     0.018112035
      2636.79      0.82901978     0.017919238
      2639.42      0.82000017     0.017726370
      2642.06      0.81096553     0.017533180
      2644.70      0.79667514     0.017243182
      2647.35      0.78201399     0.016946332
      2650.00      0.76733660     0.016649153
      2652.65      0.75265379     0.016351864
      2655.30      0.73975860     0.016087019
      2657.96      0.73174790     0.015910932
      2660.61      0.72373353     0.015734764
      2663.27      0.71570663     0.015558321
      2665.94      0.70767164     0.015381700
      2668.60      0.69953590     0.015215749
      2671.27      0.69134019     0.015056409
      2673.94      0.68313097     0.014896807
      2676.62      0.67491426     0.014737059
      2679.29      0.66668855     0.014577136
      2681.97      0.66508317     0.014552886
      2684.66      0.66356840     0.014530507
      2687.34      0.66205225     0.014508107
      2690.03      0.66053528     0.014485695
      2692.72      0.66439010     0.014568635
      2695.41      0.67751280     0.014833329
      2698.11      0.69064739     0.015098263
      2700.81      0.70379626     0.015363485
      2703.51      0.71694989     0.015628803
      2706.21      0.73360181     0.015966073
      2708.92      0.75132800     0.016325436
      2711.62      0.76906059     0.016684929
      2714.34      0.78682196     0.017045006
      2717.05      0.80484077     0.017412149
      2719.77      0.82394100     0.017809413
      2722.49      0.84305153     0.018206892
      2725.21      0.86218951     0.018604941
      2727.94      0.88134808     0.019003419
      2730.66      0.90528182     0.019476390
      2733.39      0.93219838     0.019995892
      2736.13      0.95915585     0.020516184
      2738.86      0.98614222     0.021037033
      2741.60       1.0131778     0.021558405
      2744.34       1.0408682     0.022085825
      2747.09       1.0685856     0.022613761
      2749.84       1.0963302     0.023142214
      2752.59       1.1241019     0.023671183
      2755.34       1.1495553     0.024180489
      2758.09       1.1729555     0.024672683
      2760.85       1.1963786     0.025165357
      2763.61       1.2198141     0.025658293
      2766.38       1.2432735     0.026151371
      2769.14       1.2652601     0.026566539
      2771.91       1.2872680     0.026982110
      2774.69       1.3092876     0.027397901
      2777.46       1.3313402     0.027814314
      2780.24       1.3462142     0.028096535
      2783.02       1.3539461     0.028245240
      2785.80       1.3616814     0.028394011
      2788.59       1.3694289     0.028543017
      2791.38       1.3771216     0.028691290
      2794.17       1.3799911     0.028771814
      2796.96       1.3828649     0.028852458
      2799.76       1.3857415     0.028933179
      2802.56       1.3886211     0.029013984
      2805.36       1.3897043     0.029065413
      2808.17       1.3892598     0.029091839
      2810.98       1.3888144     0.029118308
      2813.79       1.3883687     0.029144802
      2816.60       1.3888412     0.029183775
      2819.42       1.3992357     0.029357492
      2822.24       1.4096402     0.029531374
      2825.06       1.4200564     0.029705451
      2827.88       1.4304761     0.029879589
      2830.71       1.4367237     0.030005718
      2833.54       1.4406486     0.030105127
      2836.38       1.4445772     0.030204630
      2839.21       1.4485078     0.030304185
      2842.05       1.4513446     0.030405196
      2844.90       1.4502184     0.030510994
      2847.74       1.4490910     0.030616902
      2850.59       1.4479631     0.030722855
      2853.44       1.4468335     0.030828972
      2856.29       1.4477047     0.030762145
      2859.15       1.4490530     0.030654082
      2862.01       1.4504019     0.030545972
      2864.87       1.4517529     0.030437696
      2867.74       1.4546331     0.030420073
      2870.60       1.4596696     0.030530441
      2873.47       1.4647143     0.030640988
      2876.35       1.4697636     0.030751638
      2879.22       1.4750020     0.030868903
      2882.10       1.4853652     0.031167256
      2884.99       1.4957451     0.031466090
      2887.87       1.5061346     0.031765202
      2890.76       1.5165347     0.032064618
      2893.65       1.5284106     0.032331614
      2896.54       1.5410193     0.032583247
      2899.44       1.5536397     0.032835115
      2902.34       1.5662740     0.033087258
      2905.24       1.5807590     0.033345246
      2908.15       1.5991078     0.033615646
      2911.06       1.6174735     0.033886296
      2913.97       1.6358577     0.034157218
      2916.88       1.6542497     0.034428254
      2919.80       1.6591698     0.034538677
      2922.72       1.6639893     0.034647947
      2925.64       1.6688116     0.034757282
      2928.57       1.6736408     0.034866771
      2931.50       1.6736178     0.034892251
      2934.43       1.6712240     0.034876696
      2937.36       1.6688281     0.034861127
      2940.30       1.6664308     0.034845549
      2943.24       1.6665417     0.034865412
      2946.18       1.6709200     0.034945551
      2949.13       1.6753001     0.035025723
      2952.08       1.6796871     0.035106021
      2955.03       1.6836064     0.035178186
      2957.99       1.6824098     0.035161352
      2960.94       1.6812126     0.035144511
      2963.90       1.6800137     0.035127644
      2966.87       1.6788135     0.035110759
      2969.84       1.6736085     0.034990280
      2972.81       1.6674650     0.034845524
      2975.78       1.6613119     0.034700542
      2978.76       1.6551522     0.034555406
      2981.73       1.6391151     0.034277717
      2984.72       1.6151082     0.033892986
      2987.70       1.5910795     0.033507909
      2990.69       1.5670254     0.033122422
      2993.68       1.5455234     0.032728793
      2996.67       1.5297254     0.032317903
      2999.67       1.5139015     0.031906343
      3002.67       1.4980622     0.031494381
      3005.67       1.4816995     0.031079525
      3008.68       1.4594788     0.030633259
      3011.69       1.4372365     0.030186557
      3014.70       1.4149725     0.029739420
      3017.71       1.3926976     0.029292066
      3020.73       1.3800327     0.029026387
      3023.75       1.3687917     0.028787609
      3026.78       1.3575389     0.028548580
      3029.80       1.3462816     0.028309455
      3032.83       1.3387754     0.028153157
      3035.87       1.3331100     0.028037508
      3038.90       1.3274418     0.027921803
      3041.94       1.3217655     0.027805931
      3044.98       1.3206290     0.027785459
      3048.03       1.3242412     0.027864773
      3051.08       1.3278572     0.027944169
      3054.13       1.3314749     0.028023604
      3057.18       1.3351524     0.028108374
      3060.24       1.3389496     0.028204378
      3063.30       1.3427484     0.028300421
      3066.36       1.3465533     0.028396618
      3069.43       1.3497963     0.028481032
      3072.50       1.3501345     0.028504463
      3075.57       1.3504727     0.028527903
      3078.65       1.3508115     0.028551380
      3081.73       1.3509916     0.028570659
      3084.81       1.3447199     0.028418685
      3087.89       1.3384452     0.028266638
      3090.98       1.3321611     0.028114363
      3094.07       1.3258705     0.027961931
      3097.17       1.3245230     0.027965149
      3100.26       1.3237275     0.027985817
      3103.36       1.3229313     0.028006507
      3106.47       1.3221342     0.028027219
      3109.58       1.3266212     0.028069684
      3112.68       1.3325501     0.028118089
      3115.80       1.3384884     0.028166570
      3118.91       1.3444326     0.028215100
      3122.03       1.3477953     0.028277554
      3125.15       1.3499957     0.028346388
      3128.28       1.3521985     0.028415297
      3131.41       1.3544032     0.028484266
      3134.54       1.3553881     0.028494820
      3137.67       1.3555800     0.028467353
      3140.81       1.3557720     0.028439859
      3143.95       1.3559642     0.028412338
      3147.10       1.3607428     0.028512609
      3150.24       1.3694897     0.028723414
      3153.39       1.3782454     0.028934432
      3156.55       1.3870099     0.029145662
      3159.70       1.3944120     0.029314545
      3162.86       1.4003526     0.029437922
      3166.03       1.4062991     0.029561424
      3169.19       1.4122511     0.029685040
      3172.36       1.4150078     0.029747276
      3175.54       1.4136813     0.029731088
      3178.71       1.4123536     0.029714885
      3181.89       1.4110252     0.029698673
      3185.07       1.4108454     0.029700880
      3188.26       1.4122997     0.029729287
      3191.45       1.4137554     0.029757720
      3194.64       1.4152126     0.029786184
      3197.83       1.4176554     0.029825126
      3201.03       1.4215739     0.029879768
      3204.23       1.4254965     0.029934469
      3207.44       1.4294210     0.029989195
      3210.64       1.4288141     0.029980491
      3213.85       1.4214415     0.029877081
      3217.07       1.4140660     0.029773631
      3220.28       1.4066793     0.029670024
      3223.51       1.3999899     0.029550194
      3226.73       1.3942866     0.029407563
      3229.96       1.3885776     0.029264793
      3233.19       1.3828656     0.029121946
      3236.42       1.3763261     0.028983157
      3239.66       1.3687465     0.028849597
      3242.90       1.3611634     0.028715977
      3246.14       1.3535689     0.028582155
      3249.39       1.3456706     0.028438997
      3252.64       1.3374503     0.028285931
      3255.89       1.3292213     0.028132704
      3259.14       1.3209893     0.027979419
      3262.40       1.3173258     0.027909893
      3265.67       1.3175558     0.027911752
      3268.93       1.3177860     0.027913612
      3272.20       1.3180165     0.027915475
      3275.47       1.3123824     0.027808658
      3278.75       1.3029743     0.027631906
      3282.03       1.2935523     0.027454890
      3285.31       1.2841204     0.027277689
      3288.60       1.2839800     0.027258012
      3291.88       1.2880309     0.027309377
      3295.18       1.2920832     0.027360762
      3298.47       1.2961422     0.027412231
      3301.77       1.2965780     0.027439197
      3305.07       1.2960242     0.027459474
      3308.38       1.2954694     0.027479783
      3311.69       1.2949141     0.027500112
      3315.00       1.2947640     0.027472152
      3318.31       1.2946617     0.027438438
      3321.63       1.2945594     0.027404710
      3324.95       1.2943244     0.027369712
      3328.28       1.2854011     0.027254837
      3331.61       1.2764745     0.027139920
      3334.94       1.2675334     0.027024817
      3338.27       1.2599196     0.026915861
      3341.61       1.2598199     0.026842061
      3344.95       1.2597201     0.026768185
      3348.30       1.2596203     0.026694276
      3351.65       1.2582758     0.026628445
      3355.00       1.2540106     0.026581760
      3358.35       1.2497435     0.026535054
      3361.71       1.2454695     0.026488274
      3365.07       1.2444612     0.026475616
      3368.44       1.2473036     0.026503199
      3371.81       1.2501506     0.026530826
      3375.18       1.2530005     0.026558481
      3378.56       1.2550818     0.026603134
      3381.94       1.2567197     0.026657635
      3385.32       1.2583585     0.026712163
      3388.70       1.2599997     0.026766771
      3392.09       1.2576964     0.026698530
      3395.48       1.2545298     0.026603401
      3398.88       1.2513581     0.026508121
      3402.28       1.2481006     0.026412641
      3405.68       1.2411289     0.026312106
      3409.09       1.2341506     0.026211477
      3412.49       1.2271689     0.026110798
      3415.91       1.2237486     0.026062979
      3419.32       1.2321417     0.026190478
      3422.74       1.2405389     0.026318042
      3426.17       1.2489487     0.026445797
      3429.59       1.2512110     0.026542948
      3433.02       1.2462302     0.026603986
      3436.45       1.2412421     0.026665115
      3439.89       1.2362489     0.026726305
      3443.33       1.2424481     0.026769177
      3446.78       1.2535571     0.026804038
      3450.22       1.2646716     0.026838917
      3453.67       1.2758034     0.026873850
      3457.13       1.2803623     0.026973530
      3460.58       1.2845649     0.027076773
      3464.04       1.2887744     0.027180184
      3467.51       1.2929458     0.027287620
      3470.98       1.2969639     0.027409961
      3474.45       1.3009861     0.027532422
      3477.92       1.3050099     0.027654935
      3481.40       1.3083496     0.027717149
      3484.88       1.3109612     0.027715312
      3488.37       1.3135739     0.027713475
      3491.86       1.3161907     0.027711634
      3495.35       1.3183053     0.027725618
      3498.84       1.3202744     0.027744204
      3502.34       1.3222465     0.027762818
      3505.84       1.3243876     0.027787167
      3509.35       1.3285789     0.027881638
      3512.86       1.3327742     0.027976201
      3516.37       1.3369713     0.028070804
      3519.89       1.3392922     0.028117157
      3523.41       1.3386314     0.028086845
      3526.93       1.3379702     0.028056519
      3530.46       1.3373080     0.028026147
      3533.99       1.3400898     0.028090158
      3537.53       1.3442677     0.028192423
      3541.06       1.3484496     0.028294787
      3544.60       1.3524922     0.028401559
      3548.15       1.3537409     0.028594835
      3551.70       1.3549908     0.028788298
      3555.25       1.3562412     0.028981841
      3558.80       1.3616852     0.029117713
      3562.36       1.3734930     0.029165782
      3565.92       1.3853056     0.029213871
      3569.49       1.3971369     0.029262036
      3573.06       1.4010593     0.029330182
      3576.64       1.4024846     0.029404692
      3580.21       1.4039113     0.029479278
      3583.79       1.4052910     0.029545560
      3587.38       1.4063633     0.029557756
      3590.96       1.4074366     0.029569965
      3594.55       1.4085104     0.029582178
      3598.15       1.4053116     0.029495418
      3601.75       1.3981179     0.029316127
      3605.35       1.3909169     0.029136654
      3608.96       1.3837091     0.028957010
      3612.56       1.3749743     0.028783482
      3616.18       1.3660882     0.028610246
      3619.79       1.3571931     0.028436833
      3623.41       1.3509747     0.028326809
      3627.04       1.3503413     0.028349065
      3630.66       1.3497072     0.028371344
      3634.29       1.3490729     0.028393633
      3637.93       1.3467608     0.028357201
      3641.57       1.3438694     0.028300521
      3645.21       1.3409752     0.028243784
      3648.86       1.3386870     0.028218145
      3652.50       1.3392165     0.028336691
      3656.16       1.3397468     0.028455420
      3659.81       1.3402777     0.028574275
      3663.47       1.3436089     0.028651655
      3667.14       1.3486414     0.028704009
      3670.80       1.3536786     0.028756411
      3674.48       1.3585710     0.028806565
      3678.15       1.3617187     0.028829910
      3681.83       1.3648677     0.028853265
      3685.51       1.3680217     0.028876657
      3689.20       1.3693263     0.028940551
      3692.88       1.3690837     0.029038293
      3696.58       1.3688406     0.029136191
      3700.27       1.3686854     0.029229980
      3703.98       1.3722751     0.029145090
      3707.68       1.3758686     0.029060111
      3711.39       1.3794636     0.028975098
      3715.10       1.3738357     0.028819255
      3718.81       1.3594579     0.028596269
      3722.53       1.3450744     0.028373196
      3726.26       1.3308514     0.028152051
      3729.98       1.3276296     0.028067971
      3733.71       1.3244065     0.027983858
      3737.45       1.3211784     0.027899613
      3741.18       1.3180046     0.027803384
      3744.93       1.3148790     0.027696466
      3748.67       1.3117504     0.027589444
      3752.42       1.3079969     0.027474358
      3756.17       1.2927228     0.027211050
      3759.93       1.2774338     0.026947484
      3763.69       1.2621378     0.026683799
      3767.45       1.2505878     0.026469204
      3771.22       1.2416679     0.026289083
      3774.99       1.2327387     0.026108775
      3778.77       1.2237064     0.025925996
      3782.54       1.2140686     0.025728517
      3786.33       1.2044159     0.025530732
      3790.11       1.1947532     0.025332742
      3793.90       1.1941066     0.025318520
      3797.70       1.1975037     0.025386714
      3801.50       1.2009045     0.025454983
      3805.30       1.2015060     0.025465278
      3809.10       1.1941449     0.025310667
      3812.91       1.1867768     0.025155908
      3816.73       1.1794016     0.025000999
      3820.54       1.1738498     0.024898617
      3824.36       1.1686444     0.024806219
      3828.19       1.1634309     0.024713680
      3832.02       1.1612487     0.024665045
      3835.85       1.1630717     0.024674445
      3839.68       1.1648977     0.024683859
      3843.52       1.1665996     0.024691620
      3847.37       1.1644142     0.024648037
      3851.22       1.1622266     0.024604410
      3855.07       1.1600380     0.024560763
      3858.92       1.1641440     0.024709445
      3862.78       1.1717505     0.024965085
      3866.64       1.1793608     0.025220854
      3870.51       1.1857823     0.025406706
      3874.38       1.1889029     0.025398979
      3878.26       1.1920248     0.025391248
      3882.13       1.1951515     0.025383506
      3886.02       1.2014323     0.025491128
      3889.90       1.2080760     0.025611905
      3893.79       1.2147259     0.025732796
      3897.69       1.2209988     0.025861434
      3901.59       1.2269635     0.025996712
      3905.49       1.2329341     0.026132126
      3909.39       1.2380620     0.026246902
      3913.30       1.2397949     0.026278544
      3917.22       1.2415295     0.026310218
      3921.13       1.2432658     0.026341923
      3925.06       1.2424902     0.026340214
      3928.98       1.2413159     0.026333203
      3932.91       1.2401398     0.026326181
      3936.84       1.2384421     0.026291440
      3940.78       1.2363008     0.026233096
      3944.72       1.2341560     0.026174657
      3948.67       1.2313625     0.026130795
      3952.61       1.2263492     0.026137093
      3956.57       1.2213282     0.026143401
      3960.52       1.2163023     0.026149715
      3964.48       1.2150621     0.026025443
      3968.45       1.2141402     0.025890056
      3972.42       1.2132179     0.025754602
      3976.39       1.2100791     0.025632587
      3980.37       1.2056345     0.025518469
      3984.35       1.2011880     0.025404303
      3988.33       1.1920537     0.025216487
      3992.32       1.1740528     0.024889446
      3996.31       1.1560332     0.024562064
      4000.31       1.1387571     0.024248199
      4004.31       1.1311204     0.024109554
      4008.31       1.1234717     0.023970689
      4012.32       1.1158154     0.023831688
      4016.33       1.1125139     0.023827276
      4020.35       1.1102278     0.023854384
      4024.37       1.1079395     0.023881519
      4028.40       1.1069206     0.023848282
      4032.42       1.1069065     0.023767173
      4036.46       1.1068923     0.023685980
      4040.50       1.1054135     0.023643569
      4044.54       1.1007778     0.023684850
      4048.58       1.0961402     0.023726149
      4052.63       1.0923851     0.023760217
      4056.68       1.0983470     0.023714623
      4060.74       1.1043117     0.023669007
      4064.80       1.1102858     0.023623320
      4068.86       1.1099885     0.023601328
      4072.93       1.1086777     0.023583148
      4077.01       1.1073655     0.023564950
      4081.08       1.1051514     0.023627817
      4085.17       1.1024460     0.023734669
      4089.25       1.0997379     0.023841630
      4093.34       1.1022079     0.023927540
      4097.43       1.1111024     0.023987416
      4101.53       1.1200059     0.024047354
      4105.63       1.1249122     0.024042679
      4109.74       1.1181173     0.023849043
      4113.85       1.1113199     0.023655339
      4117.96       1.1051688     0.023478697
      4122.08       1.1076137     0.023529289
      4126.20       1.1100598     0.023579905
      4130.33       1.1125096     0.023630599
      4134.46       1.1134802     0.023696910
      4138.59       1.1142813     0.023765029
      4142.73       1.1150837     0.023833261
      4146.88       1.1122768     0.023793255
      4151.02       1.1081539     0.023713809
      4155.18       1.1040267     0.023634278
      4159.33       1.0978203     0.023501929
      4163.49       1.0900969     0.023331076
      4167.65       1.0823664     0.023160062
      4171.82       1.0785896     0.023059343
      4175.99       1.0799398     0.023049739
      4180.17       1.0812912     0.023040125
      4184.35       1.0781488     0.022955615
      4188.54       1.0644947     0.022695956
      4192.72       1.0508342     0.022436176
      4196.92       1.0376396     0.022196519
      4201.11       1.0267211     0.022053185
      4205.31       1.0157976     0.021909784
      4209.52       1.0053672     0.021769469
      4213.73       1.0031244     0.021682133
      4217.94       1.0008808     0.021594765
      4222.16      0.99863353     0.021507256
      4226.38      0.98896449     0.021361199
      4230.61      0.97890752     0.021212020
      4234.84      0.96884009     0.021062686
      4239.08      0.96424920     0.021163338
      4243.32      0.96058606     0.021306780
      4247.56      0.95691911     0.021450370
      4251.81      0.95814334     0.021307656
      4256.06      0.96086201     0.021077361
      4260.32      0.96358317     0.020846855
      4264.58      0.95797281     0.020744887
      4268.84      0.94857845     0.020701162
      4273.11      0.93918086     0.020657421
      4277.38      0.93695149     0.020575889
      4281.66      0.93917942     0.020470854
      4285.94      0.94140837     0.020365772
      4290.23      0.93994575     0.020270462
      4294.52      0.93554797     0.020182936
      4298.81      0.93114818     0.020095371
      4303.11      0.92864036     0.020062678
      4307.42      0.92799104     0.020083860
      4311.72      0.92734098     0.020105067
      4316.04      0.92335145     0.020033511
      4320.35      0.91548343     0.019854197
      4324.67      0.90760294     0.019674599
      4329.00      0.89811094     0.019535755
      4333.33      0.88647663     0.019451333
      4337.66      0.87482525     0.019366788
      4342.00      0.86709498     0.019239778
      4346.34      0.86515895     0.019050120
      4350.69      0.86322095     0.018860271
      4355.04      0.86289533     0.018773601
      4359.39      0.86510853     0.018849340
      4363.75      0.86732397     0.018925155
      4368.12      0.87012349     0.019004282
      4372.48      0.87387010     0.019088826
      4376.86      0.87762090     0.019173463
      4381.23      0.88041407     0.019227335
      4385.61      0.88166287     0.019231566
      4390.00      0.88291293     0.019235801
      4394.39      0.88673997     0.019289132
      4398.79      0.89452446     0.019417875
      4403.18      0.90231327     0.019546691
      4407.59      0.90703753     0.019646398
      4412.00      0.90738972     0.019704526
      4416.41      0.90774203     0.019762674
      4420.82      0.91231042     0.019882594
      4425.25      0.92220507     0.020080487
      4429.67      0.93211066     0.020278599
      4434.10      0.94023624     0.020416598
      4438.54      0.94641505     0.020488955
      4442.97      0.95260406     0.020561431
      4447.42      0.95370175     0.020561073
      4451.86      0.95015600     0.020494296
      4456.32      0.94660480     0.020427416
      4460.77      0.94579107     0.020414429
      4465.24      0.94698952     0.020441056
      4469.70      0.94818862     0.020467698
      4474.17      0.95412435     0.020589012
      4478.65      0.96274533     0.020763996
      4483.12      0.97137479     0.020939153
      4487.61      0.97558913     0.021058443
      4492.09      0.97800199     0.021155034
      4496.59      0.98041695     0.021251709
      4501.08      0.98736846     0.021359678
      4505.58      0.99554381     0.021470817
      4510.09       1.0037271     0.021582065
      4514.60       1.0032511     0.021573585
      4519.12       1.0015581     0.021548277
      4523.63      0.99986414     0.021522955
      4528.16      0.99634988     0.021495500
      4532.69      0.99277780     0.021467954
      4537.22      0.98975093     0.021444886
      4541.76      0.99339137     0.021476585
      4546.30      0.99703572     0.021508318
      4550.85      0.99938536     0.021526073
      4555.40      0.99610039     0.021483020
      4559.95      0.99281401     0.021439948
      4564.51      0.98813418     0.021419447
      4569.08      0.98033687     0.021449697
      4573.65      0.97253621     0.021479960
      4578.22      0.96604075     0.021365621
      4582.80      0.96124265     0.021063953
      4587.38      0.95644199     0.020762125
      4591.97      0.95481338     0.020676363
      4596.56      0.95554580     0.020751429
      4601.16      0.95627885     0.020826559
      4605.76      0.95169991     0.020746757
      4610.37      0.94503475     0.020606108
      4614.98      0.93835899     0.020465235
      4619.59      0.94280532     0.020519208
      4624.21      0.94891298     0.020602276
      4628.84      0.95459761     0.020677970
      4633.47      0.94649648     0.020514450
      4638.10      0.93838766     0.020350774
      4642.74      0.93108518     0.020204664
      4647.38      0.92701682     0.020128955
      4652.03      0.92294160     0.020053119
      4656.68      0.91537501     0.019926962
      4661.34      0.90204629     0.019717776
      4666.00      0.88869801     0.019508282
      4670.67      0.88119625     0.019383699
      4675.33      0.87827036     0.019325578
      4680.01      0.87533987     0.019267366
      4684.69      0.86700819     0.019066830
      4689.38      0.85689937     0.018819480
      4694.07      0.84678001     0.018571871
