# starting wavelength =        2550.9077
# ending wavelength =        6999.7497
# O2 telluric scale =        0
# O2 telluric shift =        0
# H2O telluric scale =        0
# H2O telluric shift =        0
      2551.23      0.63963370     0.089465176
      2553.78      0.64684437     0.086156016
      2556.34      0.69442452     0.083572785
      2558.89      0.71809142     0.081057623
      2561.45      0.74446141     0.078230593
      2564.01      0.75198390     0.076051502
      2566.58      0.75100847     0.073542107
      2569.14      0.77349308     0.071513313
      2571.71      0.77523006     0.069244157
      2574.28      0.77457869     0.067462622
      2576.86      0.77613813     0.065672899
      2579.44      0.77439503     0.063570543
      2582.01      0.76279640     0.061897189
      2584.60      0.74669529     0.059930174
      2587.18      0.73720269     0.058348373
      2589.77      0.71814482     0.056548474
      2592.36      0.69526441     0.055128259
      2594.95      0.66485666     0.053709347
      2597.55      0.63607293     0.052020669
      2600.14      0.60151855     0.050671528
      2602.74      0.59524896     0.049059887
      2605.35      0.58115175     0.047766863
      2607.95      0.56460253     0.046274777
      2610.56      0.54114953     0.045097995
      2613.17      0.52734016     0.043702312
      2615.79      0.50961126     0.042609962
      2618.40      0.49235802     0.041304718
      2621.02      0.47370285     0.040266006
      2623.64      0.44888823     0.039274966
      2626.26      0.43173610     0.038102855
      2628.89      0.41823605     0.037169609
      2631.52      0.41028178     0.036090248
      2634.15      0.39918247     0.035287619
      2636.79      0.38190726     0.034350194
      2639.42      0.36589067     0.033575782
      2642.06      0.35424841     0.032640979
      2644.70      0.34389646     0.031914112
      2647.35      0.33236525     0.031086944
      2650.00      0.31826293     0.030470255
      2652.65      0.31296117     0.029750322
      2655.30      0.30818488     0.029245912
      2657.96      0.29972924     0.028624662
      2660.61      0.30053437     0.028148979
      2663.27      0.29332671     0.027559883
      2665.94      0.28379539     0.027118394
      2668.60      0.29016382     0.026557471
      2671.27      0.29672032     0.026141486
      2673.94      0.29735639     0.025615388
      2676.62      0.30277678     0.025213490
      2679.29      0.31442115     0.024679842
      2681.97      0.32662431     0.024295461
      2684.66      0.35427234     0.023758981
      2687.34      0.37664059     0.023341096
      2690.03      0.39400738     0.022842383
      2692.72      0.42388472     0.022458928
      2695.41      0.45101404     0.021971281
      2698.11      0.47612244     0.021601895
      2700.81      0.49956750     0.021158191
      2703.51      0.52271431     0.020867908
      2706.21      0.55268822     0.020472011
      2708.92      0.57694293     0.020083187
      2711.62      0.59715033     0.019798907
      2714.34      0.61666305     0.019445180
      2717.05      0.64139348     0.019189966
      2719.77      0.66880706     0.018881011
      2722.49      0.70035177     0.018640376
      2725.21      0.72080951     0.018339653
      2727.94      0.74547528     0.018150123
      2730.66      0.76860258     0.017872379
      2733.39      0.79047107     0.017660429
      2736.13      0.81275171     0.017406055
      2738.86      0.83075767     0.017132191
      2741.60      0.84629532     0.016951746
      2744.34      0.86258534     0.016720211
      2747.09      0.88644033     0.016557303
      2749.84      0.89752544     0.016380735
      2752.59      0.92088513     0.016250201
      2755.34      0.94132779     0.016044608
      2758.09      0.96958482     0.015834341
      2760.85      0.98939145     0.015686995
      2763.61       1.0072500     0.015507241
      2766.38       1.0234873     0.015355622
      2769.14       1.0455278     0.015135322
      2771.91       1.0666098     0.014989615
      2774.69       1.0825154     0.014807095
      2777.46       1.0838094     0.014619738
      2780.24       1.0948538     0.014503720
      2783.02       1.0923497     0.014301438
      2785.80       1.0969154     0.014179650
      2788.59       1.0985010     0.013987290
      2791.38       1.0947252     0.013810061
      2794.17       1.0957168     0.013707931
      2796.96       1.0845825     0.013618691
      2799.76       1.0752226     0.013525187
      2802.56       1.0643414     0.013488763
      2805.36       1.0525499     0.013416433
      2808.17       1.0404470     0.013441095
      2810.98       1.0292716     0.013383789
      2813.79       1.0112884     0.013326225
      2816.60       1.0034513     0.013307297
      2819.42       1.0043891     0.013274826
      2822.24       1.0093768     0.013190937
      2825.06       1.0072260     0.013139256
      2827.88       1.0129996     0.013042547
      2830.71       1.0090253     0.012893176
      2833.54       1.0193194     0.012789038
      2836.38       1.0409992     0.012640737
      2839.21       1.0557171     0.012475913
      2842.05       1.0617553     0.012383581
      2844.90       1.0623439     0.012271933
      2847.74       1.0792124     0.012188085
      2850.59       1.0926914     0.012044272
      2853.44       1.1123593     0.011959906
      2856.29       1.1243294     0.011861392
      2859.15       1.1340402     0.011812238
      2862.01       1.1410618     0.011755669
      2864.87       1.1490449     0.011669536
      2867.74       1.1567670     0.011640876
      2870.60       1.1691365     0.011608616
      2873.47       1.1844393     0.011535709
      2876.35       1.2033507     0.011545353
      2879.22       1.2190111     0.011458704
      2882.10       1.2395377     0.011362877
      2884.99       1.2561870     0.011342938
      2887.87       1.2706952     0.011227074
      2890.76       1.2867351     0.011135448
      2893.65       1.3115229     0.011004811
      2896.54       1.3333204     0.010923702
      2899.44       1.3487641     0.010828017
      2902.34       1.3595387     0.010699156
      2905.24       1.3720331     0.010649030
      2908.15       1.3904985     0.010505872
      2911.06       1.3998318     0.010423151
      2913.97       1.4056006     0.010292610
      2916.88       1.4139129     0.010195148
      2919.80       1.4173179     0.010091421
      2922.72       1.4207832    0.0099794075
      2925.64       1.4294629    0.0098832135
      2928.57       1.4406006    0.0098015483
      2931.50       1.4520665    0.0097346577
      2934.43       1.4561093    0.0096315320
      2937.36       1.4554193    0.0095749655
      2940.30       1.4620516    0.0094997725
      2943.24       1.4624091    0.0094480638
      2946.18       1.4724692    0.0093456200
      2949.13       1.4754309    0.0092375717
      2952.08       1.4793230    0.0090964554
      2955.03       1.4816736    0.0090100564
      2957.99       1.4775626    0.0089298382
      2960.94       1.4646409    0.0088567435
      2963.90       1.4530011    0.0087972954
      2966.87       1.4310683    0.0087165439
      2969.84       1.4178957    0.0086850197
      2972.81       1.4011924    0.0086096767
      2975.78       1.3744343    0.0085208134
      2978.76       1.3527283    0.0084256495
      2981.73       1.3326626    0.0082796254
      2984.72       1.3077711    0.0081811370
      2987.70       1.2819482    0.0080829127
      2990.69       1.2534315    0.0079947771
      2993.68       1.2339659    0.0079072292
      2996.67       1.2196125    0.0078405423
      2999.67       1.2032980    0.0077822900
      3002.67       1.1986353    0.0077225720
      3005.67       1.1876709    0.0076581236
      3008.68       1.1772849    0.0075615594
      3011.69       1.1760391    0.0075301446
      3014.70       1.1679744    0.0074854910
      3017.71       1.1628215    0.0073949222
      3020.73       1.1652106    0.0073361677
      3023.75       1.1674396    0.0072900235
      3026.78       1.1732916    0.0072554887
      3029.80       1.1724094    0.0072120724
      3032.83       1.1821002    0.0071745635
      3035.87       1.1952720    0.0071392554
      3038.90       1.2080644    0.0070733237
      3041.94       1.2124534    0.0070610378
      3044.98       1.2236264    0.0070084660
      3048.03       1.2372503    0.0069455921
      3051.08       1.2535618    0.0068442950
      3054.13       1.2681122    0.0067673007
      3057.18       1.2792263    0.0067119581
      3060.24       1.2904467    0.0066045248
      3063.30       1.2983386    0.0065185610
      3066.36       1.2997017    0.0064406729
      3069.43       1.3078724    0.0063607305
      3072.50       1.3104739    0.0063119363
      3075.57       1.3059902    0.0062352424
      3078.65       1.3079195    0.0061860122
      3081.73       1.3073399    0.0061558021
      3084.81       1.3083862    0.0060810745
      3087.89       1.3105152    0.0060482184
      3090.98       1.3110868    0.0060480217
      3094.07       1.3156457    0.0060018505
      3097.17       1.3170154    0.0059796897
      3100.26       1.3138727    0.0059348176
      3103.36       1.3133390    0.0059232278
      3106.47       1.3141576    0.0058746914
      3109.58       1.3166365    0.0057891181
      3112.68       1.3183576    0.0057440075
      3115.80       1.3153768    0.0056543979
      3118.91       1.3200187    0.0055923040
      3122.03       1.3261467    0.0055478355
      3125.15       1.3374141    0.0054682569
      3128.28       1.3437533    0.0054290142
      3131.41       1.3465666    0.0053925373
      3134.54       1.3513886    0.0053654326
      3137.67       1.3585694    0.0053113692
      3140.81       1.3635932    0.0052973999
      3143.95       1.3677231    0.0052369457
      3147.10       1.3720455    0.0053189334
      3150.24       1.3719106    0.0052094288
      3153.39       1.3797173    0.0051664811
      3156.55       1.3822681    0.0051622397
      3159.70       1.3848312    0.0051861265
      3162.86       1.3898187    0.0052039322
      3166.03       1.3940342    0.0052666312
      3169.19       1.3998715    0.0052820065
      3172.36       1.4068813    0.0053372538
      3175.54       1.4149999    0.0053300233
      3178.71       1.4299308    0.0053527894
      3181.89       1.4414760    0.0053073223
      3185.07       1.4564500    0.0052664761
      3188.26       1.4581120    0.0052118639
      3191.45       1.4630805    0.0051515221
      3194.64       1.4642290    0.0050865254
      3197.83       1.4590852    0.0050364373
      3201.03       1.4539128    0.0049944974
      3204.23       1.4523709    0.0049736115
      3207.44       1.4431509    0.0050098188
      3210.64       1.4375211    0.0049262642
      3213.85       1.4296429    0.0048909790
      3217.07       1.4195524    0.0048746484
      3220.28       1.4127677    0.0048557667
      3223.51       1.4019425    0.0048341246
      3226.73       1.3945754    0.0047952642
      3229.96       1.3864101    0.0047889419
      3233.19       1.3861815    0.0047469158
      3236.42       1.3826484    0.0047382177
      3239.66       1.3822576    0.0046937879
      3242.90       1.3813903    0.0046663124
      3246.14       1.3782118    0.0046550603
      3249.39       1.3759858    0.0046023965
      3252.64       1.3734069    0.0045648038
      3255.89       1.3696523    0.0045368276
      3259.14       1.3681212    0.0045093120
      3262.40       1.3686673    0.0044888761
      3265.67       1.3698692    0.0044658056
      3268.93       1.3673635    0.0044358739
      3272.20       1.3680089    0.0044427549
      3275.47       1.3688940    0.0044143510
      3278.75       1.3680852    0.0044029722
      3282.03       1.3691082    0.0043878024
      3285.31       1.3724982    0.0043733141
      3288.60       1.3772917    0.0043580303
      3291.88       1.3825114    0.0043303037
      3295.18       1.3912868    0.0043366221
      3298.47       1.3953478    0.0043277645
      3301.77       1.3990543    0.0043041656
      3305.07       1.4011146    0.0042941653
      3308.38       1.4038123    0.0042994428
      3311.69       1.4105267    0.0042699637
      3315.00       1.4134983    0.0042481912
      3318.31       1.4199866    0.0042081805
      3321.63       1.4245894    0.0041931154
      3324.95       1.4266147    0.0041588109
      3328.28       1.4260212    0.0041121775
      3331.61       1.4307059    0.0040810624
      3334.94       1.4345989    0.0040713640
      3338.27       1.4393030    0.0040324510
      3341.61       1.4481988    0.0040146417
      3344.95       1.4516585    0.0039972984
      3348.30       1.4560251    0.0039652395
      3351.65       1.4579234    0.0039643134
      3355.00       1.4623655    0.0039483289
      3358.35       1.4630634    0.0039363393
      3361.71       1.4601496    0.0039112678
      3365.07       1.4564510    0.0039025746
      3368.44       1.4550991    0.0038909036
      3371.81       1.4537472    0.0038798849
      3375.18       1.4505510    0.0038716958
      3378.56       1.4463704    0.0038630835
      3381.94       1.4410655    0.0038535583
      3385.32       1.4310795    0.0038391621
      3388.70       1.4229092    0.0038116894
      3392.09       1.4193669    0.0037955238
      3395.48       1.4189730    0.0037792299
      3398.88       1.4180102    0.0037591797
      3402.28       1.4184120    0.0037388026
      3405.68       1.4189398    0.0037206313
      3409.09       1.4196638    0.0037051521
      3412.49       1.4207424    0.0036921451
      3415.91       1.4225769    0.0036813860
      3419.32       1.4241459    0.0036604551
      3422.74       1.4220213    0.0036573540
      3426.17       1.4248874    0.0036517442
      3429.59       1.4268596    0.0036521773
      3433.02       1.4288270    0.0036462822
      3436.45       1.4275880    0.0036385385
      3439.89       1.4308417    0.0036197261
      3443.33       1.4324483    0.0036183446
      3446.78       1.4313944    0.0036170627
      3450.22       1.4318096    0.0036123727
      3453.67       1.4387448    0.0036108241
      3457.13       1.4450186    0.0036116327
      3460.58       1.4486628    0.0036125363
      3464.04       1.4535307    0.0036116519
      3467.51       1.4575349    0.0036085042
      3470.98       1.4609388    0.0035903228
      3474.45       1.4662455    0.0035830092
      3477.92       1.4659306    0.0035776894
      3481.40       1.4708517    0.0035729923
      3484.88       1.4745977    0.0035720003
      3488.37       1.4760171    0.0035753030
      3491.86       1.4807530    0.0035808933
      3495.35       1.4823900    0.0035810221
      3498.84       1.4840348    0.0035894093
      3502.34       1.4835040    0.0035943700
      3505.84       1.4869469    0.0035980293
      3509.35       1.4893568    0.0036009666
      3512.86       1.4925386    0.0035996339
      3516.37       1.4961845    0.0036407426
      3519.89       1.4999338    0.0035880771
      3523.41       1.5043636    0.0035683970
      3526.93       1.5087494    0.0035532863
      3530.46       1.5143318    0.0035639525
      3533.99       1.5183974    0.0035791952
      3537.53       1.5229420    0.0035940005
      3541.06       1.5272129    0.0036059043
      3544.60       1.5340919    0.0036119132
      3548.15       1.5429933    0.0035974014
      3551.70       1.5500291    0.0036263655
      3555.25       1.5537114    0.0035914607
      3558.80       1.5570005    0.0035439472
      3562.36       1.5636950    0.0035185491
      3565.92       1.5644819    0.0034940737
      3569.49       1.5655559    0.0034992177
      3573.06       1.5660647    0.0035006548
      3576.64       1.5671834    0.0035137272
      3580.21       1.5656914    0.0035331909
      3583.79       1.5630692    0.0035943402
      3587.38       1.5625426    0.0035303015
      3590.96       1.5625036    0.0035239757
      3594.55       1.5591686    0.0034948518
      3598.15       1.5539316    0.0034868784
      3601.75       1.5454952    0.0034585507
      3605.35       1.5370337    0.0034153877
      3608.96       1.5303523    0.0033841883
      3612.56       1.5244610    0.0033588927
      3616.18       1.5190893    0.0033347201
      3619.79       1.5113510    0.0033593789
      3623.41       1.5015495    0.0033427309
      3627.04       1.4936672    0.0032977740
      3630.66       1.4884847    0.0032864199
      3634.29       1.4770462    0.0032781378
      3637.93       1.4721197    0.0032683296
      3641.57       1.4673789    0.0032606474
      3645.21       1.4657381    0.0033168204
      3648.86       1.4654762    0.0032459142
      3652.50       1.4657431    0.0032395479
      3656.16       1.4683875    0.0032318670
      3659.81       1.4667659    0.0032466396
      3663.47       1.4639191    0.0032660286
      3667.14       1.4588992    0.0032897517
      3670.80       1.4524701    0.0033077479
      3674.48       1.4464455    0.0033071230
      3678.15       1.4409239    0.0033246659
      3681.83       1.4369376    0.0033401423
      3685.51       1.4330793    0.0033134776
      3689.20       1.4261748    0.0032616007
      3692.88       1.4195079    0.0032513794
      3696.58       1.4151631    0.0032306627
      3700.27       1.4130836    0.0032277586
      3703.98       1.4109817    0.0032324502
      3707.68       1.4123953    0.0032438812
      3711.39       1.4139324    0.0032700745
      3715.10       1.4182562    0.0033144430
      3718.81       1.4214840    0.0032634827
      3722.53       1.4265367    0.0032668432
      3726.26       1.4326397    0.0032402661
      3729.98       1.4332140    0.0032293002
      3733.71       1.4372969    0.0031936646
      3737.45       1.4391256    0.0031571320
      3741.18       1.4380919    0.0031882866
      3744.93       1.4354418    0.0031235991
      3748.67       1.4307848    0.0031236088
      3752.42       1.4268204    0.0031355990
      3756.17       1.4198198    0.0031510478
      3759.93       1.4119658    0.0031471482
      3763.69       1.4049988    0.0031636899
      3767.45       1.3947856    0.0031765548
      3771.22       1.3858757    0.0031835159
      3774.99       1.3766906    0.0031728567
      3778.77       1.3670910    0.0031760078
      3782.54       1.3593369    0.0031508324
      3786.33       1.3555379    0.0031305591
      3790.11       1.3519469    0.0031088086
      3793.90       1.3506627    0.0030847145
      3797.70       1.3468787    0.0030528422
      3801.50       1.3445994    0.0030370684
      3805.30       1.3427552    0.0030300404
      3809.10       1.3423981    0.0030418659
      3812.91       1.3430297    0.0031026441
      3816.73       1.3438071    0.0030415852
      3820.54       1.3437838    0.0030431047
      3824.36       1.3435243    0.0030435847
      3828.19       1.3411300    0.0030636156
      3832.02       1.3422369    0.0030786658
      3835.85       1.3447260    0.0031107723
      3839.68       1.3430484    0.0031350011
      3843.52       1.3472843    0.0031418800
      3847.37       1.3533316    0.0031503671
      3851.22       1.3587046    0.0031481464
      3855.07       1.3656192    0.0031377832
      3858.92       1.3736361    0.0031227230
      3862.78       1.3793368    0.0031051613
      3866.64       1.3878579    0.0030758958
      3870.51       1.3936841    0.0030552230
      3874.38       1.3990978    0.0030396363
      3878.26       1.4045216    0.0030210224
      3882.13       1.4133851    0.0030242858
      3886.02       1.4200056    0.0030581425
      3889.90       1.4273334    0.0030407815
      3893.79       1.4345403    0.0030194331
      3897.69       1.4357526    0.0030568054
      3901.59       1.4401666    0.0030221150
      3905.49       1.4470775    0.0030128107
      3909.39       1.4494272    0.0030200718
      3913.30       1.4510899    0.0030258192
      3917.22       1.4543129    0.0030434569
      3921.13       1.4553372    0.0030603127
      3925.06       1.4536477    0.0030758419
      3928.98       1.4523574    0.0031421405
      3932.91       1.4495815    0.0030919634
      3936.84       1.4490675    0.0030776359
      3940.78       1.4503536    0.0030735453
      3944.72       1.4494284    0.0030739721
      3948.67       1.4462327    0.0030754846
      3952.61       1.4412869    0.0030759681
      3956.57       1.4378689    0.0030738488
      3960.52       1.4325701    0.0030623553
      3964.48       1.4291891    0.0030602595
      3968.45       1.4239518    0.0030550763
      3972.42       1.4166446    0.0030834987
      3976.39       1.4107780    0.0030211309
      3980.37       1.4053938    0.0030115289
      3984.35       1.3968222    0.0030072546
      3988.33       1.3889446    0.0029620787
      3992.32       1.3797907    0.0029403555
      3996.31       1.3728937    0.0029701359
      4000.31       1.3668247    0.0029527840
      4004.31       1.3605158    0.0029858990
      4008.31       1.3581585    0.0029812989
      4012.32       1.3549091    0.0030121551
      4016.33       1.3534319    0.0030439875
      4020.35       1.3502219    0.0030716455
      4024.37       1.3464100    0.0031129738
      4028.40       1.3441235    0.0031241411
      4032.42       1.3414127    0.0031182847
      4036.46       1.3415860    0.0030798787
      4040.50       1.3437022    0.0030792225
      4044.54       1.3443972    0.0030850193
      4048.58       1.3473704    0.0030944982
      4052.63       1.3478259    0.0031116910
      4056.68       1.3500400    0.0031650724
      4060.74       1.3535875    0.0031725926
      4064.80       1.3584070    0.0031264690
      4068.86       1.3613171    0.0031384294
      4072.93       1.3661320    0.0031665118
      4077.01       1.3692097    0.0031387006
      4081.08       1.3714755    0.0031271971
      4085.17       1.3753848    0.0031069689
      4089.25       1.3752800    0.0030822007
      4093.34       1.3767010    0.0030527120
      4097.43       1.3767644    0.0030880123
      4101.53       1.3773273    0.0031194116
      4105.63       1.3788924    0.0031045819
      4109.74       1.3789441    0.0030590001
      4113.85       1.3773868    0.0030319149
      4117.96       1.3735112    0.0030590430
      4122.08       1.3695995    0.0031211522
      4126.20       1.3660812    0.0031799427
      4130.33       1.3610043    0.0032563894
      4134.46       1.3575382    0.0033645738
      4138.59       1.3517533    0.0033321697
      4142.73       1.3453083    0.0033307752
      4146.88       1.3358871    0.0032836363
      4151.02       1.3283137    0.0032339806
      4155.18       1.3190896    0.0031695120
      4159.33       1.3103829    0.0030962514
      4163.49       1.3032519    0.0030449989
      4167.65       1.2946885    0.0029986440
      4171.82       1.2861408    0.0029943850
      4175.99       1.2809748    0.0030051895
      4180.17       1.2757509    0.0029790826
      4184.35       1.2713596    0.0030180750
      4188.54       1.2667448    0.0029835270
      4192.72       1.2593633    0.0029791544
      4196.92       1.2530624    0.0029780851
      4201.11       1.2477010    0.0029875026
      4205.31       1.2416836    0.0029932297
      4209.52       1.2384009    0.0029937258
      4213.73       1.2331667    0.0030051326
      4217.94       1.2277122    0.0030133327
      4222.16       1.2244548    0.0030190466
      4226.38       1.2181693    0.0030195194
      4230.61       1.2144921    0.0030287987
      4234.84       1.2099528    0.0030422332
      4239.08       1.2057461    0.0030368200
      4243.32       1.1998343    0.0030405411
      4247.56       1.1921336    0.0030340425
      4251.81       1.1847528    0.0030710057
      4256.06       1.1806891    0.0030493348
      4260.32       1.1742888    0.0030348074
      4264.58       1.1677845    0.0030376470
      4268.84       1.1601809    0.0030431565
      4273.11       1.1472316    0.0030631089
      4277.38       1.1373560    0.0030847570
      4281.66       1.1271454    0.0031443662
      4285.94       1.1196484    0.0031293117
      4290.23       1.1093053    0.0031276884
      4294.52       1.1014666    0.0031429525
      4298.81       1.0955181    0.0031966469
      4303.11       1.0922480    0.0031766194
      4307.42       1.0869441    0.0031879518
      4311.72       1.0868633    0.0032382908
      4316.04       1.0844312    0.0032449276
      4320.35       1.0843591    0.0032537251
      4324.67       1.0858157    0.0032961374
      4329.00       1.0883642    0.0033474569
      4333.33       1.0931260    0.0034164967
      4337.66       1.0999790    0.0034299177
      4342.00       1.1038055    0.0034256423
      4346.34       1.1090343    0.0034316926
      4350.69       1.1084452    0.0034264073
      4355.04       1.1095951    0.0034157811
      4359.39       1.1131572    0.0034085390
      4363.75       1.1136980    0.0034223680
      4368.12       1.1191066    0.0033793343
      4372.48       1.1200591    0.0033648585
      4376.86       1.1267376    0.0033764206
      4381.23       1.1314160    0.0034249042
      4385.61       1.1359420    0.0034113718
      4390.00       1.1381892    0.0034865962
      4394.39       1.1424402    0.0035389304
      4398.79       1.1447935    0.0035244992
      4403.18       1.1498040    0.0036049470
      4407.59       1.1557025    0.0037331674
      4412.00       1.1578025    0.0038585994
      4416.41       1.1608016    0.0039741612
      4420.82       1.1636480    0.0040987851
      4425.25       1.1637841    0.0042568489
      4429.67       1.1670141    0.0044712072
      4434.10       1.1653115    0.0047350945
      4438.54       1.1704864    0.0050090706
      4442.97       1.1701213    0.0053718552
      4447.42       1.1715999    0.0057076915
      4451.86       1.1796314    0.0060825100
      4456.32       1.1839228    0.0063814983
      4460.77       1.1980674    0.0066961224
      4465.24       1.2013112    0.0069383480
      4469.70       1.2034843    0.0070508573
      4474.17       1.2057101    0.0070617958
      4478.65       1.2065852    0.0067962252
      4483.12       1.2090935    0.0066286820
      4487.61       1.2126356    0.0064143328
      4492.09       1.2116552    0.0063049650
      4496.59       1.2125023    0.0061454536
      4501.08       1.2129102    0.0059419691
      4505.58       1.2195504    0.0057663768
      4510.09       1.2235777    0.0055879254
      4514.60       1.2250758    0.0053726625
      4519.12       1.2240904    0.0051923356
      4523.63       1.2218648    0.0049990036
      4528.16       1.2223346    0.0048463915
      4532.69       1.2250577    0.0046906763
      4537.22       1.2270497    0.0045760970
      4541.76       1.2241850    0.0044949174
      4546.30       1.2240732    0.0044206429
      4550.85       1.2213445    0.0044036826
      4555.40       1.2180512    0.0043223957
      4559.95       1.2180320    0.0042534167
      4564.51       1.2174862    0.0041933069
      4569.08       1.2167657    0.0041647978
      4573.65       1.2164124    0.0041109530
      4578.22       1.2152272    0.0040768990
      4582.80       1.2159786    0.0040399125
      4587.38       1.2170114    0.0040088959
      4591.97       1.2217655    0.0040552671
      4596.56       1.2208427    0.0039677126
      4601.16       1.2196650    0.0039272706
      4605.76       1.2182797    0.0039093799
      4610.37       1.2203313    0.0038971566
      4614.98       1.2215730    0.0039206845
      4619.59       1.2220170    0.0039194132
      4624.21       1.2220408    0.0039222970
      4628.84       1.2189417    0.0039175083
      4633.47       1.2165510    0.0039390327
      4638.10       1.2137964    0.0039691480
      4642.74       1.2094224    0.0039412519
      4647.38       1.2036075    0.0038496584
      4652.03       1.1966719    0.0038304492
      4656.68       1.1904913    0.0038479188
      4661.34       1.1848277    0.0038674679
      4666.00       1.1781350    0.0039068877
      4670.67       1.1688951    0.0039597601
      4675.33       1.1629152    0.0040070645
      4680.01       1.1547008    0.0040802791
      4684.69       1.1432494    0.0040558311
      4689.38       1.1328916    0.0040114641
      4694.07       1.1207781    0.0039484494
      4698.76       1.1116190    0.0038989948
      4703.46       1.0995618    0.0038211769
      4708.16       1.0899617    0.0037473653
      4712.87       1.0794867    0.0036826432
      4717.58       1.0698223    0.0036359988
      4722.30       1.0586958    0.0036577967
      4727.03       1.0492324    0.0036838255
      4731.75       1.0398831    0.0036493794
      4736.48       1.0328348    0.0035968580
      4741.22       1.0256501    0.0035864149
      4745.96       1.0232960    0.0035696024
      4750.71       1.0187412    0.0035724140
      4755.46       1.0140464    0.0035555847
      4760.22       1.0094936    0.0035525316
      4764.97       1.0093115    0.0035432463
      4769.74       1.0079959    0.0035396840
      4774.51       1.0085655    0.0035358521
      4779.29       1.0061285    0.0035171658
      4784.07       1.0037526    0.0035190343
      4788.85       1.0030238    0.0035115698
      4793.64       1.0022495    0.0034939163
      4798.43       1.0003807    0.0034849814
      4803.23      0.99756654    0.0034735695
      4808.03      0.99452609    0.0034606097
      4812.84      0.99010470    0.0034478304
      4817.66      0.98467901    0.0034213163
      4822.48      0.98119429    0.0034827771
      4827.30      0.97643551    0.0034155686
      4832.12      0.97087919    0.0033792388
      4836.96      0.96628266    0.0033701208
      4841.79      0.95949428    0.0033697070
      4846.63      0.95449679    0.0033746433
      4851.48      0.94853924    0.0033798323
      4856.33      0.94885785    0.0033854771
      4861.19      0.94684800    0.0034277062
      4866.05      0.94742490    0.0033670687
      4870.92      0.94620535    0.0033540810
      4875.79      0.94665353    0.0033376385
      4880.66      0.94875688    0.0033175054
      4885.55      0.95212005    0.0033409605
      4890.43      0.95579198    0.0033104851
      4895.32      0.96043434    0.0032761932
      4900.22      0.96285914    0.0032527548
      4905.12      0.96665567    0.0032640407
      4910.02      0.96847056    0.0032863901
      4914.94      0.97110428    0.0033213806
      4919.85      0.97324045    0.0032622093
      4924.77      0.97430538    0.0032620978
      4929.70      0.97628865    0.0032443441
      4934.62      0.97451625    0.0032099211
      4939.56      0.97451227    0.0031886941
      4944.50      0.97192423    0.0031594037
      4949.44      0.97217210    0.0031556323
      4954.39      0.97031579    0.0031657125
      4959.35      0.96998424    0.0031438265
      4964.31      0.96691793    0.0031080594
      4969.27      0.96485570    0.0030682646
      4974.24      0.96607200    0.0030748699
      4979.22      0.96803622    0.0031128048
      4984.20      0.96743085    0.0031319654
      4989.18      0.96754379    0.0031238549
      4994.17      0.96665369    0.0031367770
      4999.16      0.96679141    0.0031444529
      5004.16      0.96532033    0.0031344401
      5009.17      0.96637951    0.0031216162
      5014.18      0.96616512    0.0030661219
      5019.19      0.96509392    0.0030224893
      5024.21      0.96562600    0.0029776480
      5029.23      0.96515935    0.0029331025
      5034.26      0.96390601    0.0028928718
      5039.30      0.96268654    0.0028622226
      5044.34      0.96056390    0.0028324836
      5049.39      0.95825874    0.0028203992
      5054.43      0.95708919    0.0028238932
      5059.49      0.95343169    0.0027762860
      5064.55      0.95228654    0.0027415380
      5069.61      0.95297689    0.0027171970
      5074.68      0.95150097    0.0027171867
      5079.76      0.95042311    0.0026952331
      5084.84      0.95182063    0.0026421204
      5089.92      0.95104287    0.0026449576
      5095.01      0.95052060    0.0026417992
      5100.11      0.95015697    0.0026285281
      5105.21      0.95150049    0.0026534521
      5110.31      0.95202728    0.0026736877
      5115.42      0.95402906    0.0027132760
      5120.54      0.95409014    0.0027405563
      5125.66      0.95433905    0.0027562953
      5130.79      0.95463046    0.0027615433
      5135.92      0.95228679    0.0027478256
      5141.05      0.95033935    0.0027311453
      5146.20      0.94835997    0.0026936988
      5151.34      0.94656048    0.0026605873
      5156.49      0.94518901    0.0026191782
      5161.65      0.94323372    0.0025993091
      5166.81      0.94292415    0.0025462514
      5171.98      0.94287415    0.0025606164
      5177.15      0.94510191    0.0025287309
      5182.33      0.94532810    0.0025157993
      5187.51      0.94546005    0.0025493988
      5192.70      0.94659007    0.0025868582
      5197.89      0.94798153    0.0025977510
      5203.09      0.95188068    0.0026225553
      5208.29      0.95328430    0.0026445558
      5213.50      0.95408065    0.0026693765
      5218.72      0.95165232    0.0026459373
      5223.93      0.95090561    0.0026077617
      5229.16      0.94997007    0.0026184839
      5234.39      0.94588853    0.0025472486
      5239.62      0.94277483    0.0024980005
      5244.86      0.94035846    0.0024675410
      5250.11      0.93576799    0.0024562806
      5255.36      0.93301671    0.0024608744
      5260.61      0.92803609    0.0025078854
      5265.87      0.92568052    0.0024999951
      5271.14      0.92359226    0.0025405964
      5276.41      0.92039680    0.0025073044
      5281.69      0.91482695    0.0025033759
      5286.97      0.91260729    0.0024933484
      5292.26      0.90949455    0.0025003594
      5297.55      0.90733688    0.0024919421
      5302.85      0.90477280    0.0024700919
      5308.15      0.89990675    0.0024595901
      5313.46      0.89513480    0.0024520007
      5318.77      0.88991884    0.0024496372
      5324.09      0.88522953    0.0024481941
      5329.42      0.88181620    0.0024771512
      5334.75      0.87738346    0.0024503028
      5340.08      0.87171852    0.0024391078
      5345.42      0.86772159    0.0024334931
      5350.77      0.86482074    0.0024240610
      5356.12      0.86123450    0.0024139157
      5361.48      0.85674098    0.0023967505
      5366.83      0.85471756    0.0023938624
      5372.20      0.85188091    0.0023861948
      5377.58      0.84751149    0.0023869322
      5382.95      0.84327496    0.0023621446
      5388.34      0.84020106    0.0023475763
      5393.72      0.83557637    0.0023437138
      5399.12      0.83240457    0.0023541235
      5404.52      0.82807926    0.0023699425
      5409.92      0.82196817    0.0023859154
      5415.33      0.81629893    0.0023720086
      5420.75      0.81157858    0.0023953730
      5426.17      0.80748609    0.0024109908
      5431.60      0.80485811    0.0024349529
      5437.03      0.80020119    0.0024715626
      5442.47      0.79669492    0.0024999002
      5447.91      0.79209223    0.0025438396
      5453.36      0.79120646    0.0025545992
      5458.81      0.78741485    0.0025701091
      5464.27      0.78555838    0.0025755709
      5469.73      0.78163357    0.0025817997
      5475.20      0.77633943    0.0025528105
      5480.68      0.77157936    0.0025379052
      5486.16      0.76535637    0.0024880449
      5491.65      0.75871689    0.0024550708
      5497.14      0.75317278    0.0024005922
      5502.64      0.74665766    0.0023658916
      5508.14      0.73952118    0.0023455995
      5513.65      0.73296629    0.0023229671
      5519.16      0.72786837    0.0022810647
      5524.68      0.72179385    0.0022891832
      5530.20      0.71768124    0.0022384720
      5535.73      0.71172879    0.0022055643
      5541.27      0.70527753    0.0021892967
      5546.81      0.70183029    0.0021809155
      5552.36      0.69814236    0.0021796321
      5557.91      0.69401852    0.0021660294
      5563.47      0.68888841    0.0021612785
      5569.04      0.68488745    0.0021605766
      5574.60      0.67959293    0.0021572082
      5580.18      0.67586086    0.0021374954
      5585.76      0.67301794    0.0021142010
      5591.35      0.67107779    0.0020994561
      5596.94      0.66983448    0.0020819138
      5602.53      0.66706612    0.0020604776
      5608.14      0.66241759    0.0020410271
      5613.75      0.66028825    0.0020258357
      5619.36      0.65830613    0.0020094415
      5624.98      0.65508176    0.0020059883
      5630.60      0.65166237    0.0020083229
      5636.23      0.64816013    0.0019882552
      5641.87      0.64412865    0.0019789872
      5647.51      0.64318782    0.0019783265
      5653.16      0.64204998    0.0019774209
      5658.82      0.63973869    0.0019702103
      5664.47      0.63560333    0.0019706408
      5670.14      0.63378810    0.0019782589
      5675.81      0.62949013    0.0019857150
      5681.48      0.62605182    0.0019949774
      5687.17      0.62314702    0.0020123457
      5692.85      0.62133948    0.0020304154
      5698.55      0.61876671    0.0020611101
      5704.25      0.61200113    0.0020606652
      5709.95      0.60561635    0.0020461563
      5715.66      0.59864381    0.0020420632
      5721.38      0.59342006    0.0020506033
      5727.10      0.58790472    0.0020798607
      5732.83      0.58318859    0.0020893648
      5738.56      0.57960624    0.0020923207
      5744.30      0.57652348    0.0021109751
      5750.04      0.57503176    0.0021335314
      5755.79      0.57573534    0.0021717495
      5761.55      0.57603682    0.0021916408
      5767.31      0.57706042    0.0022167464
      5773.08      0.57951122    0.0022164469
      5778.85      0.58110446    0.0022311980
      5784.63      0.58037253    0.0022026986
      5790.41      0.58218690    0.0021957581
      5796.21      0.58177425    0.0021809789
      5802.00      0.58226434    0.0021862253
      5807.81      0.58075936    0.0021774632
      5813.61      0.57763502    0.0021561908
      5819.43      0.57693397    0.0021365412
      5825.25      0.57680549    0.0021287512
      5831.07      0.57674312    0.0020977018
      5836.90      0.57561557    0.0020948471
      5842.74      0.57428030    0.0020599524
      5848.58      0.57260104    0.0020458319
      5854.43      0.57142096    0.0020346470
      5860.29      0.56936957    0.0020106876
      5866.15      0.56914347    0.0019876040
      5872.01      0.56817258    0.0019663434
      5877.89      0.56704537    0.0019489979
      5883.76      0.56743747    0.0019350380
      5889.65      0.56491870    0.0019327633
      5895.54      0.56201193    0.0018888067
      5901.43      0.55870216    0.0018820500
      5907.34      0.55637556    0.0018792386
      5913.24      0.55551063    0.0018856283
      5919.16      0.55356831    0.0018768817
      5925.08      0.55206083    0.0018878996
      5931.00      0.55385178    0.0018873922
      5936.93      0.55379539    0.0018794418
      5942.87      0.55365412    0.0018679804
      5948.81      0.55284133    0.0018715322
      5954.76      0.55189710    0.0018648803
      5960.72      0.55113193    0.0018736489
      5966.68      0.55070238    0.0018611845
      5972.64      0.55002022    0.0018494790
      5978.62      0.54996175    0.0018670100
      5984.60      0.54952843    0.0019037917
      5990.58      0.55040096    0.0019273903
      5996.57      0.54989248    0.0018768242
      6002.57      0.54671982    0.0018970753
      6008.57      0.54393321    0.0019174573
      6014.58      0.54061038    0.0019690583
      6020.60      0.53863356    0.0020420592
      6026.62      0.53545457    0.0021419395
      6032.65      0.53225714    0.0022754225
      6038.68      0.53107028    0.0024157840
      6044.72      0.52878667    0.0025360980
      6050.76      0.52365546    0.0025857800
      6056.81      0.52394406    0.0026097939
      6062.87      0.52308649    0.0025743435
      6068.93      0.52085460    0.0025769810
      6075.00      0.52057431    0.0024737130
      6081.08      0.51823705    0.0023096776
      6087.16      0.51691658    0.0021928081
      6093.25      0.51417356    0.0021073089
      6099.34      0.51418319    0.0021066985
      6105.44      0.51370485    0.0020564126
      6111.54      0.50986894    0.0020004555
      6117.66      0.50699383    0.0020004037
      6123.78      0.50242131    0.0019975179
      6129.90      0.50078724    0.0019859363
      6136.03      0.49819094    0.0019781328
      6142.17      0.49556483    0.0019519630
      6148.31      0.49324197    0.0019431605
      6154.46      0.49206762    0.0019307145
      6160.61      0.49245801    0.0019209758
      6166.77      0.49220383    0.0019003311
      6172.94      0.49397562    0.0018940136
      6179.11      0.49612849    0.0019078664
      6185.29      0.49874770    0.0019406522
      6191.48      0.50001576    0.0019264420
      6197.67      0.50060603    0.0019039879
      6203.87      0.50270764    0.0018971676
      6210.07      0.50400851    0.0019151614
      6216.28      0.50706728    0.0019445635
      6222.50      0.50852952    0.0019497379
      6228.72      0.50828502    0.0019937316
      6234.95      0.50891056    0.0019949989
      6241.19      0.50887325    0.0020058527
      6247.42      0.51222524    0.0020077629
      6253.67      0.51239610    0.0020323554
      6259.93      0.51311806    0.0020228962
      6266.19      0.51395418    0.0020463115
      6272.46      0.51519796    0.0020283299
      6278.73      0.51685335    0.0020136736
      6285.01      0.51719056    0.0019735138
      6291.29      0.51911763    0.0019822954
      6297.58      0.51868687    0.0019422516
      6303.88      0.51710990    0.0019232173
      6310.19      0.51632114    0.0019075639
      6316.50      0.51528695    0.0019239380
      6322.81      0.51468621    0.0018953204
      6329.14      0.51303607    0.0018751459
      6335.47      0.51269853    0.0018717081
      6341.80      0.51249964    0.0018838529
      6348.14      0.51353713    0.0019435970
      6354.49      0.51542824    0.0019143863
      6360.85      0.51733758    0.0019068014
      6367.21      0.52138865    0.0018986180
      6373.57      0.52402952    0.0018848794
      6379.95      0.52762687    0.0018687866
      6386.33      0.52995625    0.0018493979
      6392.72      0.53233220    0.0018359865
      6399.11      0.53308913    0.0018146405
      6405.51      0.53188946    0.0018003713
      6411.92      0.52985702    0.0018033769
      6418.32      0.52678721    0.0017604798
      6424.74      0.52417773    0.0017640072
      6431.17      0.52098299    0.0017452045
      6437.60      0.51707713    0.0017471410
      6444.04      0.51436718    0.0017404450
      6450.48      0.51201795    0.0017396964
      6456.94      0.50800104    0.0017524755
      6463.39      0.50624112    0.0017643914
      6469.85      0.50530258    0.0017803051
      6476.33      0.50396371    0.0017890375
      6482.80      0.50256034    0.0017888628
      6489.28      0.50307762    0.0017804873
      6495.77      0.50306118    0.0017767779
      6502.27      0.50402233    0.0017686281
      6508.77      0.50389172    0.0017551895
      6515.28      0.50358210    0.0017534808
      6521.80      0.50278451    0.0017548043
      6528.32      0.50105192    0.0017486403
      6534.85      0.49992130    0.0017470601
      6541.38      0.49966962    0.0017422069
      6547.92      0.49824669    0.0017631754
      6554.47      0.49627699    0.0017683002
      6561.03      0.49305261    0.0017996949
      6567.59      0.49172809    0.0018554348
      6574.16      0.48932326    0.0018741532
      6580.73      0.48511748    0.0018657949
      6587.31      0.48057770    0.0018717940
      6593.90      0.47925421    0.0018939736
      6600.50      0.47660090    0.0019112484
      6607.10      0.47325745    0.0019086535
      6613.70      0.46913587    0.0019118895
      6620.32      0.46774851    0.0018775483
      6626.94      0.46489570    0.0018583931
      6633.57      0.46333409    0.0018086756
      6640.20      0.46036622    0.0017770395
      6646.84      0.45797247    0.0017547676
      6653.49      0.45539233    0.0017374734
      6660.14      0.45302484    0.0017197123
      6666.80      0.45011137    0.0017101092
      6673.47      0.44568289    0.0016976894
      6680.14      0.44391733    0.0016744536
      6686.82      0.44192592    0.0016352768
      6693.51      0.43858327    0.0016050040
      6700.20      0.43490053    0.0015916578
      6706.90      0.43079370    0.0015907718
      6713.61      0.42627063    0.0015685450
      6720.32      0.42125824    0.0015708230
      6727.05      0.41634783    0.0015420557
      6733.77      0.41110972    0.0015092284
      6740.51      0.40710068    0.0014867936
      6747.25      0.40296415    0.0014608741
      6754.00      0.39922063    0.0014542511
      6760.75      0.39574855    0.0014419428
      6767.51      0.39199339    0.0014177274
      6774.28      0.38873607    0.0014054878
      6781.05      0.38614049    0.0013827542
      6787.84      0.38420073    0.0013750152
      6794.62      0.38164885    0.0013546498
      6801.42      0.37940486    0.0013552383
      6808.22      0.37615350    0.0013437075
      6815.03      0.37446147    0.0013487773
      6821.85      0.37190617    0.0013630515
      6828.67      0.36989513    0.0013669897
      6835.50      0.36822880    0.0013831619
      6842.33      0.36737192    0.0013734533
      6849.17      0.36608437    0.0013761811
      6856.02      0.36632745    0.0013850859
      6862.88      0.36659196    0.0013849987
      6869.74      0.36755443    0.0013602411
      6876.61      0.36829965    0.0013329232
      6883.49      0.36754926    0.0013257326
      6890.37      0.36723657    0.0013462909
      6897.27      0.36722755    0.0013679185
      6904.16      0.36679532    0.0013965416
      6911.07      0.36616060    0.0014258286
      6917.98      0.36550177    0.0014646535
      6924.89      0.36540809    0.0015034883
      6931.82      0.36505376    0.0015621846
      6938.75      0.36427497    0.0016335963
      6945.69      0.36440483    0.0017368742
      6952.64      0.36444163    0.0018637776
      6959.59      0.36441836    0.0020428356
      6966.55      0.36472021    0.0022561165
      6973.52      0.36464555    0.0025835303
      6980.49      0.36458237    0.0030158863
      6987.47      0.36408193    0.0036068047
      6994.46      0.36275272    0.0042280085
