# starting wavelength =        2124.3646
# ending wavelength =        6854.0389
# O2 telluric scale =        0
# O2 telluric shift =        0
# H2O telluric scale =        0
# H2O telluric shift =        0
      2124.76      0.73600189     0.071997587
      2126.88      0.71057678     0.070183632
      2129.01      0.68586824     0.068440911
      2131.14      0.67612732     0.066847495
      2133.27      0.65520728     0.064754708
      2135.40      0.63820629     0.063305051
      2137.54      0.61759251     0.061958911
      2139.68      0.62524793     0.060568674
      2141.82      0.64859604     0.059204574
      2143.96      0.65278685     0.057934224
      2146.10      0.65482406     0.056672375
      2148.25      0.66373481     0.055461393
      2150.40      0.67166862     0.053962077
      2152.55      0.65876718     0.052913361
      2154.70      0.66552778     0.051909592
      2156.86      0.67058609     0.051054055
      2159.01      0.67585582     0.050163726
      2161.17      0.68166916     0.049322269
      2163.33      0.68988509     0.048380010
      2165.50      0.68602198     0.047446687
      2167.66      0.66864323     0.046272534
      2169.83      0.67287123     0.045444326
      2172.00      0.67282088     0.044662124
      2174.17      0.66231299     0.043984256
      2176.35      0.65771741     0.043220106
      2178.52      0.65987604     0.042455141
      2180.70      0.66979888     0.041438140
      2182.88      0.66160177     0.040705414
      2185.07      0.65238660     0.040081137
      2187.25      0.62753094     0.039408078
      2189.44      0.61435603     0.038761874
      2191.63      0.59840940     0.038218898
      2193.82      0.57352742     0.037614378
      2196.01      0.55741121     0.036815421
      2198.21      0.53664540     0.036227779
      2200.41      0.51902938     0.035651871
      2202.61      0.50493101     0.035159948
      2204.81      0.50094875     0.034565894
      2207.02      0.49641724     0.034050790
      2209.22      0.48715609     0.033239322
      2211.43      0.49066860     0.032680068
      2213.64      0.48812328     0.032139641
      2215.86      0.49423555     0.031498429
      2218.07      0.48261134     0.030909916
      2220.29      0.49193084     0.030088409
      2222.51      0.49702873     0.029616063
      2224.73      0.50038465     0.029143731
      2226.96      0.50413178     0.028725941
      2229.19      0.50813897     0.028410777
      2231.42      0.52288562     0.028060881
      2233.65      0.52898377     0.027629832
      2235.88      0.52782212     0.027337573
      2238.12      0.54465094     0.027167322
      2240.36      0.54806193     0.026907657
      2242.60      0.55357110     0.026647419
      2244.84      0.57528943     0.026288402
      2247.08      0.58838933     0.025986597
      2249.33      0.59736491     0.025750502
      2251.58      0.61163744     0.025417698
      2253.83      0.61091187     0.025155607
      2256.09      0.61527402     0.024648136
      2258.34      0.61840081     0.024375185
      2260.60      0.61884874     0.024029347
      2262.86      0.62141296     0.023778006
      2265.12      0.63885664     0.023326352
      2267.39      0.64686712     0.023068148
      2269.66      0.65550262     0.022904225
      2271.93      0.66576626     0.022682163
      2274.20      0.67686169     0.022573690
      2276.47      0.69248676     0.022243819
      2278.75      0.69042655     0.022153900
      2281.03      0.69469551     0.021973688
      2283.31      0.69351772     0.021895505
      2285.59      0.70376042     0.021635374
      2287.88      0.71285678     0.021589222
      2290.17      0.72362785     0.021425348
      2292.46      0.73264396     0.021325138
      2294.75      0.73827754     0.020985336
      2297.04      0.74295824     0.020876414
      2299.34      0.74234727     0.020703113
      2301.64      0.75145075     0.020628790
      2303.94      0.76767036     0.020339970
      2306.25      0.78336634     0.020288599
      2308.55      0.79793964     0.020146830
      2310.86      0.79561918     0.020079605
      2313.17      0.80501215     0.019784096
      2315.49      0.81142565     0.019701230
      2317.80      0.81362415     0.019536060
      2320.12      0.81655281     0.019440128
      2322.44      0.82953644     0.019197224
      2324.76      0.84562661     0.019015894
      2327.09      0.85617294     0.018929431
      2329.41      0.86251768     0.018771023
      2331.74      0.86833729     0.018536549
      2334.08      0.87698899     0.018316125
      2336.41      0.87682675     0.018181307
      2338.75      0.87577397     0.017991900
      2341.08      0.88409728     0.017763487
      2343.43      0.88239048     0.017637517
      2345.77      0.89583133     0.017648323
      2348.12      0.90318029     0.017505625
      2350.46      0.89775523     0.017580457
      2352.81      0.89980118     0.017666604
      2355.17      0.89391880     0.017679737
      2357.52      0.89764561     0.017708344
      2359.88      0.89452928     0.017729479
      2362.24      0.91036721     0.017849421
      2364.60      0.91327154     0.017728468
      2366.97      0.91073174     0.017794186
      2369.33      0.90243873     0.017807589
      2371.70      0.91324172     0.017544602
      2374.08      0.91459140     0.017479479
      2376.45      0.90806000     0.017323488
      2378.83      0.91469049     0.017238211
      2381.20      0.92004178     0.017057968
      2383.59      0.91561682     0.016930526
      2385.97      0.91251786     0.016917851
      2388.36      0.90992765     0.016711826
      2390.75      0.90801551     0.016709453
      2393.14      0.90491793     0.016727967
      2395.53      0.89269730     0.016547652
      2397.93      0.88790207     0.016561326
      2400.32      0.87885154     0.016484059
      2402.72      0.86249250     0.016394423
      2405.13      0.84996064     0.016427623
      2407.53      0.83854106     0.016381293
      2409.94      0.82428969     0.016321546
      2412.35      0.80948537     0.016374354
      2414.76      0.80551955     0.016322680
      2417.18      0.79726246     0.016273263
      2419.59      0.78927110     0.016236976
      2422.01      0.78181311     0.016290390
      2424.44      0.77514319     0.016209112
      2426.86      0.76660726     0.016139685
      2429.29      0.75234716     0.016150009
      2431.72      0.74553124     0.016048695
      2434.15      0.74066951     0.015962861
      2436.58      0.73535151     0.015961305
      2439.02      0.73619037     0.015827544
      2441.46      0.73313526     0.015706648
      2443.90      0.73375948     0.015543641
      2446.34      0.72125765     0.015646821
      2448.79      0.71246754     0.015468104
      2451.24      0.70915435     0.015281853
      2453.69      0.69934078     0.015280530
      2456.14      0.69938823     0.015233848
      2458.60      0.70360433     0.015192277
      2461.06      0.69468330     0.015247079
      2463.52      0.69962525     0.015203832
      2465.98      0.69622243     0.015124674
      2468.45      0.69385040     0.015137005
      2470.92      0.68924664     0.014910378
      2473.39      0.68912044     0.014900851
      2475.86      0.69046495     0.014912953
      2478.34      0.68525220     0.014714687
      2480.82      0.68310181     0.014723685
      2483.30      0.68940847     0.014623833
      2485.78      0.69405110     0.014643705
      2488.27      0.69964056     0.014569047
      2490.76      0.70348464     0.014457067
      2493.25      0.70465982     0.014242687
      2495.74      0.70426539     0.014255382
      2498.24      0.72152543     0.013965262
      2500.74      0.73589399     0.013920198
      2503.24      0.75049960     0.013779018
      2505.74      0.76991027     0.013589434
      2508.25      0.79081928     0.013615202
      2510.75      0.81282712     0.013468266
      2513.26      0.83777715     0.013522726
      2515.78      0.85583795     0.013394238
      2518.29      0.88116702     0.013330731
      2520.81      0.90241845     0.013273938
      2523.33      0.92482609     0.013214449
      2525.86      0.95124703     0.013258941
      2528.38      0.96505052     0.013165103
      2530.91      0.98710975     0.013034648
      2533.44       1.0025341     0.012985627
      2535.98       1.0151045     0.012960827
      2538.51       1.0342168     0.012879657
      2541.05       1.0428000     0.012964780
      2543.59       1.0574208     0.012960058
      2546.13       1.0692357     0.012867707
      2548.68       1.0857124     0.012939316
      2551.23       1.0987668     0.012815013
      2553.78       1.1066421     0.012840152
      2556.34       1.1213451     0.012754271
      2558.89       1.1248117     0.012557416
      2561.45       1.1280477     0.012538271
      2564.01       1.1212805     0.012329336
      2566.58       1.1241577     0.012200734
      2569.14       1.1307160     0.012168675
      2571.71       1.1329013     0.011979058
      2574.28       1.1384425     0.011914539
      2576.86       1.1300905     0.011890687
      2579.44       1.1267961     0.011758893
      2582.01       1.1220594     0.011680421
      2584.60       1.1197451     0.011634589
      2587.18       1.1236966     0.011588989
      2589.77       1.1124887     0.011568036
      2592.36       1.1080867     0.011557469
      2594.95       1.1040708     0.011551949
      2597.55       1.0953012     0.011487003
      2600.14       1.0710861     0.011483158
      2602.74       1.0484927     0.011521275
      2605.35       1.0320780     0.011364879
      2607.95       1.0047288     0.011251871
      2610.56      0.98170275     0.011220590
      2613.17      0.95576340     0.011023538
      2615.79      0.93749686     0.010906812
      2618.40      0.92237453     0.010817466
      2621.02      0.90182716     0.010771939
      2623.64      0.89297013     0.010729122
      2626.26      0.88280041     0.010691094
      2628.89      0.87966426     0.010646552
      2631.52      0.88749459     0.010579519
      2634.15      0.88811660     0.010507971
      2636.79      0.89408734     0.010378437
      2639.42      0.89423114     0.010392055
      2642.06      0.89325452     0.010342722
      2644.70      0.88894886     0.010255729
      2647.35      0.87981447     0.010259019
      2650.00      0.85830155     0.010355632
      2652.65      0.84099807     0.010397758
      2655.30      0.81686937     0.010361825
      2657.96      0.78649405     0.010404885
      2660.61      0.75551766     0.010559119
      2663.27      0.72551989     0.010657036
      2665.94      0.68257466     0.010518803
      2668.60      0.65121567     0.010495001
      2671.27      0.61946296     0.010569735
      2673.94      0.59722369     0.010701306
      2676.62      0.58007122     0.010849755
      2679.29      0.56897307     0.010993981
      2681.97      0.56274699     0.011030484
      2684.66      0.55965876     0.011168269
      2687.34      0.56868456     0.011179790
      2690.03      0.57897714     0.011141144
      2692.72      0.59467094     0.010967319
      2695.41      0.61803084     0.010841561
      2698.11      0.64175447     0.010781328
      2700.81      0.66622336     0.010602035
      2703.51      0.68561972     0.010380079
      2706.21      0.70863031     0.010245720
      2708.92      0.73751989     0.010190136
      2711.62      0.76298690     0.010333528
      2714.34      0.78726433     0.010343389
      2717.05      0.80820248     0.010159168
      2719.77      0.84272220     0.010175180
      2722.49      0.86967987     0.010012251
      2725.21      0.90446802    0.0099059553
      2727.94      0.93701553    0.0099916736
      2730.66      0.97191717     0.010066859
      2733.39       1.0090232     0.010160418
      2736.13       1.0368543     0.010262871
      2738.86       1.0720861     0.010267892
      2741.60       1.0987134     0.010343428
      2744.34       1.1286138     0.010466668
      2747.09       1.1586925     0.010457977
      2749.84       1.1942300     0.010402531
      2752.59       1.2380557     0.010249074
      2755.34       1.2810360     0.010132667
      2758.09       1.3294139     0.010022134
      2760.85       1.3804830    0.0099304162
      2763.61       1.4288149    0.0098768232
      2766.38       1.4753293    0.0098586103
      2769.14       1.5252854    0.0099227901
      2771.91       1.5778996     0.010015420
      2774.69       1.6111581    0.0098432324
      2777.46       1.6499773    0.0098127033
      2780.24       1.6855190    0.0097687873
      2783.02       1.7059535    0.0096476813
      2785.80       1.7168495    0.0095675398
      2788.59       1.7086805    0.0094924148
      2791.38       1.7049589    0.0094960331
      2794.17       1.6825862    0.0094370788
      2796.96       1.6634101    0.0093874473
      2799.76       1.6435133    0.0092971268
      2802.56       1.6191328    0.0092651664
      2805.36       1.6053237    0.0092310413
      2808.17       1.5893439    0.0092202989
      2810.98       1.5738464    0.0091707915
      2813.79       1.5603480    0.0091522577
      2816.60       1.5552207    0.0091437646
      2819.42       1.5432863    0.0090943150
      2822.24       1.5364392    0.0090990915
      2825.06       1.5295232    0.0091094889
      2827.88       1.5179690    0.0091161982
      2830.71       1.5118267    0.0091762975
      2833.54       1.4993899    0.0091696731
      2836.38       1.4816608    0.0091379473
      2839.21       1.4706950    0.0091246284
      2842.05       1.4485826    0.0090473388
      2844.90       1.4347502    0.0089980689
      2847.74       1.4239069    0.0089119128
      2850.59       1.4176034    0.0088672827
      2853.44       1.4139171    0.0088364027
      2856.29       1.4096637    0.0088341445
      2859.15       1.4173504    0.0088539310
      2862.01       1.4250558    0.0089028080
      2864.87       1.4402997    0.0088609662
      2867.74       1.4552628    0.0088832683
      2870.60       1.4743785    0.0088900696
      2873.47       1.4859981    0.0089011986
      2876.35       1.5016990    0.0089072403
      2879.22       1.5204453    0.0088967712
      2882.10       1.5314592    0.0088849814
      2884.99       1.5448708    0.0088210577
      2887.87       1.5607093    0.0088228881
      2890.76       1.5755160    0.0088231375
      2893.65       1.5800438    0.0088532076
      2896.54       1.5934351    0.0088193153
      2899.44       1.6124468    0.0088350607
      2902.34       1.6277102    0.0088554137
      2905.24       1.6487869    0.0088576654
      2908.15       1.6651238    0.0088586058
      2911.06       1.6805220    0.0088105878
      2913.97       1.6925533    0.0088127696
      2916.88       1.7047716    0.0088119963
      2919.80       1.7153401    0.0088183567
      2922.72       1.7185670    0.0088387083
      2925.64       1.7241904    0.0088657572
      2928.57       1.7281270    0.0089047775
      2931.50       1.7371876    0.0089449786
      2934.43       1.7426023    0.0089767311
      2937.36       1.7445999    0.0090046097
      2940.30       1.7501547    0.0090215131
      2943.24       1.7527735    0.0090365925
      2946.18       1.7483418    0.0090349356
      2949.13       1.7415351    0.0090201553
      2952.08       1.7504011    0.0089379867
      2955.03       1.7399930    0.0089032550
      2957.99       1.7255872    0.0088702652
      2960.94       1.7159772    0.0088324722
      2963.90       1.6905654    0.0088005835
      2966.87       1.6663211    0.0087691677
      2969.84       1.6343444    0.0087370326
      2972.81       1.5985858    0.0087614006
      2975.78       1.5643454    0.0087357632
      2978.76       1.5285202    0.0086628914
      2981.73       1.4956932    0.0086500346
      2984.72       1.4665604    0.0086417324
      2987.70       1.4417087    0.0086352837
      2990.69       1.4196411    0.0086343851
      2993.68       1.4077384    0.0086265642
      2996.67       1.3986750    0.0086196390
      2999.67       1.3889866    0.0085820242
      3002.67       1.3822482    0.0085886502
      3005.67       1.3765881    0.0085907148
      3008.68       1.3778852    0.0085925746
      3011.69       1.3740991    0.0085858336
      3014.70       1.3740119    0.0086313863
      3017.71       1.3727544    0.0085724498
      3020.73       1.3683600    0.0085629396
      3023.75       1.3736338    0.0085544512
      3026.78       1.3753510    0.0085434142
      3029.80       1.3718932    0.0085376597
      3032.83       1.3776013    0.0085300175
      3035.87       1.3773637    0.0084733934
      3038.90       1.3824639    0.0085250097
      3041.94       1.3861853    0.0085211886
      3044.98       1.3911475    0.0085143819
      3048.03       1.3993370    0.0084771753
      3051.08       1.4059164    0.0084467521
      3054.13       1.4114502    0.0084316482
      3057.18       1.4124202    0.0084413169
      3060.24       1.4134213    0.0085003198
      3063.30       1.4097927    0.0084635428
      3066.36       1.4094833    0.0084785027
      3069.43       1.4125097    0.0084872756
      3072.50       1.4163877    0.0084966431
      3075.57       1.4152575    0.0084457995
      3078.65       1.4131570    0.0084815547
      3081.73       1.4107436    0.0084634631
      3084.81       1.4061665    0.0084371345
      3087.89       1.4061914    0.0083555519
      3090.98       1.4103360    0.0083229217
      3094.07       1.4160471    0.0082945655
      3097.17       1.4223852    0.0083239382
      3100.26       1.4238616    0.0082680189
      3103.36       1.4283916    0.0082740565
      3106.47       1.4343874    0.0083064260
      3109.58       1.4402484    0.0082244107
      3112.68       1.4458511    0.0082761523
      3115.80       1.4553898    0.0082739362
      3118.91       1.4663839    0.0082219301
      3122.03       1.4797630    0.0082210674
      3125.15       1.4936463    0.0082715879
      3128.28       1.5104708    0.0082758123
      3131.41       1.5197469    0.0082355138
      3134.54       1.5282476    0.0082392224
      3137.67       1.5329300    0.0082888579
      3140.81       1.5422069    0.0082455435
      3143.95       1.5456382    0.0082471332
      3147.10       1.5559823    0.0082465964
      3150.24       1.5630477    0.0082433344
      3153.39       1.5633091    0.0082359256
      3156.55       1.5568105    0.0081762979
      3159.70       1.5481044    0.0081639972
      3162.86       1.5356209    0.0081985895
      3166.03       1.5188528    0.0081438790
      3169.19       1.5055035    0.0081383370
      3172.36       1.4900784    0.0081819585
      3175.54       1.4817834    0.0081339230
      3178.71       1.4699190    0.0081356245
      3181.89       1.4532146    0.0081384467
      3185.07       1.4361599    0.0081423195
      3188.26       1.4169412    0.0081492514
      3191.45       1.3993693    0.0081090853
      3194.64       1.3899127    0.0081577322
      3197.83       1.3812993    0.0081173234
      3201.03       1.3660555    0.0081232016
      3204.23       1.3515864    0.0081789945
      3207.44       1.3476745    0.0081422651
      3210.64       1.3437903    0.0081480981
      3213.85       1.3384708    0.0081557319
      3217.07       1.3384735    0.0081532310
      3220.28       1.3391505    0.0081054078
      3223.51       1.3377301    0.0081424431
      3226.73       1.3372597    0.0081301922
      3229.96       1.3388510    0.0081198327
      3233.19       1.3515077    0.0081061424
      3236.42       1.3523680    0.0080569560
      3239.66       1.3554916    0.0081008051
      3242.90       1.3513621    0.0080610608
      3246.14       1.3543850    0.0080675513
      3249.39       1.3542039    0.0080881271
      3252.64       1.3533764    0.0081018398
      3255.89       1.3579001    0.0081106736
      3259.14       1.3541894    0.0081143989
      3262.40       1.3441126    0.0080659241
      3265.67       1.3416372    0.0081018995
      3268.93       1.3381146    0.0080378958
      3272.20       1.3336545    0.0080643252
      3275.47       1.3322507    0.0079990194
      3278.75       1.3320670    0.0080299200
      3282.03       1.3331024    0.0079751781
      3285.31       1.3408446    0.0079627927
      3288.60       1.3412841    0.0079616011
      3291.88       1.3560763    0.0079693398
      3295.18       1.3712019    0.0079788298
      3298.47       1.3752553    0.0079852243
      3301.77       1.3887985    0.0079919073
      3305.07       1.3992924    0.0079494390
      3308.38       1.4145509    0.0079910091
      3311.69       1.4246495    0.0079476950
      3315.00       1.4302806    0.0079906796
      3318.31       1.4312419    0.0079447388
      3321.63       1.4252206    0.0079856249
      3324.95       1.4167871    0.0079345327
      3328.28       1.4123556    0.0079315152
      3331.61       1.4052306    0.0079242890
      3334.94       1.3964526    0.0079181673
      3338.27       1.3915822    0.0079182982
      3341.61       1.3887106    0.0079139528
      3344.95       1.3864074    0.0078662535
      3348.30       1.3866101    0.0079019247
      3351.65       1.3899241    0.0078543041
      3355.00       1.3965923    0.0078611371
      3358.35       1.3971152    0.0078602408
      3361.71       1.3972634    0.0078845312
      3365.07       1.4008968    0.0078666800
      3368.44       1.4036644    0.0078595278
      3371.81       1.4014515    0.0078691473
      3375.18       1.3989299    0.0078851084
      3378.56       1.3891020    0.0079077402
      3381.94       1.3782441    0.0078843423
      3385.32       1.3675888    0.0079461494
      3388.70       1.3558229    0.0079145040
      3392.09       1.3419974    0.0079253613
      3395.48       1.3375979    0.0079681233
      3398.88       1.3309166    0.0079200243
      3402.28       1.3255560    0.0079202269
      3405.68       1.3304779    0.0078668764
      3409.09       1.3345558    0.0078976851
      3412.49       1.3444102    0.0078924456
      3415.91       1.3571374    0.0078548494
      3419.32       1.3690422    0.0079059593
      3422.74       1.3879695    0.0078863410
      3426.17       1.3980375    0.0079202982
      3429.59       1.4137979    0.0079104371
      3433.02       1.4269450    0.0079020358
      3436.45       1.4421033    0.0078940916
      3439.89       1.4541742    0.0079071124
      3443.33       1.4685028    0.0078896767
      3446.78       1.4793239    0.0079562587
      3450.22       1.4882390    0.0079942404
      3453.67       1.4975323    0.0079926013
      3457.13       1.5034811    0.0080331898
      3460.58       1.5158052    0.0080627279
      3464.04       1.5190281    0.0080889860
      3467.51       1.5212412    0.0081159031
      3470.98       1.5273127    0.0081168783
      3474.45       1.5341055    0.0080647282
      3477.92       1.5345229    0.0080657706
      3481.40       1.5366635    0.0081131041
      3484.88       1.5357104    0.0081212672
      3488.37       1.5281821    0.0080752824
      3491.86       1.5155588    0.0080896746
      3495.35       1.5124589    0.0081238997
      3498.84       1.5135378    0.0081370655
      3502.34       1.5155680    0.0081521523
      3505.84       1.5221277    0.0081804237
      3509.35       1.5317999    0.0082099621
      3512.86       1.5402435    0.0082360979
      3516.37       1.5527849    0.0082144856
      3519.89       1.5631494    0.0082442737
      3523.41       1.5790283    0.0082644118
      3526.93       1.5929432    0.0083167200
      3530.46       1.6028245    0.0082875541
      3533.99       1.6136921    0.0083016252
      3537.53       1.6298265    0.0082992474
      3541.06       1.6474211    0.0083023027
      3544.60       1.6536341    0.0083271133
      3548.15       1.6596940    0.0083131752
      3551.70       1.6611925    0.0083556213
      3555.25       1.6560920    0.0083223940
      3558.80       1.6490555    0.0083327553
      3562.36       1.6435662    0.0083403594
      3565.92       1.6401260    0.0083433800
      3569.49       1.6386688    0.0083049601
      3573.06       1.6345063    0.0083097801
      3576.64       1.6295144    0.0083087089
      3580.21       1.6259708    0.0083084593
      3583.79       1.6200479    0.0083108654
      3587.38       1.6144013    0.0083535328
      3590.96       1.6111393    0.0083551233
      3594.55       1.6077251    0.0083614788
      3598.15       1.6029674    0.0083283348
      3601.75       1.6009699    0.0083002276
      3605.35       1.6018360    0.0083121208
      3608.96       1.6003554    0.0083319991
      3612.56       1.5956088    0.0083600473
      3616.18       1.5853049    0.0083934842
      3619.79       1.5787960    0.0084275421
      3623.41       1.5662682    0.0084639182
      3627.04       1.5538677    0.0085012712
      3630.66       1.5458292    0.0085356425
      3634.29       1.5392642    0.0085728379
      3637.93       1.5345702    0.0086129057
      3641.57       1.5331403    0.0086548950
      3645.21       1.5335260    0.0086945190
      3648.86       1.5379198    0.0087395137
      3652.50       1.5452234    0.0087416351
      3656.16       1.5525904    0.0087965525
      3659.81       1.5611274    0.0088402459
      3663.47       1.5702962    0.0088829489
      3667.14       1.5818220    0.0089332979
      3670.80       1.5928298    0.0089878345
      3674.48       1.5995623    0.0090639190
      3678.15       1.6090699    0.0092042693
      3681.83       1.6126028    0.0092006184
      3685.51       1.6067000    0.0092709285
      3689.20       1.6103219    0.0093835389
      3692.88       1.6118402    0.0095453228
      3696.58       1.6115321    0.0097788605
      3700.27       1.6118085     0.010026431
      3703.98       1.6125654     0.010275909
      3707.68       1.6140496     0.010497846
      3711.39       1.6140660     0.010692289
      3715.10       1.6107754     0.010804417
      3718.81       1.6178132     0.010819577
      3722.53       1.6030350     0.010797267
      3726.26       1.5857640     0.010731969
      3729.98       1.5689741     0.010621500
      3733.71       1.5592205     0.010498569
      3737.45       1.5387498     0.010380202
      3741.18       1.5168091     0.010295078
      3744.93       1.4926857     0.010283807
      3748.67       1.4679717     0.010343939
      3752.42       1.4546538     0.010186256
      3756.17       1.4356528     0.010047420
      3759.93       1.4211802    0.0099310949
      3763.69       1.4159937    0.0098033581
      3767.45       1.4024934    0.0096609843
      3771.22       1.4011881    0.0095098258
      3774.99       1.4003921    0.0093931369
      3778.77       1.3943850    0.0092499114
      3782.54       1.3990633    0.0091171933
      3786.33       1.4004916    0.0089999619
      3790.11       1.3939407    0.0088320103
      3793.90       1.3916212    0.0086952319
      3797.70       1.3930832    0.0085727467
      3801.50       1.3950286    0.0084621279
      3805.30       1.3919471    0.0083610089
      3809.10       1.3881511    0.0082674628
      3812.91       1.3890279    0.0081770009
      3816.73       1.3960738    0.0080941049
      3820.54       1.4010836    0.0080154547
      3824.36       1.4084761    0.0079408674
      3828.19       1.4075454    0.0078742568
      3832.02       1.4097793    0.0078097998
      3835.85       1.4174364    0.0077486845
      3839.68       1.4309848    0.0076843008
      3843.52       1.4383762    0.0075834781
      3847.37       1.4472772    0.0075341283
      3851.22       1.4611283    0.0074767266
      3855.07       1.4785287    0.0074209652
      3858.92       1.4837578    0.0073790319
      3862.78       1.4929696    0.0073332328
      3866.64       1.5084261    0.0072906232
      3870.51       1.5206424    0.0072680258
      3874.38       1.5290252    0.0072359596
      3878.26       1.5346941    0.0071924331
      3882.13       1.5511676    0.0071328301
      3886.02       1.5633945    0.0071529643
      3889.90       1.5821071    0.0071411316
      3893.79       1.5930904    0.0070904316
      3897.69       1.6045067    0.0070771500
      3901.59       1.6123484    0.0071201554
      3905.49       1.6211226    0.0071806974
      3909.39       1.6341388    0.0072148502
      3913.30       1.6429256    0.0072877668
      3917.22       1.6423369    0.0073437110
      3921.13       1.6548383    0.0073791194
      3925.06       1.6663503    0.0074322991
      3928.98       1.6685686    0.0074128232
      3932.91       1.6733765    0.0073144902
      3936.84       1.6666460    0.0072451858
      3940.78       1.6575725    0.0071715907
      3944.72       1.6437059    0.0071001902
      3948.67       1.6224812    0.0070129311
      3952.61       1.6008610    0.0069321576
      3956.57       1.5850983    0.0068474909
      3960.52       1.5699089    0.0068586786
      3964.48       1.5475313    0.0068506924
      3968.45       1.5246571    0.0067810468
      3972.42       1.5011168    0.0067318227
      3976.39       1.4786530    0.0066737770
      3980.37       1.4530872    0.0066513544
      3984.35       1.4340471    0.0066114835
      3988.33       1.4147431    0.0065825952
      3992.32       1.4041386    0.0065535723
      3996.31       1.3983488    0.0065246559
      4000.31       1.3907033    0.0064930160
      4004.31       1.3790311    0.0064681201
      4008.31       1.3759250    0.0064008489
      4012.32       1.3688050    0.0063758969
      4016.33       1.3635154    0.0063885484
      4020.35       1.3584867    0.0063735382
      4024.37       1.3603024    0.0063236777
      4028.40       1.3673344    0.0063077480
      4032.42       1.3831624    0.0062921164
      4036.46       1.3979169    0.0062712352
      4040.50       1.4027837    0.0062510189
      4044.54       1.4122213    0.0062277796
      4048.58       1.4227045    0.0062085401
      4052.63       1.4347372    0.0061577136
      4056.68       1.4450439    0.0061616882
      4060.74       1.4603602    0.0061339186
      4064.80       1.4725057    0.0060804416
      4068.86       1.4839435    0.0060730450
      4072.93       1.4883376    0.0060982945
      4077.01       1.4906819    0.0060444861
      4081.08       1.4936639    0.0060361374
      4085.17       1.4970271    0.0060286195
      4089.25       1.5031750    0.0060213474
      4093.34       1.5020775    0.0060146246
      4097.43       1.5000859    0.0060053993
      4101.53       1.5018188    0.0059680044
      4105.63       1.5018141    0.0059880814
      4109.74       1.4985900    0.0059678568
      4113.85       1.4927026    0.0059421950
      4117.96       1.4841478    0.0059420904
      4122.08       1.4781920    0.0060054031
      4126.20       1.4711520    0.0058884160
      4130.33       1.4670234    0.0058682369
      4134.46       1.4624102    0.0058744420
      4138.59       1.4544437    0.0059208267
      4142.73       1.4431354    0.0059690143
      4146.88       1.4324780    0.0060949007
      4151.02       1.4135551    0.0061696108
      4155.18       1.4017983    0.0062470607
      4159.33       1.3900074    0.0063383075
      4163.49       1.3784710    0.0062015150
      4167.65       1.3684228    0.0061516982
      4171.82       1.3551037    0.0061570069
      4175.99       1.3404085    0.0061155764
      4180.17       1.3325086    0.0060778387
      4184.35       1.3249875    0.0060299296
      4188.54       1.3158104    0.0059912492
      4192.72       1.3014283    0.0059607951
      4196.92       1.2862876    0.0060127601
      4201.11       1.2655617    0.0059990311
      4205.31       1.2537941    0.0057723250
      4209.52       1.2452334    0.0056475036
      4213.73       1.2326209    0.0055552893
      4217.94       1.2147168    0.0054428776
      4222.16       1.1986287    0.0053676596
      4226.38       1.1770609    0.0053097627
      4230.61       1.1610801    0.0052689172
      4234.84       1.1429128    0.0052658212
      4239.08       1.1297005    0.0052233031
      4243.32       1.1213974    0.0051018747
      4247.56       1.1112499    0.0050459546
      4251.81       1.1003333    0.0049624737
      4256.06       1.0875420    0.0049108154
      4260.32       1.0803320    0.0048404491
      4264.58       1.0730958    0.0047927588
      4268.84       1.0653767    0.0047532591
      4273.11       1.0623579    0.0047231526
      4277.38       1.0511801    0.0047246522
      4281.66       1.0474360    0.0047161325
      4285.94       1.0483471    0.0047222777
      4290.23       1.0469823    0.0047496703
      4294.52       1.0467559    0.0047642261
      4298.81       1.0452464    0.0047580872
      4303.11       1.0463155    0.0047892547
      4307.42       1.0478602    0.0048331218
      4311.72       1.0503945    0.0048701362
      4316.04       1.0566068    0.0048887215
      4320.35       1.0648809    0.0048960825
      4324.67       1.0710114    0.0049196634
      4329.00       1.0760204    0.0049237112
      4333.33       1.0800930    0.0049040961
      4337.66       1.0887092    0.0048697780
      4342.00       1.0935854    0.0049080065
      4346.34       1.1022675    0.0049465181
      4350.69       1.1087015    0.0049729223
      4355.04       1.1217872    0.0050197933
      4359.39       1.1269853    0.0050241000
      4363.75       1.1455472    0.0050308034
      4368.12       1.1559812    0.0050463678
      4372.48       1.1706029    0.0050364869
      4376.86       1.1859597    0.0049502065
      4381.23       1.1983492    0.0049013052
      4385.61       1.2079908    0.0048048332
      4390.00       1.2240536    0.0047205343
      4394.39       1.2344622    0.0046703543
      4398.79       1.2435786    0.0045791772
      4403.18       1.2482702    0.0045230177
      4407.59       1.2504573    0.0045078202
      4412.00       1.2539551    0.0044938886
      4416.41       1.2518745    0.0044383718
      4420.82       1.2497468    0.0044170850
      4425.25       1.2391260    0.0043778341
      4429.67       1.2343958    0.0043256609
      4434.10       1.2285338    0.0043173924
      4438.54       1.2242136    0.0043219930
      4442.97       1.2213287    0.0042952329
      4447.42       1.2232285    0.0042875918
      4451.86       1.2206608    0.0043078612
      4456.32       1.2205086    0.0042945750
      4460.77       1.2213737    0.0042970437
      4465.24       1.2246778    0.0042890901
      4469.70       1.2299538    0.0042745512
      4474.17       1.2402304    0.0043416191
      4478.65       1.2461734    0.0042872003
      4483.12       1.2492752    0.0042687129
      4487.61       1.2528267    0.0041814571
      4492.09       1.2561470    0.0041596103
      4496.59       1.2546899    0.0041718283
      4501.08       1.2470674    0.0042271023
      4505.58       1.2415331    0.0043299884
      4510.09       1.2297656    0.0043854274
      4514.60       1.2242234    0.0043951787
      4519.12       1.2137955    0.0044016710
      4523.63       1.2041878    0.0044010535
      4528.16       1.1932407    0.0044251100
      4532.69       1.1845288    0.0044083140
      4537.22       1.1691953    0.0043721852
      4541.76       1.1580016    0.0042998757
      4546.30       1.1516623    0.0043445390
      4550.85       1.1467888    0.0043050768
      4555.40       1.1470076    0.0043408307
      4559.95       1.1499934    0.0044703302
      4564.51       1.1504434    0.0045450860
      4569.08       1.1548207    0.0046777776
      4573.65       1.1587872    0.0046173593
      4578.22       1.1626647    0.0046685520
      4582.80       1.1635217    0.0047335200
      4587.38       1.1644062    0.0047567725
      4591.97       1.1729888    0.0047671810
      4596.56       1.1799202    0.0047013210
      4601.16       1.1869430    0.0046086656
      4605.76       1.1936251    0.0045915312
      4610.37       1.1965018    0.0044378898
      4614.98       1.1954800    0.0043283569
      4619.59       1.1987955    0.0042640204
      4624.21       1.1985587    0.0042022270
      4628.84       1.2000124    0.0041728745
      4633.47       1.2010863    0.0042079077
      4638.10       1.2033638    0.0041153012
      4642.74       1.2035690    0.0040820715
      4647.38       1.2020174    0.0040522739
      4652.03       1.2014062    0.0039960214
      4656.68       1.1948569    0.0039252874
      4661.34       1.1855298    0.0038310850
      4666.00       1.1792732    0.0037786904
      4670.67       1.1677227    0.0037266603
      4675.33       1.1600607    0.0036703338
      4680.01       1.1521810    0.0036070880
      4684.69       1.1417996    0.0035853330
      4689.38       1.1299670    0.0035916790
      4694.07       1.1200139    0.0035957277
      4698.76       1.1075004    0.0035550573
      4703.46       1.0972765    0.0035153832
      4708.16       1.0874983    0.0034999918
      4712.87       1.0801250    0.0034858904
      4717.58       1.0722001    0.0034579905
      4722.30       1.0674654    0.0034288154
      4727.03       1.0641381    0.0034126090
      4731.75       1.0583376    0.0034014245
      4736.48       1.0543861    0.0033987211
      4741.22       1.0485313    0.0034062691
      4745.96       1.0400377    0.0034285056
      4750.71       1.0327089    0.0033902747
      4755.46       1.0287734    0.0033870761
      4760.22       1.0212865    0.0034048965
      4764.97       1.0155938    0.0034367487
      4769.74       1.0075245    0.0034680746
      4774.51      0.99898839    0.0035252000
      4779.29      0.99065499    0.0035782720
      4784.07      0.98368791    0.0035565427
      4788.85      0.97194615    0.0035238397
      4793.64      0.96580118    0.0035372374
      4798.43      0.95990322    0.0035815407
      4803.23      0.95502934    0.0036249068
      4808.03      0.95028671    0.0036393573
      4812.84      0.94911444    0.0036678503
      4817.66      0.94709943    0.0037214623
      4822.48      0.94494423    0.0037847777
      4827.30      0.94021113    0.0038893304
      4832.12      0.93327154    0.0039698843
      4836.96      0.92643917    0.0040825023
      4841.79      0.92004213    0.0040557032
      4846.63      0.91631744    0.0040172969
      4851.48      0.91484591    0.0040004851
      4856.33      0.91115785    0.0040068744
      4861.19      0.91204685    0.0040510465
      4866.05      0.90945698    0.0040546331
      4870.92      0.91031249    0.0040718875
      4875.79      0.90948970    0.0041113111
      4880.66      0.90622523    0.0040470024
      4885.55      0.90557121    0.0040095115
      4890.43      0.90351371    0.0039990196
      4895.32      0.89940178    0.0039840164
      4900.22      0.89338769    0.0039635550
      4905.12      0.89240557    0.0039383702
      4910.02      0.88407417    0.0038969154
      4914.94      0.87442734    0.0037956935
      4919.85      0.86421514    0.0037639001
      4924.77      0.85787614    0.0036726978
      4929.70      0.84779192    0.0036392721
      4934.62      0.84179947    0.0035545521
      4939.56      0.83410318    0.0034590167
      4944.50      0.82833727    0.0033746566
      4949.44      0.82512289    0.0033560507
      4954.39      0.82352683    0.0033792547
      4959.35      0.82023913    0.0033411070
      4964.31      0.82197957    0.0033678492
      4969.27      0.82616344    0.0034401106
      4974.24      0.82427684    0.0034066948
      4979.22      0.82589546    0.0034288131
      4984.20      0.82973067    0.0034308959
      4989.18      0.83313346    0.0034538596
      4994.17      0.83374286    0.0035229743
      4999.16      0.83932850    0.0035035277
      5004.16      0.84019405    0.0034869468
      5009.17      0.84243456    0.0034526168
      5014.18      0.84643406    0.0034980161
      5019.19      0.85250342    0.0035213427
      5024.21      0.85541983    0.0034655440
      5029.23      0.85915877    0.0034519874
      5034.26      0.85804179    0.0034890289
      5039.30      0.85951154    0.0035219602
      5044.34      0.86525566    0.0036247031
      5049.39      0.87109158    0.0038076026
      5054.43      0.87472215    0.0040149380
      5059.49      0.88364713    0.0042532351
      5064.55      0.88908828    0.0043196215
      5069.61      0.89315290    0.0044173354
      5074.68      0.90292773    0.0044301935
      5079.76      0.90842668    0.0044098574
      5084.84      0.90917515    0.0044247194
      5089.92      0.90951528    0.0044173424
      5095.01      0.91547138    0.0040871179
      5100.11      0.91801458    0.0038164599
      5105.21      0.91827012    0.0036668451
      5110.31      0.92215737    0.0036309179
      5115.42      0.92627135    0.0036483365
      5120.54      0.93024440    0.0036176888
      5125.66      0.92925940    0.0036324539
      5130.79      0.93127643    0.0037127154
      5135.92      0.93164162    0.0037768374
      5141.05      0.93295495    0.0038650832
      5146.20      0.93384684    0.0038936724
      5151.34      0.93107673    0.0038808841
      5156.49      0.92766311    0.0038347793
      5161.65      0.92831912    0.0038353395
      5166.81      0.92693793    0.0037901390
      5171.98      0.92756547    0.0038089086
      5177.15      0.92060228    0.0038437621
      5182.33      0.91587739    0.0039637576
      5187.51      0.91446332    0.0040200812
      5192.70      0.91335258    0.0039708456
      5197.89      0.90658384    0.0038832154
      5203.09      0.89974871    0.0038797409
      5208.29      0.89769297    0.0039031931
      5213.50      0.89387688    0.0039814206
      5218.72      0.88628999    0.0039959852
      5223.93      0.87962515    0.0040166145
      5229.16      0.87826882    0.0040381770
      5234.39      0.86675239    0.0040128901
      5239.62      0.85648921    0.0040105449
      5244.86      0.84901740    0.0040712541
      5250.11      0.83926127    0.0040405259
      5255.36      0.83581785    0.0041056170
      5260.61      0.82887002    0.0040264456
      5265.87      0.82347133    0.0039498953
      5271.14      0.81794532    0.0040300664
      5276.41      0.81201508    0.0040874254
      5281.69      0.80657980    0.0038833986
      5286.97      0.79890989    0.0038888848
      5292.26      0.79018740    0.0039654354
      5297.55      0.78259177    0.0039666898
      5302.85      0.77500008    0.0038932260
      5308.15      0.77270821    0.0039234188
      5313.46      0.76804420    0.0039345571
      5318.77      0.76204314    0.0040477628
      5324.09      0.76413130    0.0040633616
      5329.42      0.76548723    0.0039310498
      5334.75      0.76700403    0.0038159072
      5340.08      0.76756433    0.0036873040
      5345.42      0.77294432    0.0035756819
      5350.77      0.77315168    0.0034369504
      5356.12      0.77822352    0.0034347241
      5361.48      0.77934539    0.0033362470
      5366.83      0.78264663    0.0033438593
      5372.20      0.78584651    0.0033692033
      5377.58      0.78729173    0.0033026631
      5382.95      0.78543283    0.0031904387
      5388.34      0.78373262    0.0031881028
      5393.72      0.77672206    0.0031628335
      5399.12      0.77447777    0.0030853583
      5404.52      0.77116147    0.0029892982
      5409.92      0.76469785    0.0029382360
      5415.33      0.75485056    0.0028885779
      5420.75      0.74734580    0.0028262114
      5426.17      0.74177055    0.0027716205
      5431.60      0.73504639    0.0027457284
      5437.03      0.72593675    0.0027526691
      5442.47      0.71690350    0.0027360484
      5447.91      0.71244671    0.0027103590
      5453.36      0.70703259    0.0026785736
      5458.81      0.70248331    0.0026762343
      5464.27      0.69782063    0.0027084416
      5469.73      0.69341149    0.0027720361
      5475.20      0.69133733    0.0028800074
      5480.68      0.68967979    0.0027479197
      5486.16      0.68953700    0.0026793496
      5491.65      0.68619322    0.0027276472
      5497.14      0.68157949    0.0028460602
      5502.64      0.68337712    0.0030280698
      5508.14      0.67984523    0.0032620307
      5513.65      0.67350125    0.0034085472
      5519.16      0.66997658    0.0034652647
      5524.68      0.66667657    0.0035867781
      5530.20      0.66573095    0.0038793087
      5535.73      0.66117998    0.0041851929
      5541.27      0.65432729    0.0041868150
      5546.81      0.64880014    0.0041567865
      5552.36      0.64831863    0.0044040023
      5557.91      0.64665790    0.0047416421
      5563.47      0.64471442    0.0050141578
      5569.04      0.64265540    0.0046817719
      5574.60      0.64423364    0.0050085243
      5580.18      0.64778481    0.0052298882
      5585.76      0.64854889    0.0054144191
      5591.35      0.65157233    0.0050248212
      5596.94      0.64821952    0.0050538787
      5602.53      0.64834536    0.0052818567
      5608.14      0.65329138    0.0058681071
      5613.75      0.66219518    0.0052828646
      5619.36      0.66767519    0.0046087553
      5624.98      0.66865932    0.0043814994
      5630.60      0.67410909    0.0041688420
      5636.23      0.67334152    0.0041389646
      5641.87      0.67233979    0.0054544643
      5647.51      0.67199317    0.0049702612
      5653.16      0.67604462    0.0040848704
      5658.82      0.67941041    0.0038770735
      5664.47      0.68021961    0.0033964294
      5670.14      0.67824936    0.0030989432
      5675.81      0.67831250    0.0028614702
      5681.48      0.67741378    0.0029089092
      5687.17      0.67580384    0.0028399690
      5692.85      0.67201975    0.0027172795
      5698.55      0.66844556    0.0025937415
      5704.25      0.66522652    0.0025603773
      5709.95      0.66095544    0.0026679942
      5715.66      0.65811288    0.0027724442
      5721.38      0.65729023    0.0027298124
      5727.10      0.65356817    0.0027314305
      5732.83      0.65072087    0.0028228938
      5738.56      0.64611908    0.0029375987
      5744.30      0.63906470    0.0031064391
      5750.04      0.63706948    0.0031715138
      5755.79      0.63277082    0.0031568159
      5761.55      0.63328840    0.0031402263
      5767.31      0.63230952    0.0031272400
      5773.08      0.63120780    0.0030959008
      5778.85      0.62866513    0.0030593908
      5784.63      0.63192092    0.0029796186
      5790.41      0.63074058    0.0029866699
      5796.21      0.63288960    0.0028648586
      5802.00      0.63117255    0.0027220274
      5807.81      0.62769789    0.0027277317
      5813.61      0.62686569    0.0028236241
      5819.43      0.62465297    0.0030560450
      5825.25      0.62396745    0.0033563731
      5831.07      0.62644254    0.0035670562
      5836.90      0.61748617    0.0036199890
      5842.74      0.61462909    0.0035837917
      5848.58      0.60551725    0.0037875820
      5854.43      0.60185394    0.0039863562
      5860.29      0.59498711    0.0043451560
      5866.15      0.58789825    0.0040914685
      5872.01      0.58394525    0.0039527811
      5877.89      0.58403744    0.0039590019
      5883.76      0.58248289    0.0043510434
      5889.65      0.58375785    0.0046168371
      5895.54      0.59188834    0.0048053703
      5901.43      0.58867555    0.0051148609
      5907.34      0.58851383    0.0052197884
      5913.24      0.58259240    0.0051946622
      5919.16      0.58208562    0.0052082780
      5925.08      0.58308953    0.0052861639
      5931.00      0.58601189    0.0059835076
      5936.93      0.59026450    0.0059696593
      5942.87      0.58550710    0.0050850867
      5948.81      0.58467687    0.0045914341
      5954.76      0.58339021    0.0042398813
      5960.72      0.58098711    0.0041577060
      5966.68      0.58016869    0.0039719344
      5972.64      0.57909897    0.0037708022
      5978.62      0.57992218    0.0034541019
      5984.60      0.57924245    0.0034326952
      5990.58      0.57798665    0.0033108374
      5996.57      0.57472418    0.0032272666
      6002.57      0.57545897    0.0029758521
      6008.57      0.57418512    0.0027740817
      6014.58      0.57001808    0.0027807526
      6020.60      0.56874879    0.0026805364
      6026.62      0.56457731    0.0025417381
      6032.65      0.55948454    0.0024429398
      6038.68      0.55359686    0.0024384488
      6044.72      0.54766563    0.0024921795
      6050.76      0.54002023    0.0024358926
      6056.81      0.53241185    0.0023367733
      6062.87      0.52512951    0.0022755966
      6068.93      0.51741898    0.0022589805
      6075.00      0.51019129    0.0022518201
      6081.08      0.50479539    0.0022539239
      6087.16      0.49854366    0.0022412852
      6093.25      0.49217035    0.0021994301
      6099.34      0.48527966    0.0021810361
      6105.44      0.47916007    0.0021704686
      6111.54      0.47279678    0.0021748247
      6117.66      0.46962885    0.0021756575
      6123.78      0.46674341    0.0021654996
      6129.90      0.46213811    0.0021543716
      6136.03      0.46098924    0.0021709639
      6142.17      0.45778231    0.0022202824
      6148.31      0.45473805    0.0023013850
      6154.46      0.45168623    0.0023038070
      6160.61      0.45073397    0.0022748566
      6166.77      0.44940195    0.0022623411
      6172.94      0.44965138    0.0023166014
      6179.11      0.45119342    0.0024341795
      6185.29      0.45357934    0.0026110685
      6191.48      0.45657060    0.0028639405
      6197.67      0.46221136    0.0030109179
      6203.87      0.46622208    0.0032375484
      6210.07      0.47030795    0.0034814911
      6216.28      0.47481350    0.0039625768
      6222.50      0.48233448    0.0040964476
      6228.72      0.48539630    0.0043978413
      6234.95      0.49171917    0.0046842712
      6241.19      0.49940269    0.0045184515
      6247.42      0.49971919    0.0046620289
      6253.67      0.50664661    0.0053615197
      6259.93      0.50205442    0.0071215702
      6266.19      0.50080295    0.0057065224
      6272.46      0.49876762    0.0059331833
      6278.73      0.49814575    0.0066114640
      6285.01      0.49640710    0.0063227182
      6291.29      0.49178588    0.0061949042
      6297.58      0.48833250    0.0066168777
      6303.88      0.47857211    0.0073138777
      6310.19      0.47590787    0.0069984020
      6316.50      0.47566482    0.0060441845
      6322.81      0.47312846    0.0057733975
      6329.14      0.47334436    0.0054297137
      6335.47      0.47280527    0.0052781888
      6341.80      0.47179074    0.0049868222
      6348.14      0.46933615    0.0075836433
      6354.49      0.46491340    0.0058337094
      6360.85      0.45993874    0.0047651234
      6367.21      0.46009645    0.0043842948
      6373.57      0.45939159    0.0041173912
      6379.95      0.46052592    0.0037472743
      6386.33      0.45962408    0.0035753938
      6392.72      0.45807931    0.0034693014
      6399.11      0.45933036    0.0032509724
      6405.51      0.46072701    0.0032190290
      6411.92      0.46270048    0.0031491895
      6418.32      0.46584336    0.0032274197
      6424.74      0.46740824    0.0034020682
      6431.17      0.47409942    0.0037071032
      6437.60      0.47741113    0.0038394134
      6444.04      0.47940093    0.0038557866
      6450.48      0.48315954    0.0038823273
      6456.94      0.48649467    0.0039671066
      6463.39      0.49650568    0.0038811369
      6469.85      0.49985619    0.0037966168
      6476.33      0.50805791    0.0037990036
      6482.80      0.51171653    0.0038124808
      6489.28      0.51377577    0.0037281099
      6495.77      0.51645893    0.0037528991
      6502.27      0.51981224    0.0036653553
      6508.77      0.52378774    0.0037331620
      6515.28      0.52491920    0.0037425452
      6521.80      0.52560815    0.0038936498
      6528.32      0.52563217    0.0038046988
      6534.85      0.52651441    0.0039828623
      6541.38      0.52536100    0.0041817597
      6547.92      0.52388085    0.0042485519
      6554.47      0.51816926    0.0042920295
      6561.03      0.51711256    0.0043597625
      6567.59      0.51331036    0.0044306603
      6574.16      0.51182933    0.0045995014
      6580.73      0.50417950    0.0047527944
      6587.31      0.50087090    0.0047862223
      6593.90      0.49269088    0.0048629586
      6600.50      0.48283936    0.0050211761
      6607.10      0.47742239    0.0052560260
      6613.70      0.46873096    0.0059307643
      6620.32      0.46611529    0.0058358722
      6626.94      0.46018879    0.0057085082
      6633.57      0.45185673    0.0056013336
      6640.20      0.44531316    0.0056083759
      6646.84      0.44274789    0.0056156082
      6653.49      0.43698808    0.0059116567
      6660.14      0.42772617    0.0060836823
      6666.80      0.42095228    0.0058545645
      6673.47      0.41570668    0.0058814561
      6680.14      0.41014905    0.0059953363
      6686.82      0.40587888    0.0058612306
      6693.51      0.40578394    0.0060166360
      6700.20      0.39780792    0.0061203103
      6706.90      0.38981911    0.0061038255
      6713.61      0.38404583    0.0063346426
      6720.32      0.37774744    0.0063002921
      6727.05      0.37046363    0.0064709252
      6733.77      0.36411007    0.0069440493
      6740.51      0.36235012    0.0072544442
      6747.25      0.35641823    0.0072323664
      6754.00      0.35266240    0.0072472223
      6760.75      0.34974422    0.0073278047
      6767.51      0.34669416    0.0075482530
      6774.28      0.34448708    0.0079531963
      6781.05      0.34082385    0.0087436959
      6787.84      0.34122935    0.0099056666
      6794.62      0.34018497     0.010509703
      6801.42      0.33952425     0.011354672
      6808.22      0.33855470     0.012334592
      6815.03      0.33951612     0.013997728
      6821.85      0.34416966     0.015435830
      6828.67      0.34950560     0.017431050
      6835.50      0.35252962     0.020797204
      6842.33      0.36117532     0.023948229
      6849.17      0.36186339     0.028948574
