# starting wavelength =        2977.2425
# ending wavelength =        9710.8368
# O2 telluric scale =        0
# O2 telluric shift =        0
# H2O telluric scale =        0
# H2O telluric shift =        0
      2978.76      0.57171452      0.18247260
      2981.73      0.48494061      0.17774792
      2984.72      0.44134472      0.17250784
      2987.70      0.45586393      0.16706597
      2990.69      0.47259564      0.16186335
      2993.68      0.43495238      0.15695071
      2996.67      0.47307353      0.15373124
      2999.67      0.46676366      0.14969556
      3002.67      0.49909731      0.14600900
      3005.67      0.46511076      0.14268006
      3008.68      0.47605201      0.13981683
      3011.69      0.46545716      0.13734247
      3014.70      0.48369035      0.13512246
      3017.71      0.52343468      0.13355973
      3020.73      0.55023496      0.13201123
      3023.75      0.59082786      0.13075317
      3026.78      0.58999432      0.12958190
      3029.80      0.55748253      0.12784343
      3032.83      0.52475303      0.12590956
      3035.87      0.49667448      0.12463582
      3038.90      0.43986744      0.12230238
      3041.94      0.42821801      0.11987617
      3044.98      0.43238633      0.11713957
      3048.03      0.37109609      0.11454960
      3051.08      0.36372429      0.11194969
      3054.13      0.42618179      0.10913641
      3057.18      0.47742938      0.10670203
      3060.24      0.50747160      0.10363570
      3063.30      0.50280983      0.10063751
      3066.36      0.51070426     0.097588289
      3069.43      0.51251568     0.094990524
      3072.50      0.53931398     0.093169715
      3075.57      0.56445102     0.092078495
      3078.65      0.60682451     0.091468853
      3081.73      0.59081345     0.090930813
      3084.81      0.58888479     0.090422924
      3087.89      0.61419030     0.090158123
      3090.98      0.59852736     0.089557249
      3094.07      0.60550187     0.089031400
      3097.17      0.59673917     0.088353771
      3100.26      0.61818872     0.087651528
      3103.36      0.60724148     0.089062706
      3106.47      0.62818599     0.088550608
      3109.58      0.61809471     0.085118951
      3112.68      0.58940444     0.083016264
      3115.80      0.60822269     0.081372575
      3118.91      0.59035644     0.080068435
      3122.03      0.59814800     0.078828088
      3125.15      0.57599417     0.077706405
      3128.28      0.56152757     0.077025127
      3131.41      0.54978883     0.076788776
      3134.54      0.52239511     0.076129701
      3137.67      0.51000139     0.075077361
      3140.81      0.48365144     0.073909454
      3143.95      0.49279833     0.073087522
      3147.10      0.50141662     0.072208019
      3150.24      0.52416134     0.071449347
      3153.39      0.51352062     0.070906116
      3156.55      0.51797868     0.069964034
      3159.70      0.51685301     0.068906468
      3162.86      0.55874836     0.067753300
      3166.03      0.58105622     0.066974955
      3169.19      0.62374617     0.066034613
      3172.36      0.65582021     0.065112874
      3175.54      0.64034782     0.064336612
      3178.71      0.61469593     0.063680635
      3181.89      0.62494880     0.062687469
      3185.07      0.64445043     0.061807410
      3188.26      0.64951421     0.061308659
      3191.45      0.64346436     0.060674443
      3194.64      0.68589179     0.060425514
      3197.83      0.65699298     0.060159069
      3201.03      0.64932189     0.058654050
      3204.23      0.64426114     0.057777060
      3207.44      0.64998544     0.057333827
      3210.64      0.63981488     0.056908162
      3213.85      0.66345657     0.056499613
      3217.07      0.65614186     0.056065454
      3220.28      0.64367133     0.056020978
      3223.51      0.62492480     0.055680287
      3226.73      0.63038332     0.055208766
      3229.96      0.65208213     0.054534931
      3233.19      0.66580027     0.054090027
      3236.42      0.69527269     0.054109382
      3239.66      0.69781765     0.054042848
      3242.90      0.70839832     0.053814939
      3246.14      0.70419799     0.053556443
      3249.39      0.69521320     0.052857906
      3252.64      0.69273086     0.052247427
      3255.89      0.69911439     0.051569007
      3259.14      0.68414341     0.051187498
      3262.40      0.65286515     0.050946103
      3265.67      0.61827151     0.051010567
      3268.93      0.60222813     0.050833722
      3272.20      0.59405921     0.050742189
      3275.47      0.57464854     0.050210955
      3278.75      0.52674073     0.049038668
      3282.03      0.52268068     0.048340542
      3285.31      0.51219533     0.047299883
      3288.60      0.51846359     0.046200950
      3291.88      0.50054237     0.045260615
      3295.18      0.48255814     0.044183318
      3298.47      0.51133906     0.043291012
      3301.77      0.51534425     0.042618963
      3305.07      0.51488442     0.041762682
      3308.38      0.55020981     0.040904517
      3311.69      0.58255503     0.040334225
      3315.00      0.62338117     0.040169759
      3318.31      0.66357819     0.039996616
      3321.63      0.69768305     0.040749802
      3324.95      0.70864106     0.041518870
      3328.28      0.71176947     0.042200535
      3331.61      0.71046550     0.043204470
      3334.94      0.69865500     0.043629548
      3338.27      0.68095396     0.043934549
      3341.61      0.65091281     0.043817279
      3344.95      0.62503480     0.043886862
      3348.30      0.60451848     0.043538867
      3351.65      0.62077597     0.043124575
      3355.00      0.61348955     0.041673823
      3358.35      0.62599307     0.040551461
      3361.71      0.61279759     0.039327177
      3365.07      0.64334658     0.038076278
      3368.44      0.66340900     0.036720009
      3371.81      0.66893943     0.035902264
      3375.18      0.68581766     0.035212544
      3378.56      0.68450472     0.034625014
      3381.94      0.71692562     0.034389461
      3385.32      0.71817370     0.033932891
      3388.70      0.75328545     0.034047252
      3392.09      0.76493517     0.034076421
      3395.48      0.77190375     0.034322213
      3398.88      0.77982882     0.034388804
      3402.28      0.78659391     0.034975173
      3405.68      0.76808234     0.035602570
      3409.09      0.74366136     0.036601183
      3412.49      0.75210054     0.036922202
      3415.91      0.73761111     0.037972044
      3419.32      0.72702501     0.038753351
      3422.74      0.73230707     0.039897690
      3426.17      0.75916632     0.040677199
      3429.59      0.77297524     0.041713264
      3433.02      0.81562924     0.042184792
      3436.45      0.82542021     0.042763772
      3439.89      0.84337711     0.042542329
      3443.33      0.86695684     0.042127268
      3446.78      0.89247564     0.041869885
      3450.22      0.93905479     0.040828828
      3453.67      0.96099193     0.039372219
      3457.13       1.0059686     0.038107332
      3460.58       1.0289734     0.036683940
      3464.04       1.0619207     0.035066537
      3467.51       1.0736195     0.034114464
      3470.98       1.0905143     0.033588660
      3474.45       1.0760781     0.033319915
      3477.92       1.0474454     0.033637352
      3481.40       1.0375008     0.033909601
      3484.88       1.0330466     0.034344064
      3488.37      0.98744942     0.034632173
      3491.86      0.96538079     0.034804841
      3495.35      0.92875174     0.034782504
      3498.84      0.89192247     0.034132668
      3502.34      0.87093600     0.033976551
      3505.84      0.83875651     0.033822573
      3509.35      0.82178040     0.033265923
      3512.86      0.80875827     0.033144719
      3516.37      0.81347223     0.032917895
      3519.89      0.85454132     0.032675226
      3523.41      0.85844807     0.032599937
      3526.93      0.88124036     0.032412142
      3530.46      0.87180219     0.032053890
      3533.99      0.87517914     0.031437214
      3537.53      0.88190284     0.030905881
      3541.06      0.87191688     0.030170937
      3544.60      0.87833807     0.029639136
      3548.15      0.88350774     0.029023865
      3551.70      0.89035225     0.028662412
      3555.25      0.89140485     0.028415832
      3558.80      0.89900738     0.028284961
      3562.36      0.88870848     0.028299730
      3565.92      0.89860397     0.028259973
      3569.49      0.91692288     0.028220515
      3573.06      0.93837816     0.028232628
      3576.64      0.95293323     0.028130063
      3580.21      0.96467568     0.028298611
      3583.79      0.98035433     0.028285896
      3587.38      0.99353656     0.028235386
      3590.96      0.97821672     0.028294877
      3594.55      0.97077097     0.028471031
      3598.15      0.95681023     0.028762535
      3601.75      0.97461378     0.028598596
      3605.35      0.98982345     0.028583426
      3608.96      0.98233358     0.028566377
      3612.56       1.0085786     0.028412797
      3616.18       1.0242384     0.028081865
      3619.79       1.0337406     0.027568055
      3623.41       1.0540256     0.026791905
      3627.04       1.0467785     0.026273748
      3630.66       1.0615743     0.025381605
      3634.29       1.0603055     0.024948488
      3637.93       1.0583535     0.024185677
      3641.57       1.0495989     0.023599162
      3645.21       1.0382814     0.023204129
      3648.86       1.0254072     0.022942998
      3652.50       1.0072313     0.022863953
      3656.16       1.0019422     0.022440075
      3659.81      0.97941660     0.022158916
      3663.47      0.96663163     0.022057633
      3667.14      0.95219918     0.022190113
      3670.80      0.95250137     0.022361771
      3674.48      0.94806663     0.023010688
      3678.15      0.93746270     0.023685822
      3681.83      0.96313379     0.024110487
      3685.51      0.98504014     0.024866693
      3689.20      0.99026957     0.025062850
      3692.88       1.0364790     0.025493454
      3696.58       1.0593072     0.025221722
      3700.27       1.0967439     0.026011396
      3703.98       1.1238267     0.025531187
      3707.68       1.1677507     0.024682435
      3711.39       1.2160731     0.024647507
      3715.10       1.2563359     0.024983202
      3718.81       1.2960610     0.025237206
      3722.53       1.3364135     0.025750021
      3726.26       1.3899322     0.025746425
      3729.98       1.3990894     0.025976530
      3733.71       1.4123560     0.025816081
      3737.45       1.4203133     0.025132978
      3741.18       1.4493833     0.024796884
      3744.93       1.4507187     0.024406036
      3748.67       1.4490632     0.024057086
      3752.42       1.4604771     0.024381678
      3756.17       1.4753996     0.023846535
      3759.93       1.4922684     0.023677684
      3763.69       1.5032500     0.024259492
      3767.45       1.4868408     0.024755128
      3771.22       1.4598458     0.025680254
      3774.99       1.4342523     0.025785311
      3778.77       1.4064322     0.026567879
      3782.54       1.3811971     0.028140140
      3786.33       1.3393419     0.029167210
      3790.11       1.2820577     0.029597874
      3793.90       1.2359296     0.030777567
      3797.70       1.1906889     0.031543632
      3801.50       1.1072613     0.031499094
      3805.30       1.0361953     0.030968385
      3809.10      0.98375379     0.030513726
      3812.91      0.94641834     0.029907694
      3816.73      0.89772438     0.028948143
      3820.54      0.86224128     0.028537120
      3824.36      0.85636590     0.028627988
      3828.19      0.84380846     0.027565132
      3832.02      0.84321857     0.027759541
      3835.85      0.82438532     0.027312753
      3839.68      0.81021937     0.027739213
      3843.52      0.79788096     0.026064299
      3847.37      0.79816476     0.025903421
      3851.22      0.81186833     0.026104231
      3855.07      0.82123688     0.027414805
      3858.92      0.82569187     0.027416679
      3862.78      0.82288262     0.027141523
      3866.64      0.84100638     0.028856227
      3870.51      0.86496924     0.028880218
      3874.38      0.86087677     0.028296438
      3878.26      0.88724668     0.027692091
      3882.13      0.92158591     0.028371422
      3886.02      0.95155865     0.028449387
      3889.90      0.99423481     0.028249473
      3893.79       1.0419312     0.027492647
      3897.69       1.1209461     0.028137647
      3901.59       1.1923717     0.028033191
      3905.49       1.2575106     0.027780186
      3909.39       1.3035317     0.026885476
      3913.30       1.3667930     0.026406141
      3917.22       1.4125408     0.025109035
      3921.13       1.4610647     0.024569481
      3925.06       1.5115075     0.024167846
      3928.98       1.5240555     0.024675003
      3932.91       1.5483978     0.024526994
      3936.84       1.5727264     0.024896237
      3940.78       1.5657931     0.024499532
      3944.72       1.5783881     0.023799164
      3948.67       1.5826729     0.023393821
      3952.61       1.5970958     0.023404333
      3956.57       1.5997148     0.023552131
      3960.52       1.6098103     0.023674226
      3964.48       1.6128370     0.023799847
      3968.45       1.6342495     0.023926621
      3972.42       1.6542422     0.023777846
      3976.39       1.6547830     0.023569844
      3980.37       1.6651745     0.023356133
      3984.35       1.6809152     0.023051227
      3988.33       1.7058472     0.022891543
      3992.32       1.7209106     0.022480887
      3996.31       1.7354813     0.022161940
      4000.31       1.7453446     0.021865316
      4004.31       1.7575509     0.021734971
      4008.31       1.7834005     0.021870961
      4012.32       1.8049032     0.022129963
      4016.33       1.8263084     0.021401135
      4020.35       1.8556220     0.021202580
      4024.37       1.8769172     0.020938577
      4028.40       1.8817794     0.020829849
      4032.42       1.8753500     0.020818873
      4036.46       1.8677989     0.020706443
      4040.50       1.8587118     0.020600298
      4044.54       1.8608407     0.020623156
      4048.58       1.8362637     0.020588506
      4052.63       1.8165136     0.020785916
      4056.68       1.8031479     0.021415598
      4060.74       1.7764676     0.021779080
      4064.80       1.7501645     0.021376839
      4068.86       1.7261710     0.021536422
      4072.93       1.6862710     0.022385284
      4077.01       1.6488941     0.022905993
      4081.08       1.6308055     0.023498981
      4085.17       1.6007899     0.024395040
      4089.25       1.5813379     0.025477977
      4093.34       1.5612819     0.026451129
      4097.43       1.5461866     0.027607973
      4101.53       1.5047800     0.028163518
      4105.63       1.4621238     0.028388255
      4109.74       1.4512732     0.028267081
      4113.85       1.4454094     0.027454572
      4117.96       1.4653859     0.026336933
      4122.08       1.4970687     0.025111226
      4126.20       1.5092246     0.024027961
      4130.33       1.5100745     0.023289328
      4134.46       1.5244271     0.023307093
      4138.59       1.5135695     0.022410868
      4142.73       1.4877644     0.021670518
      4146.88       1.4714328     0.021591592
      4151.02       1.4292498     0.021934769
      4155.18       1.4237665     0.021650528
      4159.33       1.4170511     0.021472938
      4163.49       1.3926229     0.021432084
      4167.65       1.3823664     0.021401089
      4171.82       1.3701915     0.021239716
      4175.99       1.3548034     0.021068024
      4180.17       1.3384596     0.020909556
      4184.35       1.3348806     0.020584998
      4188.54       1.3346273     0.020426741
      4192.72       1.3152791     0.020317573
      4196.92       1.3050150     0.020187058
      4201.11       1.2912689     0.020105309
      4205.31       1.2608510     0.020045967
      4209.52       1.2330920     0.019961369
      4213.73       1.2098250     0.019912294
      4217.94       1.1811496     0.019782504
      4222.16       1.1595918     0.019797758
      4226.38       1.1554062     0.019958035
      4230.61       1.1643144     0.019988560
      4234.84       1.1784226     0.020026250
      4239.08       1.1862894     0.020040851
      4243.32       1.2048401     0.019911055
      4247.56       1.2296895     0.019916653
      4251.81       1.2652624     0.019871907
      4256.06       1.2812348     0.019843647
      4260.32       1.3023095     0.019830408
      4264.58       1.3151992     0.019828129
      4268.84       1.3248621     0.019716579
      4273.11       1.3122981     0.019878794
      4277.38       1.3035386     0.019894002
      4281.66       1.2811708     0.019877168
      4285.94       1.2574133     0.019846223
      4290.23       1.2427050     0.019665787
      4294.52       1.2148731     0.019599407
      4298.81       1.1889966     0.019502731
      4303.11       1.1788261     0.019514501
      4307.42       1.1636339     0.019311929
      4311.72       1.1394085     0.019202414
      4316.04       1.1155927     0.019121908
      4320.35       1.1110226     0.019061931
      4324.67       1.1097354     0.019406742
      4329.00       1.1171390     0.019035242
      4333.33       1.1338217     0.018848091
      4337.66       1.1405482     0.018827849
      4342.00       1.1675560     0.018845679
      4346.34       1.1823789     0.019024226
      4350.69       1.2140106     0.019253026
      4355.04       1.2465398     0.019616819
      4359.39       1.2672150     0.019717201
      4363.75       1.2806120     0.019851610
      4368.12       1.2952914     0.019801210
      4372.48       1.3067543     0.019667869
      4376.86       1.3092676     0.019727521
      4381.23       1.2968619     0.019667816
      4385.61       1.2864358     0.019631629
      4390.00       1.2666094     0.019551060
      4394.39       1.2526336     0.019672654
      4398.79       1.2415553     0.019771811
      4403.18       1.2339746     0.019924043
      4407.59       1.2102143     0.020444153
      4412.00       1.2012939     0.020204802
      4416.41       1.1949157     0.019921838
      4420.82       1.1933791     0.019852439
      4425.25       1.2008723     0.019739251
      4429.67       1.2070950     0.019643924
      4434.10       1.2310466     0.019561737
      4438.54       1.2409561     0.019434234
      4442.97       1.2408332     0.019548362
      4447.42       1.2335961     0.019896112
      4451.86       1.2268868     0.020027231
      4456.32       1.2157751     0.020234513
      4460.77       1.2032492     0.020584969
      4465.24       1.1896899     0.020624697
      4469.70       1.1730928     0.020581610
      4474.17       1.1576303     0.020302329
      4478.65       1.1598595     0.020233064
      4483.12       1.1472132     0.019986468
      4487.61       1.1600161     0.019833556
      4492.09       1.1629287     0.019874159
      4496.59       1.1937339     0.019009160
      4501.08       1.2251179     0.018784483
      4505.58       1.2557292     0.018747625
      4510.09       1.3013630     0.018900612
      4514.60       1.3430960     0.019154024
      4519.12       1.3840158     0.019426837
      4523.63       1.4205145     0.019655022
      4528.16       1.4663049     0.019912132
      4532.69       1.4929335     0.020065896
      4537.22       1.5134283     0.020096064
      4541.76       1.5390004     0.020318896
      4546.30       1.5686941     0.020377762
      4550.85       1.5877963     0.020877166
      4555.40       1.5899717     0.020317947
      4559.95       1.6090871     0.020208035
      4564.51       1.6238579     0.020265036
      4569.08       1.6356865     0.020445871
      4573.65       1.6590209     0.020819179
      4578.22       1.6610836     0.021350978
      4582.80       1.6602430     0.021044918
      4587.38       1.6766451     0.021369954
      4591.97       1.6916042     0.021319724
      4596.56       1.7219087     0.021267582
      4601.16       1.7477376     0.021178365
      4605.76       1.7550877     0.021014184
      4610.37       1.7831421     0.020800534
      4614.98       1.7942446     0.020527865
      4619.59       1.7971739     0.020246948
      4624.21       1.8010695     0.020015727
      4628.84       1.7974781     0.019901934
      4633.47       1.8074966     0.019949324
      4638.10       1.8162208     0.020279735
      4642.74       1.8165543     0.019652787
      4647.38       1.8088956     0.019772953
      4652.03       1.7848922     0.019686404
      4656.68       1.7589115     0.019792340
      4661.34       1.7339528     0.019663545
      4666.00       1.7109403     0.019666700
      4670.67       1.6655246     0.019803026
      4675.33       1.6509904     0.020125038
      4680.01       1.6348530     0.020433394
      4684.69       1.6221208     0.020830446
      4689.38       1.6096714     0.021072938
      4694.07       1.5799991     0.021386067
      4698.76       1.5701939     0.021337556
      4703.46       1.5335883     0.021423670
      4708.16       1.5054954     0.021002310
      4712.87       1.4882952     0.020611170
      4717.58       1.4771064     0.020243710
      4722.30       1.4761672     0.019711334
      4727.03       1.4664790     0.019197220
      4731.75       1.4485544     0.018935395
      4736.48       1.4196155     0.018710130
      4741.22       1.4028324     0.018436805
      4745.96       1.3834830     0.018462831
      4750.71       1.3699766     0.018410007
      4755.46       1.3625314     0.018283912
      4760.22       1.3505934     0.018185709
      4764.97       1.3402467     0.018329218
      4769.74       1.3304716     0.018529771
      4774.51       1.3323113     0.018741272
      4779.29       1.3209494     0.019209712
      4784.07       1.3016923     0.019559341
      4788.85       1.3007157     0.019707383
      4793.64       1.2842509     0.020234307
      4798.43       1.2807130     0.020264905
      4803.23       1.2763223     0.019883082
      4808.03       1.2676031     0.019706021
      4812.84       1.2564547     0.019669759
      4817.66       1.2355118     0.019588935
      4822.48       1.2148509     0.019427744
      4827.30       1.2006472     0.019256975
      4832.12       1.2072235     0.019228490
      4836.96       1.1974875     0.019458567
      4841.79       1.2148376     0.019744653
      4846.63       1.2451153     0.019695551
      4851.48       1.2763498     0.019505125
      4856.33       1.2861833     0.019420248
      4861.19       1.3136020     0.019162252
      4866.05       1.3450319     0.018851631
      4870.92       1.3625143     0.018736180
      4875.79       1.3821475     0.018738261
      4880.66       1.3981843     0.018361778
      4885.55       1.3953705     0.018611048
      4890.43       1.3937245     0.018734228
      4895.32       1.3882845     0.018713364
      4900.22       1.3668325     0.019055763
      4905.12       1.3434901     0.019516746
      4910.02       1.3030075     0.019845984
      4914.94       1.2786423     0.020147209
      4919.85       1.2462372     0.020194035
      4924.77       1.2317994     0.020175539
      4929.70       1.2170429     0.019998209
      4934.62       1.2213270     0.019835151
      4939.56       1.2240921     0.019656361
      4944.50       1.2493023     0.019468183
      4949.44       1.2514776     0.019328966
      4954.39       1.2800579     0.019161179
      4959.35       1.2978882     0.019219577
      4964.31       1.3239979     0.019521018
      4969.27       1.3522409     0.019948295
      4974.24       1.3815719     0.019595838
      4979.22       1.4029246     0.019718561
      4984.20       1.4330251     0.019819951
      4989.18       1.4477148     0.020058861
      4994.17       1.4414962     0.020287723
      4999.16       1.4443554     0.020605457
      5004.16       1.4439573     0.020973338
      5009.17       1.4425235     0.021276493
      5014.18       1.4351569     0.021395116
      5019.19       1.4225959     0.021805743
      5024.21       1.4204529     0.022271757
      5029.23       1.4054881     0.022659226
      5034.26       1.3657220     0.023081025
      5039.30       1.3473849     0.023441940
      5044.34       1.2989369     0.023772121
      5049.39       1.2605176     0.024084559
      5054.43       1.2075802     0.024403911
      5059.49       1.1700968     0.024537153
      5064.55       1.1352704     0.024745719
      5069.61       1.1185421     0.024970217
      5074.68       1.0720022     0.025227504
      5079.76       1.0506403     0.025590680
      5084.84       1.0247323     0.026029728
      5089.92       1.0176944     0.026594972
      5095.01       1.0230371     0.027238852
      5100.11       1.0348303     0.027905816
      5105.21       1.0317979     0.028468808
      5110.31       1.0495166     0.028696347
      5115.42       1.0666355     0.029217337
      5120.54       1.0989745     0.029899901
      5125.66       1.1069060     0.030495160
      5130.79       1.0998134     0.031105409
      5135.92       1.1330324     0.031688654
      5141.05       1.1494237     0.032080976
      5146.20       1.1449563     0.032393165
      5151.34       1.1496589     0.032758776
      5156.49       1.1853206     0.032938219
      5161.65       1.1888249     0.032815125
      5166.81       1.2002877     0.032746078
      5171.98       1.2161676     0.032262237
      5177.15       1.2379641     0.032070744
      5182.33       1.2600033     0.031850836
      5187.51       1.2844707     0.031675620
      5192.70       1.2751202     0.031642097
      5197.89       1.2749611     0.031856821
      5203.09       1.2692893     0.032211913
      5208.29       1.2776568     0.032405871
      5213.50       1.2710707     0.032659872
      5218.72       1.2666129     0.032870231
      5223.93       1.2527020     0.032350115
      5229.16       1.2628335     0.032576525
      5234.39       1.2679486     0.032689409
      5239.62       1.2807669     0.033510931
      5244.86       1.2893450     0.033801695
      5250.11       1.2950008     0.034674042
      5255.36       1.3058055     0.035287060
      5260.61       1.3006229     0.035711007
      5265.87       1.2972408     0.035192634
      5271.14       1.3001916     0.034950408
      5276.41       1.3000923     0.034649662
      5281.69       1.3181064     0.034089295
      5286.97       1.3091208     0.033377844
      5292.26       1.3081151     0.032811048
      5297.55       1.3111857     0.032188909
      5302.85       1.3300450     0.031941928
      5308.15       1.3273999     0.031909441
      5313.46       1.3409177     0.031998830
      5318.77       1.3432823     0.031816239
      5324.09       1.3549780     0.031524884
      5329.42       1.3849506     0.031564070
      5334.75       1.3923060     0.031578054
      5340.08       1.4128819     0.032074004
      5345.42       1.4252612     0.032218830
      5350.77       1.4318045     0.033168035
      5356.12       1.4433424     0.033275253
      5361.48       1.4483641     0.033279204
      5366.83       1.4545666     0.033156866
      5372.20       1.4647671     0.033257560
      5377.58       1.4833154     0.032875729
      5382.95       1.4600639     0.032433652
      5388.34       1.4453729     0.031940010
      5393.72       1.4454532     0.031424731
      5399.12       1.4272167     0.030940828
      5404.52       1.4031866     0.030624434
      5409.92       1.3913553     0.030494688
      5415.33       1.3731154     0.030465483
      5420.75       1.3587780     0.030858187
      5426.17       1.3474210     0.030898937
      5431.60       1.3305163     0.031016484
      5437.03       1.3115273     0.031206710
      5442.47       1.3141255     0.031386479
      5447.91       1.3181898     0.031524731
      5453.36       1.3247920     0.031585503
      5458.81       1.3342114     0.031164055
      5464.27       1.3411713     0.031117833
      5469.73       1.3747486     0.031021323
      5475.20       1.3997739     0.030922879
      5480.68       1.4181329     0.030838946
      5486.16       1.4101720     0.030794985
      5491.65       1.4135211     0.030825338
      5497.14       1.4223295     0.031056931
      5502.64       1.4197172     0.031348175
      5508.14       1.4281168     0.031614249
      5513.65       1.4258794     0.031762116
      5519.16       1.3789457     0.032055833
      5524.68       1.3520547     0.032810314
      5530.20       1.3129900     0.033292261
      5535.73       1.2760027     0.034395090
      5541.27       1.2338653     0.035490603
      5546.81       1.2061021     0.036420967
      5552.36       1.1543138     0.037079703
      5557.91       1.1191179     0.037975372
      5563.47       1.0872461     0.037978400
      5569.04       1.0898816     0.037514794
      5574.60       1.1180636     0.036703464
      5580.18       1.1028103     0.035703404
      5585.76       1.1166738     0.034607252
      5591.35       1.1141501     0.033567192
      5596.94       1.1326311     0.032718531
      5602.53       1.1791896     0.032320259
      5608.14       1.2029430     0.032193912
      5613.75       1.2272530     0.031915664
      5619.36       1.2333415     0.031469243
      5624.98       1.2434697     0.031002712
      5630.60       1.2560704     0.030671593
      5636.23       1.2607526     0.030412900
      5641.87       1.2595343     0.030154267
      5647.51       1.2673580     0.029869193
      5653.16       1.2629678     0.029572757
      5658.82       1.2485718     0.028851351
      5664.47       1.2427183     0.028248732
      5670.14       1.2366109     0.027955137
      5675.81       1.2410424     0.027652045
      5681.48       1.2306760     0.027350219
      5687.17       1.2015557     0.027067397
      5692.85       1.2008286     0.026795976
      5698.55       1.1896118     0.026541930
      5704.25       1.1881756     0.026312575
      5709.95       1.1815585     0.026104614
      5715.66       1.1673371     0.025880624
      5721.38       1.1629154     0.025644272
      5727.10       1.1541102     0.025463288
      5732.83       1.1455191     0.025372174
      5738.56       1.1279893     0.025349174
      5744.30       1.1132363     0.025361294
      5750.04       1.1036026     0.025382768
      5755.79       1.1045639     0.025393582
      5761.55       1.0881834     0.025376450
      5767.31       1.0675014     0.025319154
      5773.08       1.0560605     0.025235161
      5778.85       1.0317418     0.025412831
      5784.63       1.0198237     0.025259709
      5790.41       1.0087035     0.025076066
      5796.21       1.0116890     0.024547169
      5802.00       1.0206903     0.024346004
      5807.81       1.0211073     0.024156576
      5813.61       1.0353786     0.023991080
      5819.43       1.0454039     0.023856264
      5825.25       1.0489930     0.023720944
      5831.07       1.0678548     0.023546691
      5836.90       1.0753382     0.023352554
      5842.74       1.0923961     0.023230906
      5848.58       1.1124180     0.023185309
      5854.43       1.1261433     0.023168508
      5860.29       1.1344413     0.023178256
      5866.15       1.1411444     0.022976544
      5872.01       1.1391233     0.023025244
      5877.89       1.1252694     0.023047978
      5883.76       1.1123663     0.023076568
      5889.65       1.0951915     0.023070096
      5895.54       1.0902964     0.022979593
      5901.43       1.0837773     0.022864432
      5907.34       1.0855691     0.022805423
      5913.24       1.0829961     0.023057682
      5919.16       1.0741816     0.023036801
      5925.08       1.0774377     0.022714366
      5931.00       1.0708470     0.022672551
      5936.93       1.0647315     0.022628833
      5942.87       1.0687281     0.022512816
      5948.81       1.0670444     0.022299825
      5954.76       1.0777740     0.022056870
      5960.72       1.0776924     0.021821376
      5966.68       1.0792595     0.021571417
      5972.64       1.0757170     0.021034063
      5978.62       1.0730960     0.020816823
      5984.60       1.0718731     0.020876320
      5990.58       1.0581318     0.020783487
      5996.57       1.0501517     0.020749915
      6002.57       1.0499862     0.020684151
      6008.57       1.0440337     0.020552110
      6014.58       1.0353829     0.020407146
      6020.60       1.0370740     0.020041539
      6026.62       1.0251710     0.019946719
      6032.65       1.0143971     0.019834315
      6038.68       1.0121170     0.019717987
      6044.72      0.99821581     0.019805607
      6050.76      0.99202736     0.019694812
      6056.81      0.99304450     0.019332734
      6062.87      0.99339718     0.019254634
      6068.93      0.99634384     0.019225902
      6075.00      0.99578487     0.019220183
      6081.08       1.0037114     0.019186418
      6087.16       1.0093769     0.019125159
      6093.25       1.0142418     0.019071826
      6099.34       1.0127399     0.019058654
      6105.44       1.0127859     0.019025348
      6111.54       1.0249879     0.018955743
      6117.66       1.0272786     0.018866519
      6123.78       1.0192372     0.018773560
      6129.90       1.0202355     0.018391388
      6136.03       1.0268721     0.018263388
      6142.17       1.0195600     0.018373703
      6148.31       1.0272634     0.018296577
      6154.46       1.0257970     0.018214296
      6160.61       1.0289825     0.017909468
      6166.77       1.0410098     0.017817376
      6172.94       1.0592219     0.017708201
      6179.11       1.0720235     0.017804015
      6185.29       1.0832639     0.017737935
      6191.48       1.0924052     0.017454459
      6197.67       1.0887609     0.017339181
      6203.87       1.0889428     0.017203950
      6210.07       1.0853980     0.017085892
      6216.28       1.0743911     0.017183569
      6222.50       1.0604381     0.016888919
      6228.72       1.0475499     0.016799795
      6234.95       1.0282048     0.016722600
      6241.19       1.0087212     0.016664950
      6247.42      0.99554455     0.016412726
      6253.67      0.98090543     0.016544994
      6259.93      0.96757741     0.016531355
      6266.19      0.96038648     0.016508207
      6272.46      0.94598038     0.016475899
      6278.73      0.95134096     0.016268919
      6285.01      0.95869558     0.016462127
      6291.29      0.96636135     0.016445995
      6297.58      0.96322986     0.016423759
      6303.88      0.96565746     0.016225055
      6310.19      0.96762813     0.016212275
      6316.50      0.96221897     0.016374553
      6322.81      0.95836120     0.016321025
      6329.14      0.95829639     0.016063773
      6335.47      0.95377741     0.015995140
      6341.80      0.95609735     0.015920459
      6348.14      0.95996063     0.015986526
      6354.49      0.96381752     0.015682592
      6360.85      0.95860015     0.015572695
      6367.21      0.96310470     0.015464014
      6373.57      0.96650960     0.015503666
      6379.95      0.97101639     0.015294303
      6386.33      0.96998377     0.015222159
      6392.72      0.97541573     0.015081423
      6399.11      0.98376765     0.014758200
      6405.51      0.98860896     0.014895791
      6411.92      0.99509677     0.014974858
      6418.32      0.99299895     0.015104046
      6424.74      0.99861700     0.015054041
      6431.17      0.99739811     0.015332707
      6437.60      0.99467828     0.015472702
      6444.04      0.99300882     0.015552465
      6450.48      0.99910750     0.015744426
      6456.94      0.99981498     0.016177755
      6463.39       1.0022820     0.016265584
      6469.85       1.0010862     0.016419000
      6476.33      0.99886807     0.016527098
      6482.80      0.99497805     0.016837741
      6489.28      0.99852693     0.016784507
      6495.77      0.99631652     0.016870885
      6502.27      0.99985349     0.016960337
      6508.77      0.99964688     0.016963194
      6515.28       1.0152769     0.016857787
      6521.80       1.0104701     0.016741967
      6528.32       1.0054842     0.016625357
      6534.85       1.0089317     0.016610706
      6541.38       1.0129432     0.016601980
      6547.92       1.0135468     0.016337102
      6554.47       1.0092935     0.016351759
      6561.03       1.0094411     0.016204413
      6567.59       1.0109953     0.015865672
      6574.16       1.0055463     0.015865056
      6580.73       1.0043451     0.015730195
      6587.31      0.99760621     0.015402845
      6593.90      0.98947333     0.015251792
      6600.50      0.97134816     0.015188906
      6607.10      0.95485210     0.014868473
      6613.70      0.94211129     0.014772097
      6620.32      0.92995809     0.014796064
      6626.94      0.91910810     0.014499600
      6633.57      0.90753705     0.014393315
      6640.20      0.90693693     0.014468406
      6646.84      0.88661958     0.014239629
      6653.49      0.87161231     0.014165432
      6660.14      0.86339774     0.014060613
      6666.80      0.86035826     0.014004341
      6673.47      0.85096630     0.013959581
      6680.14      0.85079794     0.013859481
      6686.82      0.85917906     0.013774371
      6693.51      0.86289495     0.013717600
      6700.20      0.86689237     0.013687795
      6706.90      0.87341732     0.013691785
      6713.61      0.87473504     0.013588305
      6720.32      0.87528204     0.013768945
      6727.05      0.86769920     0.013830998
      6733.77      0.86414575     0.013811114
      6740.51      0.86430722     0.014085120
      6747.25      0.86127348     0.014107830
      6754.00      0.86099219     0.014235242
      6760.75      0.85907706     0.014585743
      6767.51      0.85710197     0.014646564
      6774.28      0.83755271     0.014733385
      6781.05      0.81455945     0.014804030
      6787.84      0.80197377     0.014915413
      6794.62      0.79682155     0.015337192
      6801.42      0.78412987     0.015555533
      6808.22      0.77885678     0.015795428
      6815.03      0.77589184     0.016193409
      6821.85      0.76453814     0.016510989
      6828.67      0.76064251     0.016764921
      6835.50      0.76217974     0.017421237
      6842.33      0.75698971     0.017698158
      6849.17      0.74610235     0.017928205
      6856.02      0.73520476     0.018047922
      6862.88      0.72480091     0.017903546
      6869.74      0.72789167     0.017897721
      6876.61      0.72351709     0.017629893
      6883.49      0.72558837     0.017793274
      6890.37      0.70315271     0.017666446
      6897.27      0.69544159     0.017617085
      6904.16      0.67973568     0.017864094
      6911.07      0.67413801     0.018217964
      6917.98      0.68233369     0.017942774
      6924.89      0.68273046     0.017149575
      6931.82      0.67909235     0.017213945
      6938.75      0.68242897     0.017311964
      6945.69      0.68487962     0.017486514
      6952.64      0.68796812     0.017611152
      6959.59      0.69668718     0.017664460
      6966.55      0.70483874     0.017601925
      6973.52      0.70107499     0.017566132
      6980.49      0.71272168     0.017041051
      6987.47      0.71861171     0.016970624
      6994.46      0.72795522     0.016413604
      7001.46      0.73427737     0.016086871
      7008.46      0.73394411     0.015687082
      7015.46      0.73312112     0.015711460
      7022.48      0.73229703     0.015495395
      7029.51      0.73714718     0.015717872
      7036.53      0.73409530     0.016123124
      7043.57      0.74229451     0.016629200
      7050.62      0.74390642     0.016025394
      7057.66      0.73415470     0.015911638
      7064.72      0.73558069     0.016005294
      7071.79      0.73293059     0.016114022
      7078.86      0.72599362     0.016259783
      7085.94      0.71557586     0.016248824
      7093.03      0.70743057     0.016248968
      7100.12      0.70431621     0.016342144
      7107.22      0.70534749     0.016632251
      7114.33      0.71465420     0.016730810
      7121.44      0.70640830     0.016770086
      7128.56      0.69757581     0.016867092
      7135.69      0.69182834     0.017174405
      7142.83      0.68530354     0.017484802
      7149.97      0.67585964     0.018213217
      7157.12      0.66744339     0.018869950
      7164.28      0.65016359     0.020071921
      7171.44      0.64840933     0.020463874
      7178.62      0.64735874     0.021205630
      7185.80      0.65281550     0.021219561
      7192.98      0.64905610     0.021580549
      7200.17      0.66823146     0.021114219
      7207.38      0.68631587     0.021004156
      7214.58      0.70488353     0.020079500
      7221.80      0.72444120     0.019026640
      7229.02      0.72932309     0.017968233
      7236.25      0.75218163     0.017505883
      7243.49      0.76776519     0.017403953
      7250.73      0.76935526     0.017115244
      7257.98      0.77354948     0.016937194
      7265.24      0.78508137     0.017045232
      7272.51      0.78349079     0.017190615
      7279.78      0.77474134     0.017437611
      7287.06      0.76848482     0.017424034
      7294.35      0.75330005     0.017629980
      7301.64      0.74749658     0.017480808
      7308.94      0.74166836     0.017658260
      7316.25      0.73539612     0.017370354
      7323.57      0.71969338     0.017338866
      7330.89      0.71112335     0.017603732
      7338.22      0.71292121     0.017695644
      7345.56      0.71875922     0.018259185
      7352.91      0.71623869     0.018154164
      7360.26      0.71143902     0.018165280
      7367.62      0.70339218     0.018296345
      7374.99      0.71173074     0.018761544
      7382.37      0.70682560     0.019378901
      7389.75      0.71258949     0.019531344
      7397.14      0.71408222     0.019810249
      7404.53      0.72057430     0.019930101
      7411.94      0.70963956     0.020117766
      7419.35      0.70475197     0.020064986
      7426.77      0.70980076     0.020456595
      7434.20      0.70251300     0.020544151
      7441.63      0.71048262     0.020518318
      7449.07      0.70997152     0.020733965
      7456.52      0.70755044     0.020306520
      7463.98      0.69857715     0.020279935
      7471.45      0.70236022     0.020321671
      7478.92      0.70959838     0.019979952
      7486.40      0.70920911     0.020098614
      7493.88      0.70052311     0.019911284
      7501.38      0.69095626     0.019901979
      7508.88      0.68379371     0.019919297
      7516.39      0.67449365     0.019544685
      7523.91      0.67675780     0.019459924
      7531.43      0.66338817     0.019534308
      7538.96      0.64698224     0.019559967
      7546.50      0.63882999     0.019093618
      7554.05      0.61737592     0.018784405
      7561.60      0.59630412     0.018341929
      7569.16      0.59397705     0.017944479
      7576.73      0.57926935     0.017359327
      7584.31      0.55798005     0.017173046
      7591.89      0.54158398     0.016717254
      7599.49      0.52126244     0.016250458
      7607.09      0.50394470     0.016169681
      7614.70      0.49218663     0.015792010
      7622.31      0.48682340     0.015439801
      7629.93      0.47822721     0.015402979
      7637.56      0.48126681     0.015169008
      7645.20      0.48970929     0.015104671
      7652.85      0.50548662     0.014939906
      7660.50      0.52067285     0.014831417
      7668.16      0.54275870     0.014817638
      7675.83      0.55526443     0.014905398
      7683.50      0.57730589     0.014963503
      7691.19      0.60233827     0.015098365
      7698.88      0.62590148     0.015315524
      7706.58      0.64456702     0.015355953
      7714.29      0.67051613     0.015724506
      7722.00      0.68010769     0.015858478
      7729.73      0.68737618     0.015793513
      7737.45      0.69796787     0.015948256
      7745.19      0.69324637     0.016097015
      7752.94      0.69377778     0.016005142
      7760.69      0.68887426     0.015713694
      7768.45      0.69324890     0.015612425
      7776.22      0.69395270     0.015861438
      7784.00      0.69364976     0.016021018
      7791.78      0.69559709     0.016648826
      7799.57      0.70561534     0.017353399
      7807.37      0.70380384     0.017897463
      7815.18      0.70487750     0.017849520
      7822.99      0.70686651     0.018115123
      7830.82      0.71465203     0.018906750
      7838.65      0.71943093     0.019565694
      7846.49      0.71862620     0.020627086
      7854.34      0.70596787     0.019126254
      7862.19      0.69484961     0.018973555
      7870.05      0.68918236     0.019274315
      7877.93      0.67525864     0.020051728
      7885.80      0.66931215     0.020879910
      7893.69      0.63589373     0.021620946
      7901.58      0.62652739     0.022172489
      7909.49      0.61094841     0.022647782
      7917.40      0.61025024     0.022423972
      7925.31      0.59977018     0.021650632
      7933.24      0.59639481     0.020927484
      7941.17      0.61071386     0.020585707
      7949.11      0.60843017     0.020012160
      7957.06      0.59941769     0.019169741
      7965.02      0.58881267     0.018185076
      7972.98      0.58661779     0.017742162
      7980.96      0.58939345     0.019028898
      7988.94      0.59026553     0.017972730
      7996.93      0.59157502     0.017047179
      8004.93      0.58687135     0.016510809
      8012.93      0.57805790     0.016117773
      8020.95      0.57704497     0.015912167
      8028.97      0.56858237     0.015731256
      8036.99      0.56367049     0.015320563
      8045.03      0.56197603     0.015039661
      8053.08      0.56868876     0.015027807
      8061.13      0.56504392     0.015123015
      8069.20      0.56451022     0.014891144
      8077.26      0.56330616     0.014597174
      8085.34      0.56897930     0.014697888
      8093.43      0.56590688     0.014961002
      8101.52      0.55420924     0.015187524
      8109.62      0.55138971     0.015375920
      8117.73      0.54279736     0.015602096
      8125.85      0.53624868     0.016119664
      8133.98      0.52927838     0.016740847
      8142.11      0.52169177     0.017189271
      8150.25      0.50997028     0.017330265
      8158.41      0.50086336     0.017309822
      8166.56      0.49936527     0.016947982
      8174.73      0.50504418     0.016645683
      8182.91      0.50421238     0.016417039
      8191.09      0.50294380     0.016266320
      8199.28      0.51166337     0.015674767
      8207.48      0.51456757     0.014995370
      8215.69      0.49955428     0.014471055
      8223.91      0.48856334     0.014261659
      8232.13      0.47800677     0.014454279
      8240.36      0.47034800     0.015003570
      8248.60      0.45959644     0.015684232
      8256.85      0.44201808     0.016132089
      8265.11      0.41368945     0.016323394
      8273.37      0.37214035     0.016550068
      8281.65      0.33894186     0.016663089
      8289.93      0.31117533     0.017048481
      8298.22      0.27876769     0.017204027
      8306.52      0.25513995     0.017234918
      8314.83      0.24268388     0.017003836
      8323.14      0.22741241     0.016819830
      8331.46      0.22961267     0.016897354
      8339.80      0.23833571     0.017377501
      8348.13      0.23810174     0.017546683
      8356.48      0.23808266     0.017676056
      8364.84      0.23681832     0.018153700
      8373.21      0.23808850     0.018185600
      8381.58      0.24787324     0.017471081
      8389.96      0.26378731     0.017556898
      8398.35      0.28525697     0.018161049
      8406.75      0.29687320     0.019026984
      8415.16      0.31203355     0.019200811
      8423.57      0.31526139     0.018859230
      8432.00      0.31517038     0.018711543
      8440.43      0.31533573     0.018658382
      8448.87      0.32112664     0.018177659
      8457.32      0.32199966     0.017736770
      8465.78      0.34214124     0.017046135
      8474.25      0.34899130     0.016257872
      8482.72      0.35622436     0.015667600
      8491.20      0.37192236     0.015216547
      8499.69      0.39156571     0.014736331
      8508.19      0.39745249     0.014205886
      8516.70      0.41537413     0.014107996
      8525.22      0.43643204     0.014095107
      8533.75      0.45731062     0.013608138
      8542.28      0.47841253     0.013222129
      8550.82      0.49982953     0.013093272
      8559.37      0.52481394     0.013119101
      8567.93      0.55069948     0.013033927
      8576.50      0.57672738     0.012855018
      8585.08      0.59083227     0.012652618
      8593.66      0.60472665     0.012581647
      8602.26      0.61344283     0.012598165
      8610.86      0.62628161     0.012645435
      8619.47      0.62734507     0.012608747
      8628.09      0.63325252     0.012442214
      8636.72      0.62567576     0.012322425
      8645.36      0.61769502     0.012268825
      8654.00      0.60932935     0.012231907
      8662.66      0.59932537     0.012190056
      8671.32      0.58931122     0.012094857
      8679.99      0.58491488     0.011886711
      8688.67      0.57202333     0.011902876
      8697.36      0.56266957     0.012000532
      8706.06      0.55816702     0.012047470
      8714.76      0.54966039     0.012027121
      8723.48      0.53907520     0.011974493
      8732.21      0.52650835     0.012068868
      8740.93      0.50788095     0.012427866
      8749.68      0.49267815     0.012994113
      8758.43      0.47521015     0.013731908
      8767.19      0.45558059     0.014605341
      8775.96      0.44027837     0.015618649
      8784.73      0.41439223     0.016804940
      8793.52      0.40010280     0.017816760
      8802.31      0.37099427     0.018762501
      8811.11      0.35500285     0.019503838
      8819.92      0.33937812     0.019987847
      8828.75      0.32364675     0.019794407
      8837.57      0.31536511     0.019354386
      8846.41      0.30636571     0.018847702
      8855.26      0.29186124     0.018661858
      8864.12      0.28307795     0.018867133
      8872.98      0.27590330     0.019141378
      8881.85      0.25583095     0.019334375
      8890.73      0.24202983     0.019502849
      8899.63      0.23505801     0.019732641
      8908.52      0.21173864     0.019778659
      8917.43      0.20943230     0.020250195
      8926.35      0.20566228     0.021040422
      8935.28      0.20816297     0.020929523
      8944.22      0.22058221     0.020219276
      8953.16      0.23334912     0.019340043
      8962.11      0.24621768     0.018939575
      8971.08      0.26419797     0.018660259
      8980.05      0.28762546     0.018279331
      8989.03      0.30495954     0.018142695
      8998.02      0.32075980     0.017609958
      9007.02      0.33286664     0.017153512
      9016.02      0.33896137     0.016871055
      9025.04      0.34021927     0.016569814
      9034.07      0.34365407     0.016312862
      9043.10      0.33976038     0.015866023
      9052.14      0.33672764     0.015588793
      9061.20      0.33119618     0.015229006
      9070.26      0.32619704     0.014992011
      9079.33      0.31795783     0.014895614
      9088.41      0.30956214     0.014689864
      9097.50      0.30089270     0.014818605
      9106.60      0.30117774     0.015263695
      9115.70      0.29867526     0.015468267
      9124.82      0.30188391     0.015841843
      9133.94      0.29978705     0.016056002
      9143.08      0.30275475     0.016030812
      9152.22      0.30774229     0.015934644
      9161.37      0.30496021     0.015856239
      9170.54      0.30483304     0.015837216
      9179.71      0.30644825     0.015937573
      9188.89      0.30118342     0.015700594
      9198.08      0.30690770     0.015614147
      9207.28      0.29860458     0.015567699
      9216.48      0.29252248     0.015404485
      9225.70      0.28376725     0.015266256
      9234.92      0.28376214     0.015441437
      9244.16      0.28087549     0.015540664
      9253.40      0.27385682     0.015682039
      9262.66      0.27094300     0.015821362
      9271.92      0.27222231     0.016150473
      9281.20      0.26500415     0.016359085
      9290.48      0.25893621     0.016636428
      9299.77      0.25593695     0.016799262
      9309.07      0.25215275     0.017157459
      9318.38      0.24969019     0.017574281
      9327.69      0.24953001     0.017873086
      9337.02      0.25172675     0.018076794
      9346.36      0.25011228     0.018568204
      9355.71      0.25242314     0.019255987
      9365.07      0.26128571     0.020366091
      9374.43      0.24886365     0.021022816
      9383.80      0.24494740     0.021116948
      9393.19      0.22977307     0.021281732
      9402.58      0.21846437     0.021546074
      9411.98      0.21464470     0.021863967
      9421.40      0.21182439     0.022043007
      9430.82      0.20812363     0.022530859
      9440.25      0.19814137     0.022993437
      9449.69      0.19848027     0.023411566
      9459.14      0.18584801     0.024167304
      9468.60      0.17367189     0.024552280
      9478.07      0.16373586     0.024941730
      9487.55      0.16022623     0.025375376
      9497.04      0.15453242     0.025867591
      9506.53      0.16426821     0.026672817
      9516.04      0.16324460     0.027245127
      9525.56      0.15169290     0.028030571
      9535.08      0.15937815     0.029616191
      9544.62      0.15859785     0.031345318
      9554.16      0.15290792     0.032432065
      9563.72      0.15422912     0.033451900
      9573.29      0.14420397     0.034461802
      9582.85      0.14051038     0.035916890
      9592.44      0.13792517     0.038048409
      9602.03      0.14168307     0.041027735
      9611.63      0.14570714     0.045472148
      9621.25      0.14981573     0.049630719
      9630.87      0.14285921     0.053374068
      9640.50      0.13250359     0.058823261
      9650.14      0.11999091     0.064862026
      9659.79      0.11409513     0.075244071
      9669.45      0.10770845     0.087160388
      9679.12      0.10676545      0.10265129
      9688.80     0.099649332      0.12599857
      9698.49      0.10869698      0.15180411
      9708.19      0.13069918      0.18541550
