# starting wavelength =        2907.9934
# ending wavelength =        8473.4914
# O2 telluric scale =        0
# O2 telluric shift =        0
# H2O telluric scale =        0
# H2O telluric shift =        0
      2908.15      0.94845052     0.040318896
      2911.06      0.95735171     0.039481726
      2913.97      0.96900189     0.038724401
      2916.88      0.96882854     0.038032184
      2919.80      0.96401382     0.037442440
      2922.72      0.96618729     0.036750036
      2925.64      0.93799560     0.036358557
      2928.57      0.91435601     0.036185328
      2931.50      0.92196264     0.036155165
      2934.43      0.91052292     0.036299035
      2937.36      0.90531869     0.035546352
      2940.30      0.91709834     0.034742298
      2943.24      0.94640268     0.034397428
      2946.18      0.97205988     0.033709882
      2949.13      0.99664484     0.033013955
      2952.08      0.99532463     0.032298323
      2955.03      0.99892687     0.031773323
      2957.99       1.0212289     0.031228019
      2960.94       1.0277139     0.030842433
      2963.90       1.0308913     0.030297506
      2966.87       1.0163941     0.029973979
      2969.84       1.0066069     0.029611660
      2972.81      0.98948587     0.029252723
      2975.78      0.97035375     0.028820158
      2978.76      0.96302898     0.028548777
      2981.73      0.94888564     0.028324193
      2984.72      0.92585364     0.028159527
      2987.70      0.91762675     0.027947225
      2990.69      0.91462970     0.027879147
      2993.68      0.90281277     0.027673215
      2996.67      0.90662162     0.027417419
      2999.67      0.90868408     0.027009188
      3002.67      0.90991459     0.026815040
      3005.67      0.91491382     0.026633382
      3008.68      0.91544800     0.026524017
      3011.69      0.91434991     0.026174810
      3014.70      0.90953431     0.025979170
      3017.71      0.90030213     0.025775482
      3020.73      0.90029840     0.025453583
      3023.75      0.89704945     0.025212667
      3026.78      0.87735204     0.025078606
      3029.80      0.86351007     0.024888187
      3032.83      0.85825653     0.024507932
      3035.87      0.85506616     0.024292226
      3038.90      0.84363955     0.024130989
      3041.94      0.83586707     0.023944526
      3044.98      0.84653770     0.023752511
      3048.03      0.86476670     0.023480144
      3051.08      0.87305347     0.023079046
      3054.13      0.89112116     0.022737792
      3057.18      0.92448277     0.022408357
      3060.24      0.95934999     0.021918572
      3063.30      0.96519727     0.021626329
      3066.36      0.97122712     0.021382035
      3069.43      0.98536780     0.021038298
      3072.50       1.0017309     0.020856572
      3075.57       1.0075951     0.020683988
      3078.65       1.0116632     0.020469460
      3081.73       1.0154393     0.020374031
      3084.81       1.0118428     0.020322494
      3087.89       1.0129919     0.020143431
      3090.98       1.0120473     0.020027278
      3094.07       1.0068020     0.019931203
      3097.17       1.0147617     0.019791665
      3100.26       1.0089890     0.019715833
      3103.36       1.0058960     0.019673575
      3106.47       1.0168608     0.019462183
      3109.58       1.0099499     0.019325536
      3112.68       1.0007146     0.018982089
      3115.80       1.0072778     0.018770076
      3118.91       1.0025297     0.018552829
      3122.03       1.0082548     0.018221383
      3125.15       1.0148719     0.017967196
      3128.28       1.0244868     0.017603729
      3131.41       1.0275869     0.017448907
      3134.54       1.0276126     0.017334596
      3137.67       1.0193889     0.017027827
      3140.81       1.0206026     0.016814008
      3143.95       1.0207391     0.016626204
      3147.10       1.0185750     0.016481342
      3150.24       1.0234700     0.016379209
      3153.39       1.0187459     0.016281108
      3156.55       1.0153357     0.016387318
      3159.70       1.0083153     0.016412241
      3162.86       1.0212982     0.016498791
      3166.03       1.0235487     0.016655319
      3169.19       1.0293018     0.016658296
      3172.36       1.0328671     0.016721662
      3175.54       1.0388341     0.016785581
      3178.71       1.0432879     0.016796324
      3181.89       1.0485113     0.016690580
      3185.07       1.0408998     0.016671689
      3188.26       1.0498224     0.016463896
      3191.45       1.0606339     0.016293874
      3194.64       1.0674333     0.016155887
      3197.83       1.0643001     0.015862029
      3201.03       1.0698588     0.015684173
      3204.23       1.0827839     0.015466600
      3207.44       1.0787458     0.015284834
      3210.64       1.0835286     0.015028507
      3213.85       1.0825404     0.014820382
      3217.07       1.0759162     0.014522910
      3220.28       1.0769391     0.014323344
      3223.51       1.0668052     0.014106651
      3226.73       1.0618104     0.013955764
      3229.96       1.0537655     0.013752855
      3233.19       1.0423476     0.013662809
      3236.42       1.0316535     0.013524786
      3239.66       1.0331499     0.013508343
      3242.90       1.0288203     0.013410099
      3246.14       1.0362151     0.013359301
      3249.39       1.0335843     0.013314230
      3252.64       1.0338218     0.013298144
      3255.89       1.0285169     0.013240777
      3259.14       1.0261900     0.013252534
      3262.40       1.0219055     0.013093547
      3265.67       1.0283512     0.013043443
      3268.93       1.0254195     0.012877337
      3272.20       1.0321013     0.012769713
      3275.47       1.0314410     0.012622565
      3278.75       1.0274789     0.012503276
      3282.03       1.0384382     0.012308939
      3285.31       1.0312044     0.012133439
      3288.60       1.0341014     0.012066504
      3291.88       1.0431149     0.011867121
      3295.18       1.0478139     0.011746482
      3298.47       1.0572668     0.011600337
      3301.77       1.0660351     0.011619632
      3305.07       1.0776488     0.011610743
      3308.38       1.0928044     0.011401783
      3311.69       1.1021042     0.011187331
      3315.00       1.1132033     0.011277640
      3318.31       1.1244847     0.011159339
      3321.63       1.1412933     0.010960263
      3324.95       1.1459281     0.010929098
      3328.28       1.1546668     0.010911260
      3331.61       1.1619531     0.010942662
      3334.94       1.1582801     0.010972437
      3338.27       1.1578800     0.011004107
      3341.61       1.1537975     0.011080779
      3344.95       1.1467148     0.011110389
      3348.30       1.1415029     0.011196651
      3351.65       1.1353846     0.011230292
      3355.00       1.1287392     0.011288774
      3358.35       1.1268423     0.011315733
      3361.71       1.1196380     0.011259462
      3365.07       1.1190398     0.011349278
      3368.44       1.1247302     0.011403864
      3371.81       1.1150158     0.011030125
      3375.18       1.1228424     0.010874898
      3378.56       1.1231365     0.010665454
      3381.94       1.1254339     0.010510511
      3385.32       1.1246888     0.010438813
      3388.70       1.1249984     0.010324074
      3392.09       1.1242305     0.010287041
      3395.48       1.1267130     0.010361868
      3398.88       1.1344198     0.010130556
      3402.28       1.1461398    0.0099873932
      3405.68       1.1472747    0.0099107504
      3409.09       1.1506835    0.0098567478
      3412.49       1.1551757    0.0098163920
      3415.91       1.1569656    0.0098666415
      3419.32       1.1692036    0.0098573773
      3422.74       1.1814803    0.0098766807
      3426.17       1.1837730    0.0099676887
      3429.59       1.1953580     0.010000750
      3433.02       1.2070536     0.010192302
      3436.45       1.2168816     0.010124464
      3439.89       1.2186676     0.010012779
      3443.33       1.2202153    0.0099993837
      3446.78       1.2288254     0.010038440
      3450.22       1.2306685    0.0099105937
      3453.67       1.2335034    0.0098882298
      3457.13       1.2306696    0.0099294732
      3460.58       1.2290659    0.0097670021
      3464.04       1.2231424    0.0095320138
      3467.51       1.2207994    0.0093952545
      3470.98       1.2131573    0.0093763185
      3474.45       1.2093721    0.0094068984
      3477.92       1.2028362    0.0093223508
      3481.40       1.1951814    0.0093087638
      3484.88       1.1917155    0.0092941677
      3488.37       1.1891928    0.0093724579
      3491.86       1.1865053    0.0094207812
      3495.35       1.1824068    0.0094358845
      3498.84       1.1788990    0.0095720285
      3502.34       1.1801686    0.0095663599
      3505.84       1.1775795    0.0095220319
      3509.35       1.1868439    0.0096053032
      3512.86       1.1849622    0.0096398999
      3516.37       1.1809518    0.0097905525
      3519.89       1.1830188    0.0099053700
      3523.41       1.1888740    0.0099788510
      3526.93       1.2006439     0.010094654
      3530.46       1.2029168     0.010072885
      3533.99       1.2056039    0.0099359970
      3537.53       1.2077031    0.0099015713
      3541.06       1.2069340    0.0098659082
      3544.60       1.2079975    0.0097911815
      3548.15       1.2096961    0.0097298254
      3551.70       1.2140947    0.0096711119
      3555.25       1.2156948    0.0095310055
      3558.80       1.2183855    0.0093934770
      3562.36       1.2196537    0.0092672653
      3565.92       1.2278133    0.0091211965
      3569.49       1.2286369    0.0090412310
      3573.06       1.2353984    0.0089282249
      3576.64       1.2328438    0.0088189264
      3580.21       1.2335779    0.0087278067
      3583.79       1.2365519    0.0086454622
      3587.38       1.2348729    0.0085804306
      3590.96       1.2313886    0.0085499742
      3594.55       1.2281043    0.0085682721
      3598.15       1.2274867    0.0085351541
      3601.75       1.2138495     0.011604444
      3605.35       1.2186747     0.011628131
      3608.96       1.2168625     0.011682716
      3612.56       1.2242350     0.011706148
      3616.18       1.2222808     0.011625893
      3619.79       1.2203096     0.011731559
      3623.41       1.2167748     0.011774722
      3627.04       1.2171084     0.011815091
      3630.66       1.2122891     0.012014265
      3634.29       1.2017748     0.011968147
      3637.93       1.2088049     0.011819489
      3641.57       1.2051417     0.012218459
      3645.21       1.2011699     0.012205503
      3648.86       1.1900851     0.012124610
      3652.50       1.1860305     0.012754153
      3656.16       1.1903605     0.012659312
      3659.81       1.1864080     0.012757206
      3663.47       1.1720231     0.013030523
      3667.14       1.1679734     0.013337250
      3670.80       1.1725992     0.013518821
      3674.48       1.1571479     0.013737376
      3678.15       1.1507879     0.013861246
      3681.83       1.1356858     0.013714873
      3685.51       1.1297350     0.013179562
      3689.20       1.1225086     0.012797024
      3692.88       1.1083953     0.012314533
      3696.58       1.1054207     0.012077981
      3700.27       1.0945741     0.012052438
      3703.98       1.0904287     0.011651920
      3707.68       1.0872650     0.011417224
      3711.39       1.0785926     0.011796420
      3715.10       1.0702381     0.011399945
      3718.81       1.0625815     0.011301161
      3722.53       1.0634126     0.011646373
      3726.26       1.0650227     0.011258818
      3729.98       1.0559854     0.011300584
      3733.71       1.0486756     0.011627435
      3737.45       1.0589460     0.011129581
      3741.18       1.0606211     0.010941140
      3744.93       1.0583797     0.010852280
      3748.67       1.0696761     0.010788461
      3752.42       1.0716006     0.010857145
      3756.17       1.0754399     0.010928525
      3759.93       1.0699130     0.011083029
      3763.69       1.0628758     0.011259485
      3767.45       1.0729810     0.011413827
      3771.22       1.0729428     0.011385169
      3774.99       1.0789553     0.011411481
      3778.77       1.0817829     0.011529376
      3782.54       1.0884214     0.011275545
      3786.33       1.0905679     0.011134362
      3790.11       1.0911595     0.011135746
      3793.90       1.0958469     0.011243909
      3797.70       1.1074346     0.011448548
      3801.50       1.1178330     0.011952308
      3805.30       1.1345451     0.012354669
      3809.10       1.1445538     0.012055522
      3812.91       1.1605423     0.012257732
      3816.73       1.1693897     0.012279101
      3820.54       1.1876804     0.012172953
      3824.36       1.1976533     0.011973695
      3828.19       1.2013010     0.011738971
      3832.02       1.2003904     0.011484796
      3835.85       1.2164952     0.011236708
      3839.68       1.2366459     0.011048383
      3843.52       1.2574306     0.010929581
      3847.37       1.2706046     0.010979544
      3851.22       1.2748744     0.011133121
      3855.07       1.2806846     0.010924038
      3858.92       1.2827017     0.010858628
      3862.78       1.2846955     0.010766775
      3866.64       1.2906569     0.010727603
      3870.51       1.3004672     0.010640376
      3874.38       1.2963860     0.010553210
      3878.26       1.2971115     0.010474757
      3882.13       1.2996109     0.010391935
      3886.02       1.2997849     0.010330153
      3889.90       1.2973260     0.010331852
      3893.79       1.2999917     0.010423238
      3897.69       1.2978002     0.010478453
      3901.59       1.3030473     0.010164522
      3905.49       1.2967608     0.010126024
      3909.39       1.3032790     0.010197105
      3913.30       1.3063216     0.010328441
      3917.22       1.3128487     0.010490833
      3921.13       1.3035527     0.010668070
      3925.06       1.3088754     0.010742481
      3928.98       1.3116468     0.010863574
      3932.91       1.3092933     0.010907696
      3936.84       1.3129905     0.010854687
      3940.78       1.3029614     0.010759614
      3944.72       1.2924731     0.010647321
      3948.67       1.2768903     0.010415989
      3952.61       1.2718607     0.010252311
      3956.57       1.2606186     0.010102222
      3960.52       1.2520649     0.010003275
      3964.48       1.2391244    0.0099911287
      3968.45       1.2289502     0.010104888
      3972.42       1.2200722     0.010144388
      3976.39       1.2110599    0.0099081166
      3980.37       1.2078943    0.0098646877
      3984.35       1.2056620    0.0097515072
      3988.33       1.1935887    0.0097699859
      3992.32       1.1898123     0.010016235
      3996.31       1.1823828    0.0096965817
      4000.31       1.1955011    0.0095111318
      4004.31       1.1913180    0.0095783103
      4008.31       1.1877270    0.0096605148
      4012.32       1.1852851    0.0097541360
      4016.33       1.1759310    0.0098090976
      4020.35       1.1694231    0.0098777204
      4024.37       1.1680397    0.0099267928
      4028.40       1.1625734    0.0099944105
      4032.42       1.1622738    0.0098798728
      4036.46       1.1593171    0.0098033980
      4040.50       1.1517672    0.0097097780
      4044.54       1.1507266    0.0095770399
      4048.58       1.1508488    0.0094466986
      4052.63       1.1490802    0.0093312712
      4056.68       1.1537849    0.0092517912
      4060.74       1.1460631    0.0092194617
      4064.80       1.1357545    0.0095226529
      4068.86       1.1360284    0.0098107845
      4072.93       1.1302144    0.0093964345
      4077.01       1.1356216    0.0094611846
      4081.08       1.1347219    0.0095866917
      4085.17       1.1301850    0.0097601092
      4089.25       1.1246451    0.0098959588
      4093.34       1.1195039     0.010089171
      4097.43       1.1151007     0.010317573
      4101.53       1.1156813     0.010205534
      4105.63       1.1141255     0.010169064
      4109.74       1.1126575     0.010126059
      4113.85       1.1017614     0.010187987
      4117.96       1.0857593     0.010239612
      4122.08       1.0814543     0.010239420
      4126.20       1.0806200     0.010288813
      4130.33       1.0811468     0.010324816
      4134.46       1.0857508     0.010314379
      4138.59       1.0801347     0.010332170
      4142.73       1.0905104     0.010512902
      4146.88       1.0906447     0.010736283
      4151.02       1.0815676     0.010098798
      4155.18       1.0857226    0.0098804791
      4159.33       1.0889250    0.0097081960
      4163.49       1.0860886    0.0095542481
      4167.65       1.0768688    0.0095681479
      4171.82       1.0602448    0.0096294331
      4175.99       1.0555323    0.0097949966
      4180.17       1.0446003    0.0096141119
      4184.35       1.0383974    0.0096564568
      4188.54       1.0293139    0.0096157180
      4192.72       1.0177344    0.0096035214
      4196.92       1.0072327    0.0095311752
      4201.11       1.0001887    0.0093930942
      4205.31      0.99403919    0.0093595878
      4209.52      0.99230993    0.0092284465
      4213.73      0.98386412    0.0092483081
      4217.94      0.98200422    0.0092332240
      4222.16      0.98444776    0.0093390903
      4226.38      0.97158992    0.0096930289
      4230.61      0.96711127    0.0094415576
      4234.84      0.97219035    0.0093801037
      4239.08      0.96403009    0.0093763293
      4243.32      0.95799806    0.0093057649
      4247.56      0.94756597    0.0093367466
      4251.81      0.94088335    0.0092780538
      4256.06      0.94405467    0.0093187936
      4260.32      0.94727819    0.0092744961
      4264.58      0.95091181    0.0093240988
      4268.84      0.95237815    0.0092755787
      4273.11      0.94866441    0.0092202858
      4277.38      0.94201249    0.0092797733
      4281.66      0.94321168    0.0092096871
      4285.94      0.94734000    0.0092379901
      4290.23      0.94651040    0.0091530459
      4294.52      0.94590377    0.0091794934
      4298.81      0.94095465    0.0090836825
      4303.11      0.93531837    0.0090855802
      4307.42      0.93231583    0.0089996665
      4311.72      0.92878952    0.0089865999
      4316.04      0.92464155    0.0089863346
      4320.35      0.91061683    0.0089841217
      4324.67      0.91402798    0.0089625394
      4329.00      0.91286113    0.0089705252
      4333.33      0.90854289    0.0090035473
      4337.66      0.91271915    0.0091532100
      4342.00      0.90819173    0.0092434047
      4346.34      0.90390013    0.0093859121
      4350.69      0.90346555    0.0094835625
      4355.04      0.89672271    0.0095502633
      4359.39      0.90254189    0.0095730683
      4363.75      0.91435165    0.0095336652
      4368.12      0.92655849    0.0094293359
      4372.48      0.92893905    0.0093355172
      4376.86      0.94422959    0.0091847212
      4381.23      0.94817016    0.0090015862
      4385.61      0.96334348    0.0089100683
      4390.00      0.97082173    0.0087827778
      4394.39      0.97805427    0.0087395737
      4398.79      0.98973490    0.0087175343
      4403.18       1.0041631    0.0087333968
      4407.59       1.0212637    0.0087450008
      4412.00       1.0304271    0.0086583244
      4416.41       1.0441753    0.0087128199
      4420.82       1.0509035    0.0087891021
      4425.25       1.0509874    0.0088333179
      4429.67       1.0544785    0.0089606451
      4434.10       1.0617662    0.0091457732
      4438.54       1.0652900    0.0092024489
      4442.97       1.0768836    0.0093144233
      4447.42       1.0881169    0.0093724310
      4451.86       1.0947034    0.0094005807
      4456.32       1.0915354    0.0093889029
      4460.77       1.1052426    0.0092873707
      4465.24       1.1070102    0.0092261561
      4469.70       1.1163758    0.0091786524
      4474.17       1.1234087    0.0090512340
      4478.65       1.1395832    0.0089850344
      4483.12       1.1526021    0.0089667771
      4487.61       1.1625394    0.0090164110
      4492.09       1.1713609    0.0091012359
      4496.59       1.1778904    0.0091267880
      4501.08       1.1851261    0.0091626297
      4505.58       1.1854757    0.0091900715
      4510.09       1.1887627    0.0091758408
      4514.60       1.2000482    0.0092331743
      4519.12       1.2056295    0.0091993509
      4523.63       1.2038026    0.0092138249
      4528.16       1.2049999    0.0092284260
      4532.69       1.2049253    0.0092615392
      4537.22       1.2016886    0.0092579794
      4541.76       1.2011006    0.0093644259
      4546.30       1.2060571    0.0095821614
      4550.85       1.1971578    0.0096267173
      4555.40       1.1997720    0.0095524738
      4559.95       1.1921828    0.0095780221
      4564.51       1.1817346    0.0096534313
      4569.08       1.1666048    0.0098511911
      4573.65       1.1577048     0.010002625
      4578.22       1.1449275    0.0099048751
      4582.80       1.1282702     0.010040409
      4587.38       1.1147616     0.010136014
      4591.97       1.1043228     0.010280758
      4596.56       1.1026754     0.010426512
      4601.16       1.0931068     0.010406905
      4605.76       1.0850200     0.010444878
      4610.37       1.0796766     0.010422247
      4614.98       1.0819046     0.010285248
      4619.59       1.0829358     0.010207629
      4624.21       1.0893109     0.010146448
      4628.84       1.0874599     0.010242940
      4633.47       1.0913737     0.010321984
      4638.10       1.0923440     0.010182551
      4642.74       1.0899160     0.010082263
      4647.38       1.0801061     0.010153876
      4652.03       1.0792238     0.010345276
      4656.68       1.0777570     0.010745459
      4661.34       1.0804937     0.011096019
      4666.00       1.0756047     0.011294297
      4670.67       1.0715949     0.011348276
      4675.33       1.0618807     0.011469253
      4680.01       1.0550884     0.011698970
      4684.69       1.0566158     0.011876215
      4689.38       1.0442930     0.012037429
      4694.07       1.0426308     0.012172180
      4698.76       1.0306732     0.012251150
      4703.46       1.0122833     0.012316883
      4708.16       1.0053499     0.012383119
      4712.87      0.99591754     0.012492227
      4717.58      0.98505132     0.012840631
      4722.30      0.98784458     0.013045799
      4727.03      0.98386370     0.012795614
      4731.75      0.97758377     0.012892816
      4736.48      0.98699062     0.012855839
      4741.22      0.99624375     0.012870805
      4745.96      0.99487944     0.013019672
      4750.71      0.99125958     0.013306408
      4755.46       1.0010754     0.013819487
      4760.22       1.0001768     0.013758928
      4764.97      0.99429437     0.013816185
      4769.74      0.99140545     0.013983963
      4774.51      0.99386100     0.014079585
      4779.29      0.98333360     0.014203734
      4784.07      0.96945954     0.014231132
      4788.85      0.96619523     0.014113127
      4793.64      0.96019389     0.014108416
      4798.43      0.96640708     0.013861882
      4803.23      0.96266041     0.013881488
      4808.03      0.96859952     0.014019239
      4812.84      0.96582251     0.014130588
      4817.66      0.96820810     0.014550273
      4822.48      0.96882308     0.015251542
      4827.30      0.97412085     0.015524914
      4832.12      0.98750112     0.016305074
      4836.96       1.0019675     0.016306143
      4841.79       1.0063956     0.016996906
      4846.63       1.0197184     0.017057353
      4851.48       1.0221031     0.015963519
      4856.33       1.0258033     0.016096509
      4861.19       1.0180072     0.015926233
      4866.05       1.0187746     0.016313141
      4870.92       1.0082959     0.016408745
      4875.79      0.99489778     0.016852835
      4880.66      0.98001872     0.016624375
      4885.55      0.96017560     0.016758284
      4890.43      0.95565747     0.016659584
      4895.32      0.95174985     0.015683393
      4900.22      0.94175822     0.015382403
      4905.12      0.93041752     0.014901010
      4910.02      0.91535622     0.013933102
      4914.94      0.90178796     0.013692742
      4919.85      0.89916546     0.013297774
      4924.77      0.90389461     0.013217895
      4929.70      0.90003685     0.012567672
      4934.62      0.90023912     0.012475137
      4939.56      0.90215350     0.012348146
      4944.50      0.91065189     0.012323623
      4949.44      0.91048154     0.012367728
      4954.39      0.90105428     0.012029815
      4959.35      0.89886997     0.012241944
      4964.31      0.90928208     0.012249235
      4969.27      0.90482409     0.012446838
      4974.24      0.90149685     0.012479686
      4979.22      0.90891704     0.012390165
      4984.20      0.92342886     0.012334755
      4989.18      0.93820626     0.012259948
      4994.17      0.94800565     0.012332671
      4999.16      0.95212409     0.012190002
      5004.16      0.96341900     0.011747679
      5009.17      0.96322413     0.011779583
      5014.18      0.96826202     0.011660573
      5019.19      0.96840460     0.011558759
      5024.21      0.97171740     0.011476086
      5029.23      0.97573050     0.011430244
      5034.26      0.97394308     0.011392462
      5039.30      0.97336214     0.011370706
      5044.34      0.96377795     0.011370638
      5049.39      0.95847812     0.011381443
      5054.43      0.96193847     0.011455736
      5059.49      0.96413367     0.011436476
      5064.55      0.94954314     0.011418949
      5069.61      0.94108458     0.011387780
      5074.68      0.94196491     0.011345250
      5079.76      0.95076175     0.011321773
      5084.84      0.95865946     0.011276489
      5089.92      0.95588863     0.011247294
      5095.01      0.95628863     0.011235807
      5100.11      0.96047486     0.011112622
      5105.21      0.95594155     0.011160404
      5110.31      0.94829132     0.011446627
      5115.42      0.94966776     0.011488861
      5120.54      0.95755799     0.011574684
      5125.66      0.95763588     0.011585157
      5130.79      0.96146149     0.012215393
      5135.92      0.97045489     0.012476121
      5141.05      0.97293251     0.012763787
      5146.20      0.98888899     0.012836679
      5151.34      0.99581663     0.013032816
      5156.49      0.99770715     0.013567600
      5161.65      0.99896627     0.013561453
      5166.81       1.0112704     0.013106507
      5171.98       1.0153210     0.012938163
      5177.15       1.0185196     0.012725604
      5182.33       1.0304385     0.012531211
      5187.51       1.0340953     0.012244680
      5192.70       1.0402579     0.011733441
      5197.89       1.0382266     0.011580985
      5203.09       1.0332338     0.011677348
      5208.29       1.0384303     0.011561666
      5213.50       1.0356347     0.011190480
      5218.72       1.0348419     0.011101558
      5223.93       1.0339458     0.011012971
      5229.16       1.0391435     0.011094964
      5234.39       1.0475475     0.010788452
      5239.62       1.0539124     0.010728985
      5244.86       1.0593788     0.010677104
      5250.11       1.0612026     0.010808679
      5255.36       1.0586347     0.010513322
      5260.61       1.0567866     0.010451027
      5265.87       1.0553856     0.010392429
      5271.14       1.0431510     0.010285220
      5276.41       1.0392011     0.010215884
      5281.69       1.0362382     0.010151208
      5286.97       1.0400204     0.010095852
      5292.26       1.0341409    0.0098273974
      5297.55       1.0297456    0.0099660600
      5302.85       1.0260772    0.0099224537
      5308.15       1.0209604    0.0098912792
      5313.46       1.0226888    0.0096607336
      5318.77       1.0229178    0.0098481429
      5324.09       1.0284608    0.0098577229
      5329.42       1.0364609    0.0098834306
      5334.75       1.0487234    0.0097206831
      5340.08       1.0600185    0.0099412074
      5345.42       1.0653470    0.0099499123
      5350.77       1.0687780    0.0097426074
      5356.12       1.0667105    0.0097183195
      5361.48       1.0691866    0.0098860342
      5366.83       1.0675427    0.0098452640
      5372.20       1.0565372    0.0095701829
      5377.58       1.0513639    0.0095055149
      5382.95       1.0535857    0.0096150857
      5388.34       1.0501798    0.0093409183
      5393.72       1.0473990    0.0092814360
      5399.12       1.0392714    0.0094141660
      5404.52       1.0317076    0.0093761665
      5409.92       1.0279332    0.0091343249
      5415.33       1.0283512    0.0090857139
      5420.75       1.0222580    0.0092356885
      5426.17       1.0223568    0.0090611139
      5431.60       1.0226667    0.0090522237
      5437.03       1.0219538    0.0090561773
      5442.47       1.0220469    0.0091166298
      5447.91       1.0160795    0.0091172725
      5453.36       1.0118620    0.0091346046
      5458.81       1.0079766    0.0093699860
      5464.27       1.0060499    0.0091832106
      5469.73      0.99738965    0.0091531456
      5475.20      0.98904706    0.0091342016
      5480.68      0.98284784    0.0092173146
      5486.16      0.98063485    0.0092696042
      5491.65      0.97650654    0.0093195801
      5497.14      0.98459054    0.0094546929
      5502.64      0.98656062    0.0094859649
      5508.14      0.98917259    0.0095024473
      5513.65      0.99446809    0.0092999997
      5519.16      0.99363163    0.0093927630
      5524.68      0.99544458    0.0092706436
      5530.20       1.0001529    0.0091450631
      5535.73      0.99966218    0.0089427356
      5541.27      0.99788883    0.0088305589
      5546.81      0.99560339    0.0087435721
      5552.36      0.98252078    0.0085389138
      5557.91      0.98225329    0.0086993799
      5563.47      0.97276249    0.0087163231
      5569.04      0.95950805    0.0085200729
      5574.60      0.94259043    0.0086269685
      5580.18      0.92643949    0.0085517248
      5585.76      0.91284958    0.0083212156
      5591.35      0.90234376    0.0084119001
      5596.94      0.89431917    0.0083323138
      5602.53      0.88989268    0.0081282930
      5608.14      0.88660020    0.0082195688
      5613.75      0.88091853    0.0081884343
      5619.36      0.87468788    0.0080164267
      5624.98      0.86754677    0.0081558955
      5630.60      0.86554310    0.0081354255
      5636.23      0.86204919    0.0079886604
      5641.87      0.85511639    0.0079867416
      5647.51      0.85329614    0.0081254751
      5653.16      0.85142349    0.0079733271
      5658.82      0.84746088    0.0079814538
      5664.47      0.84853882    0.0079738356
      5670.14      0.83857317    0.0079590476
      5675.81      0.83229334    0.0079447020
      5681.48      0.82516681    0.0078962806
      5687.17      0.81613941    0.0078645359
      5692.85      0.80810261    0.0078350185
      5698.55      0.79921398    0.0077784413
      5704.25      0.79352746    0.0077500015
      5709.95      0.79062906    0.0077284368
      5715.66      0.78721518    0.0076731845
      5721.38      0.78362829    0.0076429280
      5727.10      0.77747730    0.0076169062
      5732.83      0.77388631    0.0075465699
      5738.56      0.76970295    0.0075196936
      5744.30      0.76693712    0.0073312646
      5750.04      0.76616549    0.0074091195
      5755.79      0.76790191    0.0073640743
      5761.55      0.76940379    0.0071598744
      5767.31      0.77157980    0.0072493331
      5773.08      0.77563565    0.0072199877
      5778.85      0.77402847    0.0071695400
      5784.63      0.77529721    0.0071485372
      5790.41      0.77229547    0.0070014248
      5796.21      0.77344674    0.0071097274
      5802.00      0.77199681    0.0071012116
      5807.81      0.77382805    0.0069694549
      5813.61      0.77333691    0.0070903742
      5819.43      0.76878584    0.0069591676
      5825.25      0.76832175    0.0069440907
      5831.07      0.76420837    0.0070776865
      5836.90      0.76195681    0.0069449456
      5842.74      0.75704215    0.0069315715
      5848.58      0.75332819    0.0070600588
      5854.43      0.74814574    0.0069184779
      5860.29      0.74423343    0.0070363098
      5866.15      0.73889740    0.0068857611
      5872.01      0.73642348    0.0068556784
      5877.89      0.73276044    0.0069615368
      5883.76      0.72618574    0.0067977905
      5889.65      0.71799619    0.0067668555
      5895.54      0.71373436    0.0067228340
      5901.43      0.70857474    0.0066821870
      5907.34      0.70833548    0.0067617917
      5913.24      0.70553012    0.0066018608
      5919.16      0.69828589    0.0065832391
      5925.08      0.69059282    0.0065401063
      5931.00      0.68964833    0.0064844204
      5936.93      0.68757875    0.0064552835
      5942.87      0.68711535    0.0064468101
      5948.81      0.68564353    0.0064634329
      5954.76      0.68558103    0.0065294929
      5960.72      0.68196879    0.0065255907
      5966.68      0.67655316    0.0064433539
      5972.64      0.67165352    0.0066223424
      5978.62      0.66831448    0.0066635995
      5984.60      0.66292843    0.0067790756
      5990.58      0.65709052    0.0068221012
      5996.57      0.65776643    0.0067766301
      6002.57      0.65635545    0.0069544608
      6008.57      0.65597485    0.0068540852
      6014.58      0.65016238    0.0070056855
      6020.60      0.64856101    0.0070133698
      6026.62      0.64768629    0.0069034521
      6032.65      0.64173208    0.0070390620
      6038.68      0.64435937    0.0068829323
      6044.72      0.64619494    0.0069376174
      6050.76      0.64546012    0.0067793032
      6056.81      0.64666675    0.0068751126
      6062.87      0.64120094    0.0067403096
      6068.93      0.63641230    0.0067324460
      6075.00      0.63107902    0.0067893383
      6081.08      0.62258741    0.0066163562
      6087.16      0.61306152    0.0066795791
      6093.25      0.60891413    0.0065074618
      6099.34      0.60225358    0.0064713796
      6105.44      0.60217663    0.0064018687
      6111.54      0.59876035    0.0063707024
      6117.66      0.59402965    0.0062970528
      6123.78      0.58965006    0.0062567461
      6129.90      0.58433284    0.0063366873
      6136.03      0.58209824    0.0062034789
      6142.17      0.58121870    0.0061876352
      6148.31      0.58152234    0.0061329686
      6154.46      0.58102801    0.0061186368
      6160.61      0.58483871    0.0060945569
      6166.77      0.58663742    0.0060765115
      6172.94      0.58918460    0.0060297017
      6179.11      0.59223454    0.0060083804
      6185.29      0.59353984    0.0059759464
      6191.48      0.59802199    0.0059520320
      6197.67      0.59942977    0.0058056672
      6203.87      0.60353306    0.0058679174
      6210.07      0.61126309    0.0057473372
      6216.28      0.61574832    0.0058339694
      6222.50      0.62430150    0.0057365439
      6228.72      0.62661966    0.0058349644
      6234.95      0.63030367    0.0058373965
      6241.19      0.63057923    0.0058695895
      6247.42      0.63280802    0.0058949202
      6253.67      0.63201856    0.0058468452
      6259.93      0.63585977    0.0060092853
      6266.19      0.64078772    0.0059850315
      6272.46      0.64229448    0.0061739871
      6278.73      0.64316511    0.0061452682
      6285.01      0.64345738    0.0063024673
      6291.29      0.64464017    0.0061864234
      6297.58      0.64465187    0.0063531298
      6303.88      0.64477389    0.0063730822
      6310.19      0.64437311    0.0065926327
      6316.50      0.64071790    0.0065816242
      6322.81      0.63919066    0.0068102333
      6329.14      0.63805959    0.0068726512
      6335.47      0.63212210    0.0071670171
      6341.80      0.62948626    0.0072278619
      6348.14      0.62171127    0.0074790289
      6354.49      0.61652809    0.0074144417
      6360.85      0.61079660    0.0074619623
      6367.21      0.61040253    0.0074651789
      6373.57      0.60543489    0.0074216711
      6379.95      0.60762748    0.0074043659
      6386.33      0.60539896    0.0074134573
      6392.72      0.59977143    0.0074730952
      6399.11      0.59527150    0.0073139509
      6405.51      0.59276752    0.0073730263
      6411.92      0.59268620    0.0072161444
      6418.32      0.59508726    0.0072797408
      6424.74      0.59304651    0.0071029874
      6431.17      0.59240911    0.0071755683
      6437.60      0.59345558    0.0069699492
      6444.04      0.59531267    0.0069822991
      6450.48      0.59692185    0.0067917294
      6456.94      0.59722555    0.0068029345
      6463.39      0.60363930    0.0066337332
      6469.85      0.60843546    0.0066410199
      6476.33      0.61679548    0.0065157597
      6482.80      0.62161827    0.0066004097
      6489.28      0.62714662    0.0064577941
      6495.77      0.62786254    0.0065092289
      6502.27      0.63305406    0.0064584078
      6508.77      0.63765323    0.0065167584
      6515.28      0.63864635    0.0065450873
      6521.80      0.63726465    0.0066181575
      6528.32      0.63864823    0.0066664038
      6534.85      0.63951480    0.0067584293
      6541.38      0.64095616    0.0069256733
      6547.92      0.63624706    0.0068562468
      6554.47      0.63557371    0.0070370986
      6561.03      0.63243596    0.0069942566
      6567.59      0.62705644    0.0070201367
      6574.16      0.62142512    0.0070075882
      6580.73      0.61334674    0.0070286765
      6587.31      0.61106702    0.0070659174
      6593.90      0.60890466    0.0071152825
      6600.50      0.60262710    0.0070568015
      6607.10      0.58818926    0.0070426093
      6613.70      0.58043693    0.0071035346
      6620.32      0.56952294    0.0072867348
      6626.94      0.56209475    0.0074005679
      6633.57      0.55074031    0.0078103026
      6640.20      0.53654701    0.0083621345
      6646.84      0.52686305    0.0086424682
      6653.49      0.52106485    0.0090032967
      6660.14      0.51344586    0.0089433896
      6666.80      0.51046473    0.0091605466
      6673.47      0.51400805    0.0088877822
      6680.14      0.51934037    0.0088417401
      6686.82      0.51905740    0.0086961387
      6693.51      0.52173437    0.0084391799
      6700.20      0.52176052    0.0077658388
      6706.90      0.52446060    0.0074032432
      6713.61      0.53143688    0.0074767875
      6720.32      0.53324026    0.0074113095
      6727.05      0.53187409    0.0073514763
      6733.77      0.52381891    0.0072109436
      6740.51      0.52072588    0.0073142247
      6747.25      0.51392327    0.0073688288
      6754.00      0.50780732    0.0075151075
      6760.75      0.49819081    0.0076421272
      6767.51      0.49124042    0.0075029241
      6774.28      0.48587540    0.0074841571
      6781.05      0.48434361    0.0074556539
      6787.84      0.47399383    0.0073737950
      6794.62      0.47100505    0.0073662977
      6801.42      0.47143827    0.0074323422
      6808.22      0.47104718    0.0076551496
      6815.03      0.47141242    0.0077780088
      6821.85      0.47744222    0.0077418652
      6828.67      0.48005254    0.0076688096
      6835.50      0.48631628    0.0078841648
      6842.33      0.48889242    0.0082992401
      6849.17      0.49361189    0.0085209657
      6856.02      0.49333164    0.0088530322
      6862.88      0.49074961    0.0093358896
      6869.74      0.49021231    0.0089630422
      6876.61      0.49140027    0.0089897876
      6883.49      0.49297455    0.0093227038
      6890.37      0.48904556     0.010007000
      6897.27      0.48802006     0.010364787
      6904.16      0.48415517     0.011257495
      6911.07      0.46350798     0.011638213
      6917.98      0.44963120     0.011327790
      6924.89      0.44091850     0.011268456
      6931.82      0.43735368     0.010674430
      6938.75      0.43817114     0.010157251
      6945.69      0.43955829    0.0098443237
      6952.64      0.43544172    0.0092809633
      6959.59      0.43111590    0.0089542739
      6966.55      0.42502527    0.0086747633
      6973.52      0.42394280    0.0090829941
      6980.49      0.42508668    0.0096939586
      6987.47      0.42825213    0.0092006786
      6994.46      0.42667130    0.0087154185
      7001.46      0.42291465    0.0085021047
      7008.46      0.42099241    0.0082399371
      7015.46      0.41700870    0.0080976240
      7022.48      0.41397930    0.0080450765
      7029.51      0.41347836    0.0078607875
      7036.53      0.40927953    0.0077150440
      7043.57      0.40781803    0.0076294114
      7050.62      0.40851057    0.0075101551
      7057.66      0.41182326    0.0074357817
      7064.72      0.41102712    0.0073907201
      7071.79      0.41293042    0.0072679125
      7078.86      0.41272935    0.0072534523
      7085.94      0.41313872    0.0071708686
      7093.03      0.41312766    0.0072881562
      7100.12      0.41548147    0.0073119079
      7107.22      0.42143767    0.0072723910
      7114.33      0.42421442    0.0074728865
      7121.44      0.42818283    0.0074731607
      7128.56      0.42781520    0.0076045809
      7135.69      0.42502314    0.0078067050
      7142.83      0.42333706    0.0077823362
      7149.97      0.42159945    0.0079206437
      7157.12      0.42171965    0.0081210725
      7164.28      0.41866840    0.0080139905
      7171.44      0.41321600    0.0080545803
      7178.62      0.41038852    0.0082318347
      7185.80      0.40673809    0.0080670563
      7192.98      0.40289893    0.0080112323
      7200.17      0.39533321    0.0079602584
      7207.38      0.39160037    0.0079572255
      7214.58      0.38508052    0.0080707005
      7221.80      0.38131708    0.0082961141
      7229.02      0.37760347    0.0084520522
      7236.25      0.37349828    0.0087841247
      7243.49      0.37518802    0.0088986151
      7250.73      0.37046879    0.0090464524
      7257.98      0.36491686    0.0091680860
      7265.24      0.36321985    0.0094688675
      7272.51      0.35695719    0.0096220899
      7279.78      0.35401218    0.0097017977
      7287.06      0.35153138    0.0096238379
      7294.35      0.35192031    0.0095431552
      7301.64      0.35367654    0.0066732974
      7308.94      0.35175344    0.0067555488
      7316.25      0.35192860    0.0067695463
      7323.57      0.34954295    0.0067211154
      7330.89      0.34779883    0.0067431176
      7338.22      0.34645617    0.0068170161
      7345.56      0.34348192    0.0067450630
      7352.91      0.34036615    0.0067092149
      7360.26      0.33659941    0.0067011186
      7367.62      0.33501857    0.0067543101
      7374.99      0.33108482    0.0068752940
      7382.37      0.32887569    0.0070398499
      7389.75      0.32772254    0.0071359902
      7397.14      0.32562600    0.0067290117
      7404.53      0.32118589    0.0067824344
      7411.94      0.31679505    0.0067264435
      7419.35      0.31030642    0.0066301744
      7426.77      0.30695268    0.0066252015
      7434.20      0.30418014    0.0066995285
      7441.63      0.30160002    0.0066879141
      7449.07      0.29901920    0.0067293966
      7456.52      0.29821312    0.0067026292
      7463.98      0.29378125    0.0067469315
      7471.45      0.29125949    0.0068178425
      7478.92      0.29014961    0.0069368776
      7486.40      0.28805692    0.0070538726
      7493.88      0.28482241    0.0071422856
      7501.38      0.28615744    0.0072594550
      7508.88      0.28672492    0.0074220929
      7516.39      0.28553083    0.0076256482
      7523.91      0.28782833    0.0078310827
      7531.43      0.28737688    0.0078534277
      7538.96      0.28853332    0.0079351817
      7546.50      0.29069044    0.0080310454
      7554.05      0.29102574    0.0079338858
      7561.60      0.29400232    0.0078798875
      7569.16      0.29570230    0.0079053020
      7576.73      0.29828229    0.0078853106
      7584.31      0.30053135    0.0079404049
      7591.89      0.30585608    0.0078946761
      7599.49      0.30384531    0.0078292579
      7607.09      0.30538386    0.0077537605
      7614.70      0.30666356    0.0077449084
      7622.31      0.31135364    0.0077816321
      7629.93      0.31338525    0.0078015348
      7637.56      0.31439572    0.0077434189
      7645.20      0.31625807    0.0078144076
      7652.85      0.31558741    0.0080498202
      7660.50      0.31973550    0.0085717311
      7668.16      0.32019770    0.0084889291
      7675.83      0.32307118    0.0083955047
      7683.50      0.32514077    0.0083227992
      7691.19      0.32648906    0.0082591531
      7698.88      0.32063426    0.0085784711
      7706.58      0.32161763    0.0085393190
      7714.29      0.32153871    0.0086666870
      7722.00      0.32613627    0.0088077855
      7729.73      0.32883515    0.0088699592
      7737.45      0.33039357    0.0088277069
      7745.19      0.32978557    0.0088732784
      7752.94      0.32883115    0.0089148690
      7760.69      0.32606887    0.0089852805
      7768.45      0.32675940    0.0090899930
      7776.22      0.32516719    0.0090657470
      7784.00      0.32394717    0.0091105311
      7791.78      0.31982708    0.0091677335
      7799.57      0.32063483    0.0092393572
      7807.37      0.31680413    0.0092323508
      7815.18      0.31694486    0.0093559299
      7822.99      0.31947570    0.0094640756
      7830.82      0.31727056    0.0094379245
      7838.65      0.31429244    0.0094095667
      7846.49      0.31510475    0.0093317906
      7854.34      0.31511416    0.0093450553
      7862.19      0.31549749    0.0093897506
      7870.05      0.31619638    0.0094807555
      7877.93      0.31733953    0.0095339775
      7885.80      0.31537333    0.0095144400
      7893.69      0.31346587    0.0095057036
      7901.58      0.31109907    0.0095543471
      7909.49      0.31380146    0.0096499385
      7917.40      0.31380202    0.0097436725
      7925.31      0.31706561    0.0098738778
      7933.24      0.31436495    0.0098644141
      7941.17      0.30979968    0.0099212507
      7949.11      0.30579983     0.010050254
      7957.06      0.30328831     0.010240074
      7965.02      0.30271792     0.010303394
      7972.98      0.30338260     0.010426147
      7980.96      0.30412036     0.010491458
      7988.94      0.30060539     0.010690067
      7996.93      0.29743459     0.010806190
      8004.93      0.29248710     0.010816041
      8012.93      0.28829032     0.010925950
      8020.95      0.28278022     0.011018775
      8028.97      0.27640557     0.010986697
      8036.99      0.26939285     0.011029924
      8045.03      0.26304557     0.011096822
      8053.08      0.25452524     0.011196415
      8061.13      0.24602672     0.011321766
      8069.20      0.23665379     0.011538884
      8077.26      0.22979007     0.011653108
      8085.34      0.22088033     0.011932509
      8093.43      0.21390402     0.012282086
      8101.52      0.20957361     0.012659944
      8109.62      0.20347169     0.013062944
      8117.73      0.19766886     0.013511470
      8125.85      0.19837344     0.013967474
      8133.98      0.19645702     0.014273089
      8142.11      0.19192914     0.014845188
      8150.25      0.18671550     0.015528548
      8158.41      0.18410741     0.016080471
      8166.56      0.18234411     0.016630577
      8174.73      0.18282915     0.017146909
      8182.91      0.18667790     0.017678003
      8191.09      0.18624143     0.018217352
      8199.28      0.18727913     0.018429510
      8207.48      0.18811134     0.018906849
      8215.69      0.18845609     0.019312270
      8223.91      0.19339556     0.019634414
      8232.13      0.19461328     0.019860520
      8240.36      0.20016567     0.020040309
      8248.60      0.20032775     0.020192418
      8256.85      0.20526254     0.020295197
      8265.11      0.20675914     0.020337893
      8273.37      0.21355562     0.020249694
      8281.65      0.21551640     0.020322061
      8289.93      0.22270445     0.020459795
      8298.22      0.22512476     0.020770557
      8306.52      0.23473850     0.021192527
      8314.83      0.24284180     0.021202997
      8323.14      0.24794527     0.021287022
      8331.46      0.25113538     0.021376807
      8339.80      0.24872366     0.021427528
      8348.13      0.24908499     0.021445400
      8356.48      0.24718205     0.021480387
      8364.84      0.24224609     0.021304178
      8373.21      0.24070363     0.021126131
      8381.58      0.23802927     0.020971627
      8389.96      0.23632584     0.020978365
      8398.35      0.23616021     0.021133315
      8406.75      0.23862061     0.021277968
      8415.16      0.23574219     0.021373898
      8423.57      0.23479289     0.021479806
      8432.00      0.23649489     0.021371849
      8440.43      0.23703351     0.021341708
      8448.87      0.22583064     0.021318167
      8457.32      0.21456043     0.021317195
      8465.78      0.20717793     0.021326256
