# starting wavelength =        2597.1344
# ending wavelength =        7559.3846
# O2 telluric scale =        0
# O2 telluric shift =        0
# H2O telluric scale =        0
# H2O telluric shift =        0
      2597.55       1.8752295     0.051132535
      2600.14       1.8988910     0.050404956
      2602.74       1.8980328     0.049692778
      2605.35       1.8905530     0.048998387
      2607.95       1.9485571     0.047774648
      2610.56       1.9317203     0.047025005
      2613.17       1.9233038     0.046271583
      2615.79       1.9370049     0.045477516
      2618.40       1.9362866     0.044783038
      2621.02       1.9220840     0.044138226
      2623.64       1.9253445     0.043392813
      2626.26       1.9314170     0.042737306
      2628.89       1.9439664     0.041654349
      2631.52       1.9579005     0.040542219
      2634.15       1.9782728     0.039551221
      2636.79       2.0156274     0.038466188
      2639.42       2.0414680     0.037442750
      2642.06       2.0455587     0.036493389
      2644.70       2.0534027     0.035616632
      2647.35       2.0573202     0.034464544
      2650.00       2.0483157     0.033602221
      2652.65       2.0555823     0.032723285
      2655.30       2.0758265     0.031897027
      2657.96       2.0899258     0.031205536
      2660.61       2.1104259     0.030521051
      2663.27       2.1139789     0.029769914
      2665.94       2.1227897     0.029261247
      2668.60       2.1299898     0.028759687
      2671.27       2.1347024     0.028302483
      2673.94       2.1431556     0.027906261
      2676.62       2.1517521     0.027356795
      2679.29       2.1587178     0.027002240
      2681.97       2.1532174     0.026717538
      2684.66       2.1657962     0.026178066
      2687.34       2.1740698     0.025779225
      2690.03       2.1847883     0.025280340
      2692.72       2.2049598     0.024793459
      2695.41       2.2117234     0.024266049
      2698.11       2.2486496     0.023733974
      2700.81       2.2600850     0.023220442
      2703.51       2.3030384     0.022570150
      2706.21       2.3190871     0.022167339
      2708.92       2.3287688     0.021822577
      2711.62       2.3160811     0.021526698
      2714.34       2.3142391     0.021618842
      2717.05       2.3143330     0.021264009
      2719.77       2.3133915     0.020839134
      2722.49       2.3238039     0.020532091
      2725.21       2.3380959     0.020341251
      2727.94       2.3605968     0.020098992
      2730.66       2.3555830     0.020015057
      2733.39       2.3618477     0.019918549
      2736.13       2.3630549     0.019872121
      2738.86       2.3476340     0.019673908
      2741.60       2.3492829     0.019510514
      2744.34       2.3499119     0.019368750
      2747.09       2.3438660     0.019221406
      2749.84       2.3354040     0.018963805
      2752.59       2.3304986     0.018861424
      2755.34       2.3291083     0.018747828
      2758.09       2.3338008     0.018562793
      2760.85       2.3395275     0.018221628
      2763.61       2.3346780     0.018004737
      2766.38       2.3270773     0.017790878
      2769.14       2.3279248     0.017543759
      2771.91       2.3397589     0.017309546
      2774.69       2.3349646     0.017163850
      2777.46       2.3285222     0.017027761
      2780.24       2.3232750     0.016798819
      2783.02       2.3225378     0.016616963
      2785.80       2.3215889     0.016428056
      2788.59       2.3084826     0.016307615
      2791.38       2.3025302     0.016057540
      2794.17       2.3097234     0.015886493
      2796.96       2.3106324     0.015682791
      2799.76       2.3053880     0.015408583
      2802.56       2.2893770     0.015341986
      2805.36       2.2852960     0.015420454
      2808.17       2.2550239     0.015026252
      2810.98       2.2413107     0.014776066
      2813.79       2.2279476     0.014889513
      2816.60       2.1980711     0.014739339
      2819.42       2.1734923     0.014531411
      2822.24       2.1633805     0.014467327
      2825.06       2.1520607     0.014266858
      2827.88       2.1442335     0.014204930
      2830.71       2.1333092     0.014160220
      2833.54       2.1200225     0.014064537
      2836.38       2.1042344     0.014032565
      2839.21       2.0805434     0.013995030
      2842.05       2.0649992     0.013887106
      2844.90       2.0494725     0.013810072
      2847.74       2.0363746     0.013730368
      2850.59       2.0299422     0.013569005
      2853.44       2.0347474     0.013511826
      2856.29       2.0345375     0.013419777
      2859.15       2.0348404     0.013238010
      2862.01       2.0298778     0.013182664
      2864.87       2.0148835     0.013127726
      2867.74       2.0066517     0.013012663
      2870.60       2.0010771     0.012879368
      2873.47       1.9924901     0.012716749
      2876.35       1.9939970     0.012572871
      2879.22       1.9983253     0.012439937
      2882.10       2.0002993     0.012266632
      2884.99       2.0031894     0.012207468
      2887.87       1.9980683     0.011981443
      2890.76       1.9992648     0.011934500
      2893.65       2.0025101     0.011978704
      2896.54       2.0037239     0.011586432
      2899.44       2.0089817     0.011316388
      2902.34       1.9794704     0.015013342
      2905.24       1.9795781     0.014619503
      2908.15       1.9869970     0.014329207
      2911.06       2.0016768     0.014110305
      2913.97       1.9940541     0.013717812
      2916.88       1.9915800     0.013721094
      2919.80       2.0000430     0.013987599
      2922.72       2.0012459     0.013400635
      2925.64       2.0066239     0.013165744
      2928.57       2.0211465     0.013025903
      2931.50       2.0242576     0.013253445
      2934.43       2.0280632     0.013505381
      2937.36       2.0472102     0.013965662
      2940.30       2.0557696     0.014376379
      2943.24       2.0370334     0.014798051
      2946.18       2.0184890     0.015329514
      2949.13       1.9920575     0.015988217
      2952.08       1.9996479     0.016510924
      2955.03       1.9925997     0.016673814
      2957.99       1.9842387     0.016996289
      2960.94       1.9833958     0.017358577
      2963.90       1.9669845     0.017110084
      2966.87       1.9671495     0.016758491
      2969.84       1.9694257     0.016378806
      2972.81       1.9635743     0.016355192
      2975.78       1.9573400     0.016174745
      2978.76       1.9541822     0.015892700
      2981.73       1.9517222     0.015885499
      2984.72       1.9541665     0.016222619
      2987.70       1.9663952     0.014694270
      2990.69       1.9629211     0.014132754
      2993.68       1.9630246     0.013394468
      2996.67       1.9651203     0.013426940
      2999.67       1.9692154     0.013744530
      3002.67       1.9875256     0.013482742
      3005.67       1.9917923     0.013580402
      3008.68       2.0032452     0.013801393
      3011.69       2.0014676     0.014071544
      3014.70       1.9848935     0.014915672
      3017.71       1.9940504     0.015667047
      3020.73       1.9863248     0.014987727
      3023.75       1.9790225     0.014747549
      3026.78       1.9633699     0.014060990
      3029.80       1.9547266     0.013792020
      3032.83       1.9353667     0.013298589
      3035.87       1.9315919     0.013133455
      3038.90       1.9250412     0.013055954
      3041.94       1.9249639     0.012689200
      3044.98       1.9142786     0.011989406
      3048.03       1.9013346     0.011499008
      3051.08       1.8950268     0.011289040
      3054.13       1.8928056     0.011051420
      3057.18       1.8981558     0.011123795
      3060.24       1.8896470     0.010672005
      3063.30       1.8831791     0.010555231
      3066.36       1.8834496     0.010349089
      3069.43       1.8811425     0.010338481
      3072.50       1.8779876     0.010186481
      3075.57       1.8813993     0.010164778
      3078.65       1.8686930     0.010027055
      3081.73       1.8630850    0.0099778926
      3084.81       1.8658921    0.0099571917
      3087.89       1.8667827    0.0099729611
      3090.98       1.8597476     0.010208949
      3094.07       1.8568115     0.010575937
      3097.17       1.8399509     0.010113496
      3100.26       1.8219431    0.0099124119
      3103.36       1.8030490     0.010023629
      3106.47       1.7864676     0.010367467
      3109.58       1.7701628     0.010601386
      3112.68       1.7616363     0.011022472
      3115.80       1.7431625     0.011262859
      3118.91       1.7213864     0.011281648
      3122.03       1.7097267     0.011338809
      3125.15       1.6884120     0.010953918
      3128.28       1.6634006     0.010691564
      3131.41       1.6544195     0.010708310
      3134.54       1.6481236    0.0099644508
      3137.67       1.6474127    0.0095886151
      3140.81       1.6546580    0.0093347162
      3143.95       1.6625430    0.0092674187
      3147.10       1.6583527    0.0094637420
      3150.24       1.6612400     0.010061202
      3153.39       1.6642816    0.0098300086
      3156.55       1.6553865    0.0095335432
      3159.70       1.6494667    0.0094276811
      3162.86       1.6434512    0.0095643453
      3166.03       1.6587094    0.0095565517
      3169.19       1.6605691    0.0094286573
      3172.36       1.6543361    0.0094309923
      3175.54       1.6485865    0.0092393040
      3178.71       1.6401129    0.0090819234
      3181.89       1.6231184    0.0089419796
      3185.07       1.6103420    0.0087883888
      3188.26       1.6016888    0.0087680561
      3191.45       1.6056629    0.0088961004
      3194.64       1.6029971    0.0085576185
      3197.83       1.6057992    0.0084323279
      3201.03       1.6090741    0.0083954493
      3204.23       1.6124155    0.0083844214
      3207.44       1.6070962    0.0083561518
      3210.64       1.6127162    0.0083950018
      3213.85       1.6151716    0.0083348337
      3217.07       1.6099884    0.0082288700
      3220.28       1.6127071    0.0082391143
      3223.51       1.6313203    0.0081665155
      3226.73       1.6377865    0.0080830269
      3229.96       1.6364303    0.0080953178
      3233.19       1.6325002    0.0081695725
      3236.42       1.6371796    0.0081897988
      3239.66       1.6432698    0.0082806218
      3242.90       1.6434976    0.0083816123
      3246.14       1.6459645    0.0083869335
      3249.39       1.6521865    0.0084948081
      3252.64       1.6562104    0.0086243697
      3255.89       1.6557468    0.0087115295
      3259.14       1.6604135    0.0089410337
      3262.40       1.6609180    0.0090314994
      3265.67       1.6613333    0.0090342215
      3268.93       1.6605576    0.0092042475
      3272.20       1.6641897    0.0093635601
      3275.47       1.6672474    0.0094486179
      3278.75       1.6703236    0.0095873024
      3282.03       1.6765735    0.0097628937
      3285.31       1.6832073    0.0097385607
      3288.60       1.6744205    0.0096769701
      3291.88       1.6822262    0.0095591858
      3295.18       1.6804218    0.0094050262
      3298.47       1.6825041    0.0093190711
      3301.77       1.6806674    0.0092115711
      3305.07       1.6753677    0.0090327956
      3308.38       1.6723252    0.0088288636
      3311.69       1.6684476    0.0086577593
      3315.00       1.6688450    0.0085920046
      3318.31       1.6579400    0.0085163666
      3321.63       1.6492420    0.0084671280
      3324.95       1.6478198    0.0082602273
      3328.28       1.6382191    0.0080974197
      3331.61       1.6266092    0.0080181048
      3334.94       1.6161897    0.0078587033
      3338.27       1.6093330    0.0078711562
      3341.61       1.6025547    0.0079087023
      3344.95       1.5993972    0.0077259424
      3348.30       1.5892304    0.0077023659
      3351.65       1.5845187    0.0078095388
      3355.00       1.5773677    0.0079544539
      3358.35       1.5702115    0.0080786999
      3361.71       1.5653843    0.0082241866
      3365.07       1.5521610    0.0083232653
      3368.44       1.5485569    0.0084196453
      3371.81       1.5499031    0.0085143296
      3375.18       1.5406152    0.0085662389
      3378.56       1.5456583    0.0084140340
      3381.94       1.5396313    0.0082778169
      3385.32       1.5398570    0.0081290120
      3388.70       1.5346485    0.0079727832
      3392.09       1.5286898    0.0078205544
      3395.48       1.5271727    0.0076889235
      3398.88       1.5228232    0.0075835651
      3402.28       1.5248087    0.0076702040
      3405.68       1.5236374    0.0077022691
      3409.09       1.5175188    0.0075488684
      3412.49       1.5077754    0.0075458925
      3415.91       1.4969458    0.0075575924
      3419.32       1.4854081    0.0075706665
      3422.74       1.4642335    0.0075440534
      3426.17       1.4503352    0.0075298769
      3429.59       1.4327117    0.0075467903
      3433.02       1.4237001    0.0075574974
      3436.45       1.4065109    0.0075848053
      3439.89       1.3839846    0.0075519855
      3443.33       1.3774446    0.0075996039
      3446.78       1.3619240    0.0075800317
      3450.22       1.3477879    0.0075515266
      3453.67       1.3382039    0.0074933454
      3457.13       1.3335459    0.0074158187
      3460.58       1.3252984    0.0073156447
      3464.04       1.3209840    0.0072025231
      3467.51       1.3183593    0.0071007296
      3470.98       1.3087274    0.0069836348
      3474.45       1.3005448    0.0069478259
      3477.92       1.2918688    0.0068818609
      3481.40       1.2811223    0.0068241331
      3484.88       1.2674625    0.0067989944
      3488.37       1.2594668    0.0067688229
      3491.86       1.2569604    0.0067676447
      3495.35       1.2502596    0.0068002649
      3498.84       1.2433774    0.0068481878
      3502.34       1.2300933    0.0069138495
      3505.84       1.2257460    0.0069666419
      3509.35       1.2189771    0.0070752821
      3512.86       1.2130641    0.0071296752
      3516.37       1.2040301    0.0071315025
      3519.89       1.1967919    0.0072168983
      3523.41       1.1931157    0.0073757716
      3526.93       1.1874453    0.0075478142
      3530.46       1.1894275    0.0077237290
      3533.99       1.1853078    0.0079227201
      3537.53       1.1796788    0.0081198863
      3541.06       1.1746499    0.0083116208
      3544.60       1.1669388    0.0083684355
      3548.15       1.1671324    0.0083042724
      3551.70       1.1647000    0.0081457531
      3555.25       1.1665937    0.0079422959
      3558.80       1.1634928    0.0076326028
      3562.36       1.1578800    0.0074011569
      3565.92       1.1550906    0.0071997057
      3569.49       1.1525133    0.0070576265
      3573.06       1.1524146    0.0071838746
      3576.64       1.1525716    0.0070914642
      3580.21       1.1495860    0.0069442728
      3583.79       1.1475001    0.0069032110
      3587.38       1.1490285    0.0069543957
      3590.96       1.1582771    0.0070381402
      3594.55       1.1670471    0.0070954148
      3598.15       1.1712643    0.0071468041
      3601.75       1.1823998    0.0071202061
      3605.35       1.1921741    0.0071197631
      3608.96       1.1896207    0.0070755049
      3612.56       1.1929491    0.0070184447
      3616.18       1.1988158    0.0069099969
      3619.79       1.1998034    0.0068113658
      3623.41       1.2016725    0.0067085228
      3627.04       1.2024037    0.0066017579
      3630.66       1.1973205    0.0064840816
      3634.29       1.1945480    0.0064939884
      3637.93       1.1913417    0.0065404717
      3641.57       1.1896686    0.0067348755
      3645.21       1.1910307    0.0065492270
      3648.86       1.1864333    0.0065205275
      3652.50       1.1831999    0.0064856447
      3656.16       1.1830087    0.0064808039
      3659.81       1.1823568    0.0064767441
      3663.47       1.1830712    0.0064537255
      3667.14       1.1783685    0.0064311016
      3670.80       1.1760880    0.0064115969
      3674.48       1.1684663    0.0063842214
      3678.15       1.1643123    0.0063644253
      3681.83       1.1617336    0.0063565907
      3685.51       1.1523676    0.0063490380
      3689.20       1.1454907    0.0063785687
      3692.88       1.1385156    0.0064415156
      3696.58       1.1345061    0.0062861448
      3700.27       1.1337865    0.0062579260
      3703.98       1.1352730    0.0063141332
      3707.68       1.1394026    0.0063243114
      3711.39       1.1383574    0.0063937562
      3715.10       1.1389871    0.0064491800
      3718.81       1.1377036    0.0064979029
      3722.53       1.1389928    0.0065329862
      3726.26       1.1393693    0.0065369664
      3729.98       1.1372945    0.0065180235
      3733.71       1.1379548    0.0064442881
      3737.45       1.1365378    0.0063171062
      3741.18       1.1315478    0.0064042702
      3744.93       1.1309409    0.0062324081
      3748.67       1.1266788    0.0061190866
      3752.42       1.1156976    0.0060662153
      3756.17       1.1073427    0.0061114666
      3759.93       1.1013760    0.0062432634
      3763.69       1.0966833    0.0064447062
      3767.45       1.0980374    0.0063570404
      3771.22       1.0982840    0.0064481637
      3774.99       1.0957169    0.0065358380
      3778.77       1.0904624    0.0065935206
      3782.54       1.0837647    0.0066385026
      3786.33       1.0753687    0.0066959663
      3790.11       1.0718673    0.0066377988
      3793.90       1.0649134    0.0065843240
      3797.70       1.0609503    0.0065039746
      3801.50       1.0520464    0.0064067620
      3805.30       1.0468436    0.0063327362
      3809.10       1.0455614    0.0063128556
      3812.91       1.0412331    0.0063486674
      3816.73       1.0372332    0.0062683093
      3820.54       1.0298642    0.0062036772
      3824.36       1.0249993    0.0061415587
      3828.19       1.0244018    0.0062194547
      3832.02       1.0233329    0.0062729022
      3835.85       1.0216328    0.0063063775
      3839.68       1.0235950    0.0063656568
      3843.52       1.0169549    0.0064362982
      3847.37       1.0180871    0.0064839838
      3851.22       1.0183333    0.0064795978
      3855.07       1.0161213    0.0064235144
      3858.92       1.0131349    0.0063638750
      3862.78       1.0041355    0.0062291531
      3866.64      0.99675356    0.0061591865
      3870.51      0.98839780    0.0060528916
      3874.38      0.97620145    0.0059145310
      3878.26      0.97224948    0.0058687857
      3882.13      0.97104098    0.0057961314
      3886.02      0.96679981    0.0057679260
      3889.90      0.96040384    0.0057959050
      3893.79      0.95666147    0.0057522440
      3897.69      0.94982885    0.0057326213
      3901.59      0.95038345    0.0057400430
      3905.49      0.94587037    0.0057365039
      3909.39      0.94601167    0.0057228125
      3913.30      0.94800725    0.0057903804
      3917.22      0.94713906    0.0058188394
      3921.13      0.95649703    0.0059206879
      3925.06      0.95860624    0.0059379625
      3928.98      0.96408732    0.0059767817
      3932.91      0.96318658    0.0060239451
      3936.84      0.96345075    0.0060363183
      3940.78      0.96715708    0.0060131357
      3944.72      0.96469663    0.0060479134
      3948.67      0.96524670    0.0060085893
      3952.61      0.97011068    0.0060386660
      3956.57      0.96660731    0.0059966957
      3960.52      0.96420953    0.0060195697
      3964.48      0.96271382    0.0059786788
      3968.45      0.96125240    0.0059741104
      3972.42      0.95851982    0.0059803976
      3976.39      0.95800570    0.0059739773
      3980.37      0.95626465    0.0059704237
      3984.35      0.95191828    0.0059541412
      3988.33      0.94802675    0.0059427767
      3992.32      0.94260743    0.0059242573
      3996.31      0.93858114    0.0059336474
      4000.31      0.93426589    0.0059862200
      4004.31      0.93340604    0.0059191482
      4008.31      0.92394968    0.0058625788
      4012.32      0.92098819    0.0059158318
      4016.33      0.90957783    0.0059225078
      4020.35      0.89929549    0.0060171348
      4024.37      0.88672476    0.0061073499
      4028.40      0.87577665    0.0062905605
      4032.42      0.86429976    0.0064544786
      4036.46      0.85746835    0.0066358302
      4040.50      0.85301463    0.0067889139
      4044.54      0.85164565    0.0068206837
      4048.58      0.84246908    0.0067310583
      4052.63      0.83064485    0.0066597730
      4056.68      0.81868362    0.0064378775
      4060.74      0.80447175    0.0062134854
      4064.80      0.79627775    0.0060245326
      4068.86      0.78620666    0.0060072565
      4072.93      0.77754993    0.0060794827
      4077.01      0.77587815    0.0057862316
      4081.08      0.76929013    0.0055581717
      4085.17      0.76176501    0.0055028997
      4089.25      0.75562270    0.0056001941
      4093.34      0.74955218    0.0057348563
      4097.43      0.74315021    0.0058619534
      4101.53      0.73725573    0.0059566277
      4105.63      0.73245391    0.0061279017
      4109.74      0.73025872    0.0062487160
      4113.85      0.72481073    0.0064126081
      4117.96      0.72585691    0.0064718217
      4122.08      0.72296455    0.0063891364
      4126.20      0.71413265    0.0063327418
      4130.33      0.70734205    0.0061998134
      4134.46      0.70240689    0.0059934266
      4138.59      0.69855947    0.0058316661
      4142.73      0.69572542    0.0057746569
      4146.88      0.69052703    0.0058538442
      4151.02      0.69805728    0.0057298902
      4155.18      0.70127834    0.0054803631
      4159.33      0.70596907    0.0053727354
      4163.49      0.71404314    0.0053035698
      4167.65      0.72039756    0.0052700974
      4171.82      0.72145403    0.0053217363
      4175.99      0.72717969    0.0053534230
      4180.17      0.73471793    0.0053415330
      4184.35      0.73918200    0.0053537416
      4188.54      0.74555031    0.0053489295
      4192.72      0.75002087    0.0053313118
      4196.92      0.75515778    0.0053311943
      4201.11      0.75785545    0.0053149617
      4205.31      0.76014629    0.0052969051
      4209.52      0.76092735    0.0052674497
      4213.73      0.76065122    0.0052822603
      4217.94      0.75827780    0.0053150443
      4222.16      0.75862558    0.0053803658
      4226.38      0.75781614    0.0054133046
      4230.61      0.76332683    0.0054675380
      4234.84      0.76350101    0.0054780612
      4239.08      0.76246153    0.0054684250
      4243.32      0.76596111    0.0054296045
      4247.56      0.76072460    0.0054336452
      4251.81      0.76102496    0.0054417416
      4256.06      0.76062344    0.0054276159
      4260.32      0.75987594    0.0053844520
      4264.58      0.75569490    0.0053764795
      4268.84      0.74972291    0.0053738354
      4273.11      0.74564558    0.0053525612
      4277.38      0.74590038    0.0053549462
      4281.66      0.74321909    0.0053171524
      4285.94      0.74369512    0.0053214175
      4290.23      0.73460535    0.0053279059
      4294.52      0.73122089    0.0053717470
      4298.81      0.72420085    0.0053978354
      4303.11      0.71968395    0.0054213646
      4307.42      0.71528259    0.0054255438
      4311.72      0.71343035    0.0054678056
      4316.04      0.70748179    0.0055101483
      4320.35      0.70038309    0.0055411519
      4324.67      0.69773588    0.0056064717
      4329.00      0.69035310    0.0057016819
      4333.33      0.67998987    0.0057430775
      4337.66      0.67172479    0.0058298128
      4342.00      0.66515056    0.0059136826
      4346.34      0.66204261    0.0059847107
      4350.69      0.65422230    0.0060594647
      4355.04      0.65280670    0.0061128810
      4359.39      0.65265134    0.0061695753
      4363.75      0.64769356    0.0062090293
      4368.12      0.64556420    0.0062402399
      4372.48      0.64064368    0.0062822045
      4376.86      0.64630416    0.0063030822
      4381.23      0.64188866    0.0063915427
      4385.61      0.64536976    0.0065111631
      4390.00      0.64741797    0.0066389619
      4394.39      0.64709756    0.0067884698
      4398.79      0.64364166    0.0069449972
      4403.18      0.64079049    0.0070122698
      4407.59      0.63599130    0.0071034919
      4412.00      0.63541326    0.0072689744
      4416.41      0.62741136    0.0074198261
      4420.82      0.63290217    0.0075683769
      4425.25      0.63065658    0.0077263568
      4429.67      0.63441531    0.0078257785
      4434.10      0.62891529    0.0079150916
      4438.54      0.63297362    0.0080056434
      4442.97      0.63576606    0.0080457139
      4447.42      0.63520298    0.0079976579
      4451.86      0.64290409    0.0078464915
      4456.32      0.65549633    0.0077784877
      4460.77      0.66512250    0.0075678607
      4465.24      0.67536626    0.0074954276
      4469.70      0.68615155    0.0075161023
      4474.17      0.69208405    0.0075438115
      4478.65      0.70176723    0.0078595582
      4483.12      0.71288450    0.0080854571
      4487.61      0.72026213    0.0083270275
      4492.09      0.72536174    0.0088743616
      4496.59      0.73127314    0.0086107641
      4501.08      0.73444207    0.0082146270
      4505.58      0.73801571    0.0081617470
      4510.09      0.73863538    0.0079065659
      4514.60      0.73981786    0.0078195993
      4519.12      0.74198002    0.0074337076
      4523.63      0.74312935    0.0076626710
      4528.16      0.74221970    0.0075731314
      4532.69      0.74095036    0.0077460227
      4537.22      0.74530716    0.0076571405
      4541.76      0.74984195    0.0077356294
      4546.30      0.74737654    0.0077243321
      4550.85      0.74873728    0.0074588820
      4555.40      0.74986180    0.0073788520
      4559.95      0.75225052    0.0073148547
      4564.51      0.75307711    0.0072100742
      4569.08      0.75838352    0.0069683098
      4573.65      0.75969231    0.0070081722
      4578.22      0.75689733    0.0070956140
      4582.80      0.75272369    0.0070730511
      4587.38      0.75040708    0.0071383417
      4591.97      0.74684439    0.0072075290
      4596.56      0.74077427    0.0070771195
      4601.16      0.73491277    0.0073249591
      4605.76      0.73161485    0.0074419420
      4610.37      0.72752409    0.0077091793
      4614.98      0.72622248    0.0078417012
      4619.59      0.72805011    0.0079870837
      4624.21      0.72793011    0.0080278751
      4628.84      0.72899068    0.0081850552
      4633.47      0.72332861    0.0080817140
      4638.10      0.72407783    0.0079373004
      4642.74      0.72039345    0.0075874396
      4647.38      0.72240976    0.0074520404
      4652.03      0.72343029    0.0072626070
      4656.68      0.72401426    0.0071029685
      4661.34      0.72007482    0.0071274170
      4666.00      0.71313858    0.0069989084
      4670.67      0.70554209    0.0069977257
      4675.33      0.69837555    0.0070108055
      4680.01      0.69289534    0.0070422615
      4684.69      0.68783892    0.0070916044
      4689.38      0.68146000    0.0074722834
      4694.07      0.68099619    0.0077704058
      4698.76      0.67832175    0.0080652448
      4703.46      0.68055455    0.0087240945
      4708.16      0.68053876    0.0092302900
      4712.87      0.67992886     0.010378192
      4717.58      0.68110882     0.013015320
      4722.30      0.67501691    0.0042528405
      4727.03      0.67167384    0.0042746657
      4731.75      0.67003051    0.0042628657
      4736.48      0.66659790    0.0042859170
      4741.22      0.66381481    0.0043223182
      4745.96      0.66102575    0.0043326994
      4750.71      0.65671391    0.0043305463
      4755.46      0.65385671    0.0043678412
      4760.22      0.65106464    0.0043897085
      4764.97      0.64804276    0.0043762348
      4769.74      0.64556979    0.0043222415
      4774.51      0.64225746    0.0043373459
      4779.29      0.63835602    0.0043222440
      4784.07      0.63485296     0.017263977
      4788.85      0.63455073     0.015032927
      4793.64      0.63223598     0.012042333
      4798.43      0.62829433     0.010540682
      4803.23      0.62369239    0.0098435661
      4808.03      0.62090917    0.0091047558
      4812.84      0.61602366    0.0086700982
      4817.66      0.61265665    0.0080807517
      4822.48      0.61163801    0.0078307507
      4827.30      0.61076885    0.0076619164
      4832.12      0.60586343    0.0077375500
      4836.96      0.60769853    0.0074595432
      4841.79      0.60957092    0.0073632400
      4846.63      0.60570590    0.0072567730
      4851.48      0.60327883    0.0072432252
      4856.33      0.60430407    0.0070013870
      4861.19      0.60261595    0.0069378489
      4866.05      0.60133588    0.0068763012
      4870.92      0.60183753    0.0068163437
      4875.79      0.59843938    0.0066839774
      4880.66      0.59578333    0.0066162962
      4885.55      0.59417774    0.0065547098
      4890.43      0.58927231    0.0064985384
      4895.32      0.58403317    0.0063792057
      4900.22      0.58088390    0.0063206120
      4905.12      0.57774926    0.0062687573
      4910.02      0.57550128    0.0062239727
      4914.94      0.57457085    0.0061471457
      4919.85      0.57254049    0.0061158034
      4924.77      0.57269472    0.0060882100
      4929.70      0.57345409    0.0060561596
      4934.62      0.57379243    0.0059957375
      4939.56      0.57151660    0.0059905966
      4944.50      0.57259134    0.0060072377
      4949.44      0.57161041    0.0060400474
      4954.39      0.57086083    0.0061125242
      4959.35      0.56904088    0.0061483518
      4964.31      0.56930351    0.0061711395
      4969.27      0.56480556    0.0060330463
      4974.24      0.56232162    0.0061506444
      4979.22      0.56000118    0.0061332312
      4984.20      0.55593183    0.0061140496
      4989.18      0.55406556    0.0059388238
      4994.17      0.55405498    0.0059966456
      4999.16      0.55384019    0.0059425365
      5004.16      0.55572164    0.0057349863
      5009.17      0.55335900    0.0056758215
      5014.18      0.55340598    0.0057312351
      5019.19      0.55429396    0.0056810153
      5024.21      0.55281626    0.0054973224
      5029.23      0.55200180    0.0054263455
      5034.26      0.55293487    0.0054562137
      5039.30      0.55071326    0.0053195241
      5044.34      0.55032501    0.0052965414
      5049.39      0.54958130    0.0052856572
      5054.43      0.54492863    0.0054099822
      5059.49      0.54499996    0.0053256798
      5064.55      0.54273430    0.0053175471
      5069.61      0.54090834    0.0054382957
      5074.68      0.53988851    0.0053884487
      5079.76      0.53626598    0.0053679973
      5084.84      0.53696139    0.0053460906
      5089.92      0.54121343    0.0054100243
      5095.01      0.54083204    0.0054519445
      5100.11      0.53998340    0.0054982808
      5105.21      0.53770452    0.0055906325
      5110.31      0.53860097    0.0056084585
      5115.42      0.53423371    0.0056238805
      5120.54      0.53037486    0.0056304295
      5125.66      0.52852021    0.0055833486
      5130.79      0.52394094    0.0054830129
      5135.92      0.51958599    0.0053823141
      5141.05      0.51837102    0.0052243654
      5146.20      0.51661856    0.0051345227
      5151.34      0.51477771    0.0050616037
      5156.49      0.51095257    0.0049218692
      5161.65      0.50796262    0.0049722022
      5166.81      0.50340504    0.0049942807
      5171.98      0.50159395    0.0051543669
      5177.15      0.50136625    0.0053630726
      5182.33      0.50387304    0.0054827913
      5187.51      0.50661321    0.0049211330
      5192.70      0.50531156    0.0049703380
      5197.89      0.50339920    0.0051028874
      5203.09      0.50356968    0.0051827928
      5208.29      0.50170148    0.0053740165
      5213.50      0.49896160    0.0057231015
      5218.72      0.49739635    0.0057902098
      5223.93      0.49702547    0.0059385395
      5229.16      0.49324203    0.0060784979
      5234.39      0.49413646    0.0057797749
      5239.62      0.49031083    0.0055515129
      5244.86      0.49019336    0.0053927607
      5250.11      0.48580824    0.0050734734
      5255.36      0.48041662    0.0048591819
      5260.61      0.47608384    0.0047815636
      5265.87      0.47043747    0.0048217731
      5271.14      0.46673983    0.0052429273
      5276.41      0.46412626    0.0049286469
      5281.69      0.46449561    0.0046773725
      5286.97      0.46025691    0.0045508742
      5292.26      0.45586352    0.0044316646
      5297.55      0.45189702    0.0044195156
      5302.85      0.45013353    0.0044034641
      5308.15      0.44907953    0.0043693613
      5313.46      0.44563076    0.0043432529
      5318.77      0.44180283    0.0043186122
      5324.09      0.44396930    0.0042581977
      5329.42      0.44372557    0.0042334823
      5334.75      0.44416348    0.0042178443
      5340.08      0.44186867    0.0041645128
      5345.42      0.44248478    0.0041312449
      5350.77      0.44039341    0.0040118107
      5356.12      0.43921235    0.0040560965
      5361.48      0.43842982    0.0040398413
      5366.83      0.43894963    0.0039400078
      5372.20      0.43963612    0.0039880686
      5377.58      0.43973290    0.0039785014
      5382.95      0.44187855    0.0038847911
      5388.34      0.43861201    0.0039367078
      5393.72      0.43840167    0.0038628156
      5399.12      0.43808147    0.0039370644
      5404.52      0.43707403    0.0039360304
      5409.92      0.43536763    0.0038689210
      5415.33      0.43387454    0.0039519673
      5420.75      0.43328622    0.0039611768
      5426.17      0.43456983    0.0039020292
      5431.60      0.43417908    0.0039891208
      5437.03      0.43314638    0.0039340378
      5442.47      0.43310120    0.0039382635
      5447.91      0.43154487    0.0040238142
      5453.36      0.42906510    0.0039461526
      5458.81      0.42920917    0.0040167148
      5464.27      0.42745649    0.0039297173
      5469.73      0.42702799    0.0039130515
      5475.20      0.42626302    0.0039668481
      5480.68      0.42597006    0.0038632165
      5486.16      0.42558641    0.0038393839
      5491.65      0.42404574    0.0038088028
      5497.14      0.42436593    0.0037939369
      5502.64      0.42275113    0.0038605659
      5508.14      0.42216332    0.0037478770
      5513.65      0.42160676    0.0037170874
      5519.16      0.41902660    0.0037069437
      5524.68      0.41667296    0.0037154138
      5530.20      0.41733450    0.0036895980
      5535.73      0.41562111    0.0037623694
      5541.27      0.41305918    0.0037617850
      5546.81      0.41315582    0.0038031494
      5552.36      0.40964414    0.0038255439
      5557.91      0.40914921    0.0038076139
      5563.47      0.40830603    0.0039338789
      5569.04      0.40618615    0.0039658218
      5574.60      0.40496090    0.0040362695
      5580.18      0.40496695    0.0040504577
      5585.76      0.40524269    0.0039993823
      5591.35      0.40429309    0.0040931111
      5596.94      0.40533545    0.0040383719
      5602.53      0.40466644    0.0041296094
      5608.14      0.40363297    0.0040351120
      5613.75      0.40361856    0.0040153417
      5619.36      0.40333424    0.0040313719
      5624.98      0.40055845    0.0039369845
      5630.60      0.39994577    0.0040050861
      5636.23      0.40142334    0.0039257050
      5641.87      0.40064798    0.0039716267
      5647.51      0.40010354    0.0038689932
      5653.16      0.40067146    0.0038460896
      5658.82      0.39876529    0.0038830913
      5664.47      0.39766739    0.0037900752
      5670.14      0.39603782    0.0038208441
      5675.81      0.39593261    0.0037255033
      5681.48      0.39437214    0.0037036718
      5687.17      0.39361750    0.0036499550
      5692.85      0.39243489    0.0036278815
      5698.55      0.38875295    0.0036030814
      5704.25      0.38626441    0.0035901424
      5709.95      0.38296447    0.0035547733
      5715.66      0.38119550    0.0035406103
      5721.38      0.38139534    0.0034738038
      5727.10      0.37880009    0.0035316409
      5732.83      0.37654929    0.0035252597
      5738.56      0.37561764    0.0035019613
      5744.30      0.37482863    0.0034919288
      5750.04      0.37596552    0.0034663960
      5755.79      0.37253981    0.0034516976
      5761.55      0.37027924    0.0034132135
      5767.31      0.36792659    0.0033983521
      5773.08      0.36714416    0.0033240765
      5778.85      0.36712786    0.0033699077
      5784.63      0.36701712    0.0033024980
      5790.41      0.36391229    0.0033513452
      5796.21      0.36219418    0.0032949417
      5802.00      0.36028161    0.0033588167
      5807.81      0.35756600    0.0033136360
      5813.61      0.35489644    0.0033834743
      5819.43      0.35209712    0.0033568354
      5825.25      0.35019413    0.0034407725
      5831.07      0.34844779    0.0034264594
      5836.90      0.34734971    0.0034312901
      5842.74      0.34474360    0.0034441446
      5848.58      0.34413150    0.0034574774
      5854.43      0.34239744    0.0035462847
      5860.29      0.34122158    0.0035901913
      5866.15      0.33550837    0.0036982833
      5872.01      0.33312046    0.0037435003
      5877.89      0.33252883    0.0038926521
      5883.76      0.33075766    0.0039703190
      5889.65      0.33142523    0.0041553700
      5895.54      0.33099465    0.0042163028
      5901.43      0.32726247    0.0043282622
      5907.34      0.32623990    0.0043676398
      5913.24      0.32468631    0.0044164617
      5919.16      0.32162414    0.0043896513
      5925.08      0.31757618    0.0043836582
      5931.00      0.31608942    0.0043859933
      5936.93      0.31716757    0.0044332079
      5942.87      0.31653412    0.0044301193
      5948.81      0.31383841    0.0043857366
      5954.76      0.31110557    0.0043485218
      5960.72      0.31125842    0.0043156774
      5966.68      0.30855087    0.0042932449
      5972.64      0.30416887    0.0042458543
      5978.62      0.30303187    0.0041837185
      5984.60      0.30317361    0.0040908875
      5990.58      0.30412068    0.0040428732
      5996.57      0.30272079    0.0039589870
      6002.57      0.30207407    0.0039186573
      6008.57      0.30280070    0.0038488065
      6014.58      0.30031461    0.0037535939
      6020.60      0.29947999    0.0038680160
      6026.62      0.30021995    0.0037122742
      6032.65      0.29962675    0.0037154834
      6038.68      0.30063972    0.0036597571
      6044.72      0.30079260    0.0037374117
      6050.76      0.30140878    0.0037240180
      6056.81      0.30090463    0.0038445951
      6062.87      0.30145804    0.0037947117
      6068.93      0.30195660    0.0038982351
      6075.00      0.30057094    0.0038446136
      6081.08      0.29916795    0.0038960710
      6087.16      0.29766343    0.0039178647
      6093.25      0.30010844    0.0039826863
      6099.34      0.29946627    0.0040106558
      6105.44      0.29920326    0.0040245309
      6111.54      0.29545947    0.0040313207
      6117.66      0.29336189    0.0040525559
      6123.78      0.29384288    0.0040678657
      6129.90      0.29044562    0.0041485407
      6136.03      0.28742533    0.0043042779
      6142.17      0.28555104    0.0042268552
      6148.31      0.28359229    0.0043853634
      6154.46      0.28231484    0.0044579780
      6160.61      0.28020863    0.0047461208
      6166.77      0.27944085    0.0049206720
      6172.94      0.28051572    0.0055673496
      6179.11      0.27951919    0.0054897822
      6185.29      0.27692543    0.0057634701
      6191.48      0.27320750    0.0057520308
      6197.67      0.27262894    0.0059327264
      6203.87      0.26794530    0.0058244731
      6210.07      0.27097943    0.0055418318
      6216.28      0.26851277    0.0054196666
      6222.50      0.26882866    0.0049100080
      6228.72      0.26549284    0.0047441783
      6234.95      0.26647630    0.0045238253
      6241.19      0.26793595    0.0045269200
      6247.42      0.26503398    0.0044244402
      6253.67      0.26401999    0.0043767928
      6259.93      0.26269665    0.0044629800
      6266.19      0.26410264    0.0044816417
      6272.46      0.26251023    0.0045893398
      6278.73      0.26260416    0.0045782114
      6285.01      0.26226574    0.0045915746
      6291.29      0.26344302    0.0045848847
      6297.58      0.26241497    0.0045799639
      6303.88      0.26162872    0.0046394492
      6310.19      0.25800116    0.0045353242
      6316.50      0.25458909    0.0045774666
      6322.81      0.25474148    0.0046105729
      6329.14      0.25674074    0.0047233974
      6335.47      0.25578138    0.0046671660
      6341.80      0.25470535    0.0047209873
      6348.14      0.25207157    0.0047733006
      6354.49      0.25350990    0.0048300852
      6360.85      0.25379612    0.0049821356
      6367.21      0.25409786    0.0049819933
      6373.57      0.25666233    0.0050889407
      6379.95      0.25772499    0.0051595920
      6386.33      0.25611132    0.0051069943
      6392.72      0.25613462    0.0052671539
      6399.11      0.25408363    0.0052402873
      6405.51      0.25323780    0.0053698755
      6411.92      0.25679333    0.0054675207
      6418.32      0.25545488    0.0054049031
      6424.74      0.25555888    0.0054342715
      6431.17      0.25475945    0.0053366063
      6437.60      0.25458780    0.0053438765
      6444.04      0.25592485    0.0054446846
      6450.48      0.25160843    0.0053371408
      6456.94      0.25220576    0.0053500724
      6463.39      0.25112006    0.0054298112
      6469.85      0.24792641    0.0053226535
      6476.33      0.24933528    0.0052921839
      6482.80      0.25039291    0.0052865279
      6489.28      0.25280350    0.0053328536
      6495.77      0.25232228    0.0054501478
      6502.27      0.25182784    0.0052716273
      6508.77      0.24798250    0.0051410049
      6515.28      0.24921979    0.0051134871
      6521.80      0.24989272    0.0049565235
      6528.32      0.25213560    0.0048361517
      6534.85      0.25218549    0.0047821334
      6541.38      0.25247879    0.0046630619
      6547.92      0.25306887    0.0045665678
      6554.47      0.25103068    0.0045326914
      6561.03      0.24968163    0.0044582781
      6567.59      0.24951927    0.0043730857
      6574.16      0.25040588    0.0043465793
      6580.73      0.25236074    0.0043429536
      6587.31      0.24962850    0.0043525564
      6593.90      0.24870813    0.0042896135
      6600.50      0.24991609    0.0043462812
      6607.10      0.24703956    0.0043159768
      6613.70      0.24768310    0.0044214068
      6620.32      0.24754470    0.0045561702
      6626.94      0.24739200    0.0046053584
      6633.57      0.24544460    0.0047476923
      6640.20      0.24453967    0.0049307075
      6646.84      0.24281868    0.0049524911
      6653.49      0.24097150    0.0050414533
      6660.14      0.23691674    0.0051725102
      6666.80      0.23386135    0.0051177063
      6673.47      0.23149723    0.0051277970
      6680.14      0.22735364    0.0050637091
      6686.82      0.22716855    0.0049990790
      6693.51      0.22441106    0.0049088275
      6700.20      0.22112611    0.0049137073
      6706.90      0.21783792    0.0049488021
      6713.61      0.21304339    0.0051340775
      6720.32      0.21161092    0.0053493712
      6727.05      0.21194107    0.0054182313
      6733.77      0.20895329    0.0055143077
      6740.51      0.20998783    0.0056365938
      6747.25      0.20867137    0.0058101742
      6754.00      0.20744100    0.0058785440
      6760.75      0.20495935    0.0059948708
      6767.51      0.20690503    0.0060365039
      6774.28      0.20981907    0.0059323275
      6781.05      0.21263736    0.0060034944
      6787.84      0.21157153    0.0060765494
      6794.62      0.21424389    0.0060366654
      6801.42      0.21748946    0.0062145190
      6808.22      0.22127373    0.0063004393
      6815.03      0.22198375    0.0062558651
      6821.85      0.22155861    0.0062346186
      6828.67      0.21679582    0.0062692780
      6835.50      0.21287693    0.0063114670
      6842.33      0.20749465    0.0063183190
      6849.17      0.21207148    0.0063977945
      6856.02      0.21329179    0.0064157899
      6862.88      0.21327821    0.0061946812
      6869.74      0.21326853    0.0060739785
      6876.61      0.21072148    0.0059741796
      6883.49      0.20705971    0.0059743338
      6890.37      0.20689920    0.0058031208
      6897.27      0.20490207    0.0056557137
      6904.16      0.20472133    0.0055258673
      6911.07      0.20491383    0.0055509634
      6917.98      0.20552766    0.0054199188
      6924.89      0.20738226    0.0053206326
      6931.82      0.20700377    0.0052417186
      6938.75      0.20659404    0.0052385354
      6945.69      0.20197498    0.0052454426
      6952.64      0.20040905    0.0052011124
      6959.59      0.19755731    0.0051617694
      6966.55      0.19979427    0.0051878035
      6973.52      0.20077645    0.0053042713
      6980.49      0.20489655    0.0053835458
      6987.47      0.20537970    0.0055080273
      6994.46      0.20551757    0.0055607710
      7001.46      0.20491144    0.0058505719
      7008.46      0.20156837    0.0061499038
      7015.46      0.20022087    0.0064132350
      7022.48      0.20332038    0.0064314730
      7029.51      0.20201188    0.0065461780
      7036.53      0.20202061    0.0066790614
      7043.57      0.19924273    0.0066493248
      7050.62      0.19804641    0.0065393324
      7057.66      0.19389730    0.0064438236
      7064.72      0.19322046    0.0061871666
      7071.79      0.18996312    0.0060440030
      7078.86      0.18439627    0.0059280360
      7085.94      0.18193395    0.0059644889
      7093.03      0.17975854    0.0060102874
      7100.12      0.18081368    0.0062148047
      7107.22      0.17933526    0.0063315662
      7114.33      0.17732180    0.0066063774
      7121.44      0.17462002    0.0066214144
      7128.56      0.17095447    0.0066852927
      7135.69      0.16832423    0.0068712082
      7142.83      0.16714335    0.0068990613
      7149.97      0.16311427    0.0070090038
      7157.12      0.16145297    0.0069806082
      7164.28      0.16339599    0.0070662281
      7171.44      0.16384006    0.0070222475
      7178.62      0.15697566    0.0070183398
      7185.80      0.15687566    0.0069700398
      7192.98      0.15249715    0.0070359125
      7200.17      0.15408664    0.0070193496
      7207.38      0.15386949    0.0070802591
      7214.58      0.15220434    0.0070912378
      7221.80      0.15147545    0.0071713036
      7229.02      0.15197687    0.0071428212
      7236.25      0.14670178    0.0070141496
      7243.49      0.14004437    0.0069615379
      7250.73      0.13726113    0.0068839710
      7257.98      0.13666302    0.0068738980
      7265.24      0.13455718    0.0067840626
      7272.51      0.13691080    0.0066737843
      7279.78      0.13578708    0.0065373334
      7287.06      0.13379572    0.0064233689
      7294.35      0.13233078    0.0062898790
      7301.64      0.13135540    0.0061765121
      7308.94      0.13161574    0.0060844848
      7316.25      0.12949399    0.0059682815
      7323.57      0.13116274    0.0059217534
      7330.89      0.13228518    0.0057916757
      7338.22      0.13377510    0.0057496108
      7345.56      0.13409187    0.0056713980
      7352.91      0.13353457    0.0056480818
      7360.26      0.13319225    0.0056040170
      7367.62      0.13372909    0.0055999408
      7374.99      0.13162321    0.0055872525
      7382.37      0.13017163    0.0055103119
      7389.75      0.13499263    0.0055468493
      7397.14      0.13605335    0.0055251702
      7404.53      0.13615926    0.0055375929
      7411.94      0.13516930    0.0055018494
      7419.35      0.13292469    0.0055067638
      7426.77      0.13268531    0.0054730341
      7434.20      0.13163955    0.0055669311
      7441.63      0.13199053    0.0056763752
      7449.07      0.13182746    0.0057313936
      7456.52      0.13009661    0.0058410602
      7463.98      0.12732457    0.0059801538
      7471.45      0.12581656    0.0061930239
      7478.92      0.12577971    0.0063641644
      7486.40      0.12526819    0.0066658661
      7493.88      0.12588456    0.0070057406
      7501.38      0.12454742    0.0075523566
      7508.88      0.12416580    0.0081399891
      7516.39      0.12354440    0.0087315218
      7523.91      0.12225034    0.0097293065
      7531.43      0.12129941     0.011050527
      7538.96      0.11998700     0.013124336
      7546.50      0.12155458     0.015301122
      7554.05      0.12132957     0.017269597
