# starting wavelength =        3324.5695
# ending wavelength =        7528.9122
# O2 telluric scale =        0
# O2 telluric shift =        0
# H2O telluric scale =        0
# H2O telluric shift =        0
      3324.95      0.67015986     0.068107036
      3328.28      0.66818206     0.066829070
      3331.61      0.66844600     0.066190962
      3334.94      0.67760140     0.064925179
      3338.27      0.71460086     0.063676392
      3341.61      0.70385721     0.062445087
      3344.95      0.66887817     0.061060001
      3348.30      0.62670907     0.059869637
      3351.65      0.61462747     0.058697793
      3355.00      0.64404387     0.057544926
      3358.35      0.64838356     0.057108504
      3361.71      0.67046641     0.055820727
      3365.07      0.67299123     0.054709011
      3368.44      0.66059402     0.053618237
      3371.81      0.67220985     0.052548749
      3375.18      0.67378252     0.051500948
      3378.56      0.67891664     0.050475157
      3381.94      0.70055936     0.049359125
      3385.32      0.69533151     0.048372547
      3388.70      0.69550545     0.047971438
      3392.09      0.70307425     0.047018173
      3395.48      0.70591845     0.046088135
      3398.88      0.71364375     0.045093232
      3402.28      0.71299994     0.044203826
      3405.68      0.68618628     0.043337742
      3409.09      0.71383161     0.042494864
      3412.49      0.73715172     0.041675051
      3415.91      0.73387885     0.040878090
      3419.32      0.76319023     0.040103774
      3422.74      0.79550469     0.039248800
      3426.17      0.81073947     0.038977258
      3429.59      0.82731353     0.038253478
      3433.02      0.83378136     0.037551576
      3436.45      0.83445245     0.036871223
      3439.89      0.81329736     0.036212052
      3443.33      0.79387124     0.035474629
      3446.78      0.78962926     0.034857046
      3450.22      0.77903554     0.034259493
      3453.67      0.75533204     0.033681574
      3457.13      0.73464267     0.033122971
      3460.58      0.73789683     0.032583360
      3464.04      0.75302023     0.032062347
      3467.51      0.76246064     0.031467192
      3470.98      0.77385914     0.030978584
      3474.45      0.77240319     0.030818324
      3477.92      0.77234594     0.030357325
      3481.40      0.76497313     0.029913584
      3484.88      0.76387991     0.029486759
      3488.37      0.74540360     0.029076539
      3491.86      0.74111969     0.028682558
      3495.35      0.75225936     0.028214555
      3498.84      0.73801461     0.027848580
      3502.34      0.74037772     0.027497991
      3505.84      0.74553550     0.027162460
      3509.35      0.75624679     0.026841670
      3512.86      0.76161853     0.026535305
      3516.37      0.76844691     0.026243065
      3519.89      0.76038644     0.025964636
      3523.41      0.76405829     0.025699718
      3526.93      0.76398073     0.025344576
      3530.46      0.77200268     0.025104597
      3533.99      0.78542953     0.024877203
      3537.53      0.78283201     0.024662105
      3541.06      0.78713960     0.024459030
      3544.60      0.81007388     0.024267712
      3548.15      0.81601441     0.024087841
      3551.70      0.80935564     0.023919166
      3555.25      0.82736167     0.023761437
      3558.80      0.82524173     0.023614345
      3562.36      0.82989298     0.023361691
      3565.92      0.83603484     0.023232493
      3569.49      0.84330227     0.023113213
      3573.06      0.84551649     0.023003587
      3576.64      0.83876127     0.022903361
      3580.21      0.82983384     0.022812281
      3583.79      0.83413743     0.022730096
      3587.38      0.83823299     0.022656552
      3590.96      0.84113887     0.022591401
      3594.55      0.84468284     0.022534396
      3598.15      0.85372373     0.022485282
      3601.75      0.86156925     0.022443814
      3605.35      0.86543275     0.022409751
      3608.96      0.85399479     0.022382840
      3612.56      0.84752470     0.022229228
      3616.18      0.83149714     0.022214212
      3619.79      0.81300696     0.022205617
      3623.41      0.80571898     0.022203211
      3627.04      0.79413546     0.022206731
      3630.66      0.80000117     0.022215939
      3634.29      0.80006924     0.022230595
      3637.93      0.79037070     0.022250440
      3641.57      0.79815891     0.022275225
      3645.21      0.80618683     0.022304709
      3648.86      0.81443622     0.022338637
      3652.50      0.80851340     0.022376766
      3656.16      0.80939306     0.022418825
      3659.81      0.80698590     0.022464565
      3663.47      0.82052278     0.022513744
      3667.14      0.83805230     0.022566083
      3670.80      0.85762811     0.022621329
      3674.48      0.87469862     0.022557215
      3678.15      0.87792781     0.022617477
      3681.83      0.89474375     0.022679791
      3685.51      0.91047779     0.022743879
      3689.20      0.91255454     0.022809486
      3692.88      0.91110844     0.022876360
      3696.58      0.92527705     0.022944225
      3700.27      0.93805597     0.023012829
      3703.98      0.95947932     0.023081908
      3707.68      0.96595689     0.023151201
      3711.39      0.97985378     0.023220444
      3715.10      0.98636310     0.023289370
      3718.81      0.98720865     0.023357721
      3722.53      0.99221894     0.023425243
      3726.26      0.99274041     0.023367939
      3729.98      0.99582401     0.023431208
      3733.71      0.98169074     0.023492856
      3737.45      0.97224326     0.023552630
      3741.18      0.96779759     0.023610347
      3744.93      0.95954438     0.023665819
      3748.67      0.93952888     0.023718874
      3752.42      0.91856152     0.023769372
      3756.17      0.90811431     0.023817155
      3759.93      0.88423363     0.023862123
      3763.69      0.86015211     0.023904178
      3767.45      0.83822207     0.023808874
      3771.22      0.81703699     0.023843929
      3774.99      0.79298018     0.023875900
      3778.77      0.77900595     0.023904764
      3782.54      0.76746793     0.023930521
      3786.33      0.75166570     0.023953164
      3790.11      0.74196580     0.023972716
      3793.90      0.72758105     0.023989203
      3797.70      0.71918074     0.023859401
      3801.50      0.66945079     0.033868582
      3805.30      0.66997693     0.033870607
      3809.10      0.67777163     0.033868968
      3812.91      0.65808859     0.033863862
      3816.73      0.66168310     0.033855450
      3820.54      0.69017962     0.033843855
      3824.36      0.67489183     0.033829199
      3828.19      0.67103328     0.033846900
      3832.02      0.68129580     0.033813980
      3835.85      0.68469171     0.033778371
      3839.68      0.69887235     0.033740020
      3843.52      0.70451069     0.033699174
      3847.37      0.72075765     0.033655943
      3851.22      0.71732857     0.033610468
      3855.07      0.71527076     0.033562924
      3858.92      0.70334104     0.033125915
      3862.78      0.71111554     0.033074358
      3866.64      0.71480078     0.033021077
      3870.51      0.70604647     0.034180738
      3874.38      0.70858781     0.035168218
      3878.26      0.70720018     0.036479426
      3882.13      0.71173376     0.033597299
      3886.02      0.71472368     0.033172739
      3889.90      0.74294602     0.033921290
      3893.79      0.76193659     0.034889362
      3897.69      0.77750545     0.035944085
      3901.59      0.81631460     0.036963369
      3905.49      0.87972170     0.038437129
      3909.39      0.93717426     0.038105040
      3913.30       1.0002564     0.037935170
      3917.22       1.0793273     0.037105062
      3921.13       1.1147955     0.036028954
      3925.06       1.1338325     0.034832657
      3928.98       1.1531053     0.033639179
      3932.91       1.1443302     0.032209157
      3936.84       1.1627220     0.031842921
      3940.78       1.1602672     0.031798567
      3944.72       1.1489932     0.034129218
      3948.67       1.1601940     0.032768454
      3952.61       1.1808188     0.031417928
      3956.57       1.2026548     0.030524904
      3960.52       1.2133801     0.030411462
      3964.48       1.2100064     0.030639332
      3968.45       1.2160102     0.030527140
      3972.42       1.2613215     0.030044281
      3976.39       1.2813196     0.029921559
      3980.37       1.3317530     0.029800761
      3984.35       1.3635866     0.029682026
      3988.33       1.4050578     0.029894967
      3992.32       1.4295564     0.029418924
      3996.31       1.4182076     0.029291076
      4000.31       1.4139282     0.029165841
      4004.31       1.4227265     0.029043354
      4008.31       1.4234211     0.028923669
      4012.32       1.4448111     0.028774578
      4016.33       1.4353792     0.028644690
      4020.35       1.4490267     0.028518008
      4024.37       1.4529599     0.028394739
      4028.40       1.4388204     0.027943450
      4032.42       1.4433183     0.028123143
      4036.46       1.4375737     0.027994186
      4040.50       1.4156839     0.027869191
      4044.54       1.4056350     0.027422836
      4048.58       1.3962404     0.027307556
      4052.63       1.3567329     0.027476983
      4056.68       1.3192509     0.027352216
      4060.74       1.2653661     0.026912980
      4064.80       1.2233881     0.026799170
      4068.86       1.2060628     0.026690034
      4072.93       1.1780087     0.026849356
      4077.01       1.1552140     0.026419367
      4081.08       1.1402296     0.026308998
      4085.17       1.1386433     0.026203799
      4089.25       1.1270651     0.026103936
      4093.34       1.1188502     0.025947790
      4097.43       1.1326726     0.025842685
      4101.53       1.1477913     0.025743269
      4105.63       1.1535218     0.025649670
      4109.74       1.1923975     0.025503405
      4113.85       1.2139651     0.025405210
      4117.96       1.2083849     0.025313039
      4122.08       1.2266559     0.024920795
      4126.20       1.2322585     0.025089680
      4130.33       1.2299314     0.024999290
      4134.46       1.2230334     0.024915213
      4138.59       1.2089131     0.024533198
      4142.73       1.2295723     0.024707368
      4146.88       1.2335964     0.024625400
      4151.02       1.2241408     0.024261282
      4155.18       1.2072214     0.024175974
      4159.33       1.1841521     0.024356321
      4163.49       1.1663573     0.024008439
      4167.65       1.1275451     0.023925462
      4171.82       1.0988628     0.023849005
      4175.99       1.0759242     0.024036263
      4180.17       1.0323863     0.023693027
      4184.35       1.0091835     0.023619173
      4188.54      0.99051229     0.023552006
      4192.72      0.96429027     0.023477677
      4196.92      0.94128900     0.023406608
      4201.11      0.92619034     0.023342388
      4205.31      0.91029628     0.023278514
      4209.52      0.89859325     0.023210398
      4213.73      0.87851717     0.023149312
      4217.94      0.87145237     0.022846278
      4222.16      0.87776716     0.023029758
      4226.38      0.85836539     0.022971997
      4230.61      0.86180815     0.022675356
      4234.84      0.88270160     0.022863915
      4239.08      0.88604044     0.022809750
      4243.32      0.88706197     0.022519515
      4247.56      0.88239782     0.022712328
      4251.81      0.90405001     0.022420129
      4256.06      0.92306598     0.022378172
      4260.32      0.93465785     0.022343497
      4264.58      0.95741000     0.022288586
      4268.84      0.96533548     0.022250815
      4273.11      0.98341242     0.022220480
      4277.38       1.0066921     0.022170346
      4281.66       1.0045984     0.022136997
      4285.94       1.0230098     0.022111272
      4290.23       1.0276084     0.022064991
      4294.52       1.0351417     0.022036344
      4298.81       1.0289290     0.021770088
      4303.11       1.0285609     0.021972209
      4307.42       1.0358901     0.021948556
      4311.72       1.0372753     0.021684633
      4316.04       1.0454490     0.021891726
      4320.35       1.0333572     0.021639823
      4324.67       1.0142398     0.021610907
      4329.00       1.0067158     0.021823375
      4333.33       1.0124050     0.021572215
      4337.66       1.0078503     0.021548739
      4342.00       1.0136870     0.021541696
      4346.34       1.0108267     0.021515695
      4350.69      0.99304937     0.021731742
      4355.04       1.0076141     0.021490361
      4359.39       1.0054975     0.021470289
      4363.75       1.0191599     0.021472167
      4368.12       1.0278186     0.021449751
      4372.48       1.0348623     0.021435988
      4376.86       1.0477241     0.021435877
      4381.23       1.0423036     0.021419937
      4385.61       1.0585090     0.021428293
      4390.00       1.0501089     0.021410132
      4394.39       1.0447158     0.021189847
      4398.79       1.0346706     0.021406104
      4403.18       1.0121273     0.021395088
      4407.59      0.99806460     0.021407494
      4412.00      0.99385254     0.021394492
      4416.41      0.99364108     0.021180824
      4420.82      0.99091051     0.021398908
      4425.25      0.99820509     0.021183835
      4429.67      0.98884718     0.021407889
      4434.10      0.97966440     0.021191370
      4438.54      0.99503421     0.021194584
      4442.97      0.99402211     0.021203101
      4447.42       1.0072619     0.021205033
      4451.86       1.0014220     0.021428151
      4456.32       1.0162187     0.021219368
      4460.77       1.0360334     0.021229988
      4465.24       1.0421515     0.021923624
      4469.70       1.0547023     0.022571151
      4474.17       1.0562990     0.021302944
      4478.65       1.0655938     0.021367749
      4483.12       1.0637916     0.021704240
      4487.61       1.0714057     0.022152212
      4492.09       1.0934743     0.022440861
      4496.59       1.1122749     0.023259483
      4501.08       1.1246734     0.023411518
      4505.58       1.1417730     0.024076798
      4510.09       1.1474571     0.023854895
      4514.60       1.1537503     0.023927245
      4519.12       1.1627616     0.023336534
      4523.63       1.1807891     0.023074158
      4528.16       1.1915541     0.022379688
      4532.69       1.2160587     0.022062589
      4537.22       1.2432359     0.021511700
      4541.76       1.2641084     0.021264607
      4546.30       1.2968574     0.021576246
      4550.85       1.3136559     0.022617220
      4555.40       1.3264602     0.021835918
      4559.95       1.3422049     0.021336405
      4564.51       1.3382719     0.021370118
      4569.08       1.3501156     0.021378455
      4573.65       1.3777902     0.021412695
      4578.22       1.3986136     0.021223482
      4582.80       1.3962783     0.021456326
      4587.38       1.4111778     0.021267890
      4591.97       1.4057277     0.021500975
      4596.56       1.3940387     0.021313474
      4601.16       1.4029942     0.021546495
      4605.76       1.3909308     0.021360159
      4610.37       1.3876203     0.021592901
      4614.98       1.3860874     0.021407890
      4619.59       1.3860124     0.021640085
      4624.21       1.3644114     0.021456619
      4628.84       1.3400379     0.021487508
      4633.47       1.3312315     0.021506333
      4638.10       1.3292014     0.021535839
      4642.74       1.3065868     0.021557035
      4647.38       1.2865856     0.021584903
      4652.03       1.2658740     0.021608656
      4656.68       1.2655879     0.021634692
      4661.34       1.2637639     0.021446871
      4666.00       1.2581217     0.021685225
      4670.67       1.2251654     0.021717780
      4675.33       1.2177609     0.021736547
      4680.01       1.1769484     0.021766572
      4684.69       1.1500630     0.021580653
      4689.38       1.1319466     0.021815973
      4694.07       1.0615589     0.021626720
      4698.76       1.0262688     0.021866076
      4703.46      0.99324335     0.021673288
      4708.16      0.95565715     0.021712419
      4712.87      0.91858525     0.021720417
      4717.58      0.89747091     0.021756076
      4722.30      0.87658870     0.021993888
      4727.03      0.85756007     0.021800185
      4731.75      0.84022517     0.021839033
      4736.48      0.84917661     0.021844935
      4741.22      0.87499460     0.021879727
      4745.96      0.89755115     0.021695142
      4750.71      0.91890127     0.021921020
      4755.46      0.95487120     0.021957921
      4760.22      0.96682815     0.021963042
      4764.97      0.99052853     0.021995366
      4769.74       1.0000093     0.021809347
      4774.51       1.0267513     0.022033587
      4779.29       1.0424638     0.022066937
      4784.07       1.0294291     0.021875309
      4788.85       1.0351399     0.022101114
      4793.64       1.0379764     0.021915231
      4798.43       1.0389705     0.021937991
      4803.23       1.0313682     0.022164768
      4808.03       1.0498026     0.021974184
      4812.84       1.0518132     0.021996702
      4817.66       1.0536227     0.022011923
      4822.48       1.0651779     0.022029149
      4827.30       1.0887082     0.022050968
      4832.12       1.1019948     0.022063476
      4836.96       1.1159126     0.022079863
      4841.79       1.1345693     0.022100658
      4846.63       1.1563086     0.022111095
      4851.48       1.1644451     0.022126357
      4856.33       1.1614923     0.021929170
      4861.19       1.1612114     0.022154927
      4866.05       1.1647921     0.022168812
      4870.92       1.1505066     0.021969897
      4875.79       1.1116856     0.021991402
      4880.66       1.0858406     0.022207493
      4885.55       1.0761827     0.022006696
      4890.43       1.0648581     0.022026296
      4895.32       1.0625309     0.022242770
      4900.22       1.0721872     0.022039914
      4905.12       1.0481986     0.022266591
      4910.02       1.0337803     0.022102770
      4914.94       1.0257804     0.022085196
      4919.85       1.0274002     0.022104272
      4924.77       1.0448024     0.022181651
      4929.70       1.0707760     0.022267914
      4934.62       1.0901500     0.022372091
      4939.56       1.1162171     0.022472555
      4944.50       1.1358667     0.022341909
      4949.44       1.1569780     0.022602885
      4954.39       1.1823748     0.022621992
      4959.35       1.2040618     0.022376389
      4964.31       1.2244066     0.022338649
      4969.27       1.2294284     0.022491449
      4974.24       1.2572727     0.022404332
      4979.22       1.2845573     0.022106784
      4984.20       1.3066925     0.022040519
      4989.18       1.3246847     0.022200940
      4994.17       1.3379924     0.021987394
      4999.16       1.3336751     0.022087409
      5004.16       1.3328865     0.022015635
      5009.17       1.3404544     0.022025572
      5014.18       1.3526449     0.022027273
      5019.19       1.3701136     0.022032150
      5024.21       1.3618009     0.022233979
      5029.23       1.3526831     0.022713571
      5034.26       1.3441987     0.023657444
      5039.30       1.3403021     0.022427795
      5044.34       1.3271914     0.022166786
      5049.39       1.3041575     0.022358076
      5054.43       1.2739493     0.022926501
      5059.49       1.2424446     0.023818211
      5064.55       1.2016592     0.024568408
      5069.61       1.1719108     0.024883757
      5074.68       1.1406886     0.025341740
      5079.76       1.1286505     0.025564389
      5084.84       1.1074806     0.025298916
      5089.92       1.0984762     0.024818850
      5095.01       1.1038751     0.024188378
      5100.11       1.1099154     0.023491707
      5105.21       1.1151381     0.022839673
      5110.31       1.1448847     0.022346237
      5115.42       1.1484575     0.021994211
      5120.54       1.1683203     0.022322932
      5125.66       1.2188782     0.023563197
      5130.79       1.2283502     0.022643805
      5135.92       1.2379309     0.021979256
      5141.05       1.2278314     0.021784738
      5146.20       1.2338078     0.021793439
      5151.34       1.2416703     0.021989165
      5156.49       1.2380565     0.022000609
      5161.65       1.2326921     0.021815769
      5166.81       1.2191285     0.021823331
      5171.98       1.2268787     0.021832066
      5177.15       1.2505110     0.021841876
      5182.33       1.2504715     0.021852708
      5187.51       1.2628498     0.021859982
      5192.70       1.2871593     0.021867093
      5197.89       1.2942759     0.021875044
      5203.09       1.2891701     0.021883735
      5208.29       1.3089734     0.021893084
      5213.50       1.3183411     0.021902987
      5218.72       1.3410753     0.021715429
      5223.93       1.3547378     0.021726057
      5229.16       1.3601123     0.021736930
      5234.39       1.3570238     0.021933011
      5239.62       1.3344255     0.021939903
      5244.86       1.3372464     0.021946913
      5250.11       1.3286317     0.021953953
      5255.36       1.3137313     0.021763007
      5260.61       1.3127000     0.021769802
      5265.87       1.3209086     0.021776377
      5271.14       1.3309755     0.021782602
      5276.41       1.3443106     0.021788409
      5281.69       1.3506249     0.021793760
      5286.97       1.3675579     0.021798483
      5292.26       1.3791602     0.021604916
      5297.55       1.3881350     0.021784592
      5302.85       1.4062118     0.021784245
      5308.15       1.4437228     0.021783104
      5313.46       1.4643274     0.021781084
      5318.77       1.4803830     0.021778106
      5324.09       1.4723967     0.021774123
      5329.42       1.4747180     0.021768998
      5334.75       1.4697016     0.021762692
      5340.08       1.4484599     0.021568479
      5345.42       1.4148742     0.021557574
      5350.77       1.3758548     0.021545376
      5356.12       1.3489383     0.021531817
      5361.48       1.3236485     0.021516814
      5366.83       1.3006956     0.021500307
      5372.20       1.2785971     0.021482221
      5377.58       1.2676118     0.021462488
      5382.95       1.2474653     0.021441051
      5388.34       1.2465584     0.021417827
      5393.72       1.2230616     0.021392758
      5399.12       1.2397506     0.021365770
      5404.52       1.2486355     0.021156651
      5409.92       1.2515633     0.021126258
      5415.33       1.2560581     0.021093764
      5420.75       1.2499734     0.021059135
      5426.17       1.2376513     0.021022337
      5431.60       1.2370771     0.020983267
      5437.03       1.2429562     0.020941876
      5442.47       1.2168508     0.020898119
      5447.91       1.2008687     0.020851935
      5453.36       1.1938063     0.020803299
      5458.81       1.1951665     0.020752094
      5464.27       1.1888685     0.020698298
      5469.73       1.1923158     0.020641900
      5475.20       1.2002909     0.020582775
      5480.68       1.2034424     0.020520919
      5486.16       1.1990820     0.020456300
      5491.65       1.2010909     0.020388881
      5497.14       1.1881275     0.020318596
      5502.64       1.2064536     0.020245470
      5508.14       1.2134947     0.020169481
      5513.65       1.2162243     0.020090683
      5519.16       1.1964199     0.020009086
      5524.68       1.1722371     0.019924784
      5530.20       1.1529840     0.019664536
      5535.73       1.1235402     0.019575501
      5541.27       1.1199922     0.019484174
      5546.81       1.1032503     0.019390712
      5552.36       1.1040628     0.019295283
      5557.91       1.0990418     0.019198076
      5563.47       1.0836829     0.019099241
      5569.04       1.0811852     0.018998973
      5574.60       1.0735748     0.018897448
      5580.18       1.0693790     0.018794857
      5585.76       1.0560231     0.018691379
      5591.35       1.0454774     0.018587203
      5596.94       1.0398068     0.018315446
      5602.53       1.0309288     0.018209392
      5608.14       1.0397520     0.018103129
      5613.75       1.0411876     0.017996885
      5619.36       1.0461071     0.017890866
      5624.98       1.0354383     0.017957874
      5630.60       1.0392436     0.017729637
      5636.23       1.0402739     0.017586385
      5641.87       1.0378541     0.017496373
      5647.51       1.0411513     0.017409122
      5653.16       1.0375685     0.017368895
      5658.82       1.0487527     0.017330987
      5664.47       1.0479513     0.017287269
      5670.14       1.0426807     0.017231831
      5675.81       1.0390578     0.017160866
      5681.48       1.0184323     0.017603716
      5687.17      0.99022753     0.017357103
      5692.85      0.95130558     0.016739605
      5698.55      0.90762902     0.016652173
      5704.25      0.86827274     0.016765159
      5709.95      0.84380181     0.016970958
      5715.66      0.80840748     0.017327617
      5721.38      0.77304095     0.017488428
      5727.10      0.74501250     0.017697064
      5732.83      0.71216640     0.017859158
      5738.56      0.68838214     0.017734723
      5744.30      0.67563884     0.017518853
      5750.04      0.67260164     0.017205654
      5755.79      0.67903426     0.016637885
      5761.55      0.70076883     0.016369548
      5767.31      0.71900395     0.015992052
      5773.08      0.74605582     0.015684063
      5778.85      0.78015806     0.015503927
      5784.63      0.80558459     0.015512053
      5790.41      0.82422966     0.016243716
      5796.21      0.85496491     0.015701257
      5802.00      0.87499211     0.015429620
      5807.81      0.88966367     0.015428486
      5813.61      0.93331740     0.015316847
      5819.43      0.96165897     0.015326107
      5825.25      0.97224394     0.015342206
      5831.07      0.98302681     0.015365361
      5836.90       1.0061934     0.015287848
      5842.74       1.0085525     0.015452675
      5848.58       1.0214868     0.015496026
      5854.43       1.0302279     0.015547109
      5860.29       1.0297655     0.015501245
      5866.15       1.0382468     0.015568696
      5872.01       1.0344043     0.015777775
      5877.89       1.0285784     0.015858265
      5883.76       1.0412874     0.015843869
      5889.65       1.0375584     0.015940405
      5895.54       1.0388935     0.016044598
      5901.43       1.0320165     0.016297242
      5907.34       1.0517609     0.016310876
      5913.24       1.0533244     0.016433998
      5919.16       1.0749013     0.016564059
      5925.08       1.0966272     0.016700901
      5931.00       1.1090786     0.016887606
      5936.93       1.1191953     0.017033534
      5942.87       1.1219744     0.017185597
      5948.81       1.1447713     0.017234362
      5954.76       1.1300335     0.017555885
      5960.72       1.1353765     0.017720523
      5966.68       1.1124528     0.017782979
      5972.64       1.0935696     0.017950849
      5978.62       1.0729547     0.018296442
      5984.60       1.0542691     0.018368746
      5990.58       1.0386567     0.018544637
      5996.57       1.0282173     0.018724657
      6002.57      0.99635920     0.019089823
      6008.57      0.97736391     0.019163678
      6014.58      0.95659384     0.019348412
      6020.60      0.94273795     0.019536455
      6026.62      0.93564413     0.019798574
      6032.65      0.93113389     0.019985373
      6038.68      0.91796644     0.020174885
      6044.72      0.91723767     0.020248939
      6050.76      0.90341325     0.020626205
      6056.81      0.90781463     0.020693012
      6062.87      0.91706110     0.020881837
      6068.93      0.91477527     0.021261519
      6075.00      0.92618581     0.021319311
      6081.08      0.92111614     0.021503768
      6087.16      0.92431494     0.021881945
      6093.25      0.93550973     0.021927929
      6099.34      0.94805783     0.022105510
      6105.44      0.95312004     0.022141416
      6111.54      0.95854552     0.022509660
      6117.66      0.96723768     0.022677910
      6123.78      0.96998307     0.022695896
      6129.90      0.98073786     0.023055382
      6136.03      0.98119492     0.023211867
      6142.17      0.98252884     0.023208497
      6148.31      0.96831547     0.023556013
      6154.46      0.98198361     0.023541433
      6160.61      0.98410337     0.023670231
      6166.77      0.97677355     0.023847775
      6172.94      0.97864154     0.023960957
      6179.11      0.98772133     0.024277110
      6185.29       1.0026671     0.024220489
      6191.48       1.0140670     0.024314549
      6197.67       1.0150276     0.024445626
      6203.87       1.0093748     0.024521318
      6210.07      0.98338358     0.024430502
      6216.28      0.98395849     0.024690217
      6222.50      0.96529361     0.024934402
      6228.72      0.96475311     0.025611919
      6234.95      0.94703288     0.025273380
      6241.19      0.94699924     0.024727711
      6247.42      0.92446654     0.025105117
      6253.67      0.90351778     0.025334272
      6259.93      0.89431470     0.025819749
      6266.19      0.88985603     0.026377648
      6272.46      0.88017606     0.026839860
      6278.73      0.86709107     0.027216173
      6285.01      0.85578543     0.027428050
      6291.29      0.88013964     0.027371346
      6297.58      0.88866658     0.027057350
      6303.88      0.87585816     0.026361465
      6310.19      0.85407695     0.026058751
      6316.50      0.81998658     0.025293192
      6322.81      0.77238688     0.024969186
      6329.14      0.71983575     0.024412158
      6335.47      0.69320360     0.024457523
      6341.80      0.64859398     0.024645773
      6348.14      0.61724171     0.025059137
      6354.49      0.59865334     0.024210143
      6360.85      0.60061518     0.023974639
      6367.21      0.57337885     0.023900476
      6373.57      0.57627929     0.023831999
      6379.95      0.59788164     0.023755475
      6386.33      0.62143292     0.023685931
      6392.72      0.66806988     0.023608781
      6399.11      0.73325422     0.023539796
      6405.51      0.77899982     0.023463772
      6411.92      0.84963918     0.023396902
      6418.32      0.88519945     0.023323743
      6424.74      0.92573133     0.023092145
      6431.17      0.95435357     0.023192000
      6437.60      0.99434344     0.022967659
      6444.04       1.0077243     0.023071915
      6450.48       1.0177181     0.022856572
      6456.94       1.0239947     0.022966841
      6463.39       1.0407321     0.022762183
      6469.85       1.0368544     0.022718856
      6476.33       1.0464913     0.022687789
      6482.80       1.0331801     0.022656011
      6489.28       1.0200425     0.022636682
      6495.77       1.0315036     0.022618173
      6502.27       1.0363418     0.022453127
      6508.77       1.0439089     0.022608629
      6515.28       1.0496898     0.022457398
      6521.80       1.0457808     0.022630671
      6528.32       1.0272241     0.022494448
      6534.85       1.0333811     0.022537127
      6541.38       1.0262708     0.022567435
      6547.92       1.0423601     0.022629906
      6554.47       1.0489330     0.022709384
      6561.03       1.0603651     0.022763212
      6567.59       1.0334928     0.022864623
      6574.16       1.0252035     0.022939723
      6580.73       1.0198701     0.023064114
      6587.31       1.0310194     0.023025916
      6593.90       1.0250976     0.023309476
      6600.50       1.0224042     0.023476013
      6607.10      0.98881049     0.023467999
      6613.70       1.0005586     0.023792127
      6620.32      0.99660512     0.023808491
      6626.94       1.0100278     0.024022923
      6633.57       1.0021218     0.024388188
      6640.20       1.0026080     0.024434461
      6646.84       1.0017185     0.024690483
      6653.49      0.99559306     0.024893690
      6660.14       1.0199017     0.025172954
      6666.80       1.0432000     0.025470076
      6673.47       1.0794628     0.025566951
      6680.14       1.0792814     0.026023231
      6686.82       1.0727413     0.026360891
      6693.51       1.0476193     0.026486258
      6700.20       1.0551251     0.026984548
      6706.90       1.0562189     0.027124402
      6713.61       1.0680050     0.027514772
      6720.32       1.0517239     0.027922510
      6727.05       1.0206114     0.028222412
      6733.77      0.98216607     0.028651740
      6740.51      0.97736167     0.029098193
      6747.25      0.94658713     0.029428840
      6754.00      0.94240680     0.029896529
      6760.75      0.90047228     0.030381128
      6767.51      0.89545639     0.030602387
      6774.28      0.87504202     0.031248599
      6781.05      0.85629099     0.031770711
      6787.84      0.85000158     0.032019218
      6794.62      0.84898920     0.032559781
      6801.42      0.85919737     0.033116586
      6808.22      0.82781104     0.033841912
      6815.03      0.83097394     0.034119402
      6821.85      0.83860996     0.034712245
      6828.67      0.85285711     0.035321064
      6835.50      0.86466934     0.035784853
      6842.33      0.89595230     0.036413126
      6849.17      0.89818751     0.037841786
      6856.02      0.89833111     0.037899658
      6862.88      0.91617749     0.038046190
      6869.74      0.92878320     0.038976211
      6876.61      0.94371837     0.040050359
      6883.49      0.95916750     0.041072549
      6890.37      0.97369550     0.042537524
      6897.27      0.97806941     0.044063306
      6904.16      0.94304466     0.030669302
      6911.07      0.94879581     0.031085654
      6917.98      0.93682753     0.031692321
      6924.89      0.93064788     0.032433519
      6931.82      0.93587810     0.033088147
      6938.75      0.93394856     0.033533086
      6945.69      0.94812913     0.034183560
      6952.64      0.95046554     0.034825442
      6959.59      0.94741429     0.035599633
      6966.55      0.94732323     0.036148000
      6973.52      0.95717790     0.036615200
      6980.49      0.96426478     0.037113905
      6987.47      0.95700003     0.037637815
      6994.46      0.96366287     0.037992909
      7001.46      0.97342534     0.038558225
      7008.46      0.97933054     0.039151424
      7015.46      0.97477995     0.039783672
      7022.48      0.99759056     0.040352609
      7029.51      0.99653908     0.041139786
      7036.53      0.99492338     0.042063972
      7043.57       1.0509470     0.043252342
      7050.62       1.0454706     0.044811889
      7057.66       1.0480940     0.044406042
      7064.72       1.0609122     0.044272993
      7071.79       1.0813281     0.044823536
      7078.86       1.0784836     0.045323192
      7085.94       1.0669368     0.045773727
      7093.03       1.0641497     0.045979405
      7100.12       1.0540269     0.046225420
      7107.22       1.0302579     0.046575775
      7114.33       1.0078012     0.046919391
      7121.44      0.96911897     0.047276619
      7128.56      0.95634738     0.047675612
      7135.69      0.93358241     0.047866153
      7142.83      0.89673931     0.048443678
      7149.97      0.86594325     0.049228937
      7157.12      0.84510472     0.049861561
      7164.28      0.84257692     0.049222737
      7171.44      0.79029813     0.049217249
      7178.62      0.76175455     0.049229961
      7185.80      0.75113476     0.049415554
      7192.98      0.72228210     0.049603230
      7200.17      0.72422511     0.049806427
      7207.38      0.73058076     0.050042028
      7214.58      0.71599908     0.050331740
      7221.80      0.72772083     0.050704965
      7229.02      0.69077596     0.051203850
      7236.25      0.68946308     0.051542615
      7243.49      0.69176361     0.051619956
      7250.73      0.67864136     0.051056289
      7257.98      0.66840345     0.051207652
      7265.24      0.65542370     0.051340852
      7272.51      0.67174318     0.051457503
      7279.78      0.68286464     0.051559537
      7287.06      0.68685337     0.051649233
      7294.35      0.70025556     0.051729130
      7301.64      0.75205204     0.051802104
      7308.94      0.75485047     0.051871290
      7316.25      0.76920879     0.051940022
      7323.57      0.76237152     0.051852080
      7330.89      0.77002278     0.051931307
      7338.22      0.74959498     0.051867588
      7345.56      0.74636085     0.051973415
      7352.91      0.73535473     0.052097717
      7360.26      0.67761826     0.052244484
      7367.62      0.67134260     0.052417743
      7374.99      0.67956321     0.052621450
      7382.37      0.65623079     0.052859591
      7389.75      0.61666453     0.053136086
      7397.14      0.60775559     0.053577774
      7404.53      0.59317201     0.054218557
      7411.94      0.57894363     0.054434122
      7419.35      0.57709794     0.054766442
      7426.77      0.59516790     0.055210261
      7434.20      0.61313657     0.055762607
      7441.63      0.62976023     0.056421842
      7449.07      0.66294340     0.057111800
      7456.52      0.66421928     0.057991167
      7463.98      0.67069414     0.058977446
      7471.45      0.65513400     0.060072348
      7478.92      0.63315428     0.061277967
      7486.40      0.64179773     0.062596474
      7493.88      0.62561892     0.064029837
      7501.38      0.59801816     0.065627142
      7508.88      0.58680116     0.067451761
      7516.39      0.53794232     0.069515747
      7523.91      0.51994522     0.071861231
