# starting wavelength =        1718.7720
# ending wavelength =        4682.1941
# O2 telluric scale =        0
# O2 telluric shift =        0
# H2O telluric scale =        0
# H2O telluric shift =        0
      1719.02      0.83766501     0.019434106
      1720.74      0.82622968     0.019203099
      1722.46      0.81478948     0.018971994
      1724.18      0.80333141     0.018740528
      1725.91      0.79186199     0.018508832
      1727.63      0.78038038     0.018276890
      1729.36      0.76918965     0.018049837
      1731.09      0.76154355     0.017882468
      1732.82      0.75388989     0.017714934
      1734.55      0.74622868     0.017547234
      1736.29      0.73856423     0.017379463
      1738.03      0.73088791     0.017211432
      1739.76      0.72325716     0.017044441
      1741.50      0.71925218     0.016959689
      1743.24      0.71524552     0.016874902
      1744.99      0.71123240     0.016789977
      1746.73      0.70721562     0.016704976
      1748.48      0.70319688     0.016619932
      1750.23      0.69917167     0.016534752
      1751.98      0.69295129     0.016427160
      1753.73      0.68658960     0.016318081
      1755.48      0.68022481     0.016208948
      1757.24      0.67385071     0.016099657
      1759.00      0.66746996     0.015990251
      1760.76      0.66108257     0.015880731
      1762.52      0.65866571     0.015801980
      1764.28      0.65672993     0.015726869
      1766.04      0.65479213     0.015651679
      1767.81      0.65285247     0.015576417
      1769.58      0.65091186     0.015501119
      1771.35      0.64896831     0.015425705
      1773.12      0.65183826     0.015468496
      1774.89      0.65552073     0.015531212
      1776.67      0.65920447     0.015593951
      1778.44      0.66289429     0.015656793
      1780.22      0.66658740     0.015719691
      1782.00      0.67028255     0.015782623
      1783.79      0.67696267     0.015917692
      1785.57      0.68420877     0.016066419
      1787.36      0.69146231     0.016215300
      1789.14      0.69872328     0.016364333
      1790.93      0.70598773     0.016513438
      1792.72      0.71326308     0.016662766
      1794.52      0.71139298     0.016640023
      1796.31      0.70789453     0.016586648
      1798.11      0.70439084     0.016533193
      1799.90      0.70088359     0.016479684
      1801.70      0.69737276     0.016426120
      1803.51      0.69386050     0.016372534
      1805.31      0.69865734     0.016382541
      1807.12      0.70468822     0.016401971
      1808.92      0.71072521     0.016421421
      1810.73      0.71676466     0.016440879
      1812.54      0.72281348     0.016460367
      1814.36      0.72886883     0.016479876
      1816.17      0.73287575     0.016527231
      1817.99      0.73669725     0.016577267
      1819.80      0.74052260     0.016627353
      1821.62      0.74435180     0.016677490
      1823.45      0.74818460     0.016727674
      1825.27      0.75201946     0.016777885
      1827.09      0.75406469     0.016789806
      1828.92      0.75606176     0.016800666
      1830.75      0.75805990     0.016811532
      1832.58      0.76006097     0.016822413
      1834.41      0.76206404     0.016833306
      1836.25      0.76417356     0.016845176
      1838.08      0.76801563     0.016873092
      1839.92      0.77186358     0.016901051
      1841.76      0.77571562     0.016929040
      1843.61      0.77957123     0.016957054
      1845.45      0.78342889     0.016985084
      1847.29      0.78724168     0.017018698
      1849.14      0.79081900     0.017078477
      1850.99      0.79439774     0.017138280
      1852.84      0.79798240     0.017198181
      1854.69      0.80157035     0.017258138
      1856.55      0.80516186     0.017318154
      1858.41      0.80874214     0.017391637
      1860.26      0.81229048     0.017495165
      1862.12      0.81584418     0.017598849
      1863.99      0.81940138     0.017702636
      1865.85      0.82296044     0.017806477
      1867.72      0.82652486     0.017910474
      1869.58      0.83330699     0.018039889
      1871.45      0.84392038     0.018199556
      1873.33      0.85453792     0.018359287
      1875.20      0.86517209     0.018519267
      1877.07      0.87581734     0.018679415
      1878.95      0.88647299     0.018839718
      1880.83      0.89408959     0.018966236
      1882.71      0.89988788     0.019072591
      1884.59      0.90569220     0.019179057
      1886.48      0.91150254     0.019285633
      1888.37      0.91731513     0.019392250
      1890.25      0.92313714     0.019499040
      1892.15      0.92442505     0.019533800
      1894.04      0.92466333     0.019551897
      1895.93      0.92490174     0.019570002
      1897.83      0.92514050     0.019588135
      1899.73      0.92537950     0.019606286
      1901.62      0.92560666     0.019623591
      1903.53      0.92497757     0.019579727
      1905.43      0.92434784     0.019535819
      1907.34      0.92371751     0.019491868
      1909.24      0.92308689     0.019447898
      1911.15      0.92245526     0.019403857
      1913.06      0.92078102     0.019343601
      1914.98      0.91571587     0.019230680
      1916.89      0.91064846     0.019117708
      1918.81      0.90557329     0.019004563
      1920.73      0.90049296     0.018891304
      1922.65      0.89540778     0.018777936
      1924.57      0.89071146     0.018671637
      1926.50      0.88644842     0.018573195
      1928.42      0.88218106     0.018474652
      1930.35      0.87790964     0.018376016
      1932.28      0.87363605     0.018277330
      1934.21      0.86935571     0.018178488
      1936.15      0.86496038     0.018076988
      1938.08      0.86052112     0.017974473
      1940.02      0.85607487     0.017871796
      1941.96      0.85162442     0.017769022
      1943.91      0.84716920     0.017666138
      1945.85      0.84270979     0.017563157
      1947.79      0.83678634     0.017449557
      1949.74      0.83085237     0.017335770
      1951.69      0.82491282     0.017221876
      1953.64      0.81897067     0.017107932
      1955.60      0.81301885     0.016993802
      1957.55      0.80710825     0.016881689
      1959.51      0.80130831     0.016774752
      1961.47      0.79550547     0.016667762
      1963.43      0.78969396     0.016560611
      1965.40      0.78387630     0.016453348
      1967.36      0.77805321     0.016345984
      1969.33      0.77527752     0.016302169
      1971.30      0.77455540     0.016301196
      1973.27      0.77383256     0.016300221
      1975.24      0.77310941     0.016299246
      1977.22      0.77238509     0.016298270
      1979.20      0.77166010     0.016297292
      1981.18      0.78014413     0.016454824
      1983.16      0.78941472     0.016625904
      1985.14      0.79868931     0.016797059
      1987.12      0.80797818     0.016968476
      1989.11      0.81727676     0.017140073
      1991.10      0.82713017     0.017324831
      1993.09      0.83852684     0.017546179
      1995.09      0.84993469     0.017767744
      1997.08      0.86135442     0.017989540
      1999.08      0.87277973     0.018211444
      2001.08      0.88422181     0.018433674
      2003.08      0.89678378     0.018699110
      2005.08      0.91001827     0.018990413
      2007.09      0.92325921     0.019281858
      2009.09      0.93652031     0.019573748
      2011.10      0.94979512     0.019865939
      2013.11      0.96308395     0.020158399
      2015.13      0.97778434     0.020475518
      2017.14      0.99249899     0.020792945
      2019.16       1.0072279     0.021110679
      2021.18       1.0219720     0.021428740
      2023.20       1.0367232     0.021746955
      2025.22       1.0521794     0.022057984
      2027.25       1.0686598     0.022358009
      2029.28       1.0851472     0.022658161
      2031.31       1.1016605     0.022958784
      2033.34       1.1181906     0.023259713
      2035.37       1.1347366     0.023560932
      2037.41       1.1488296     0.023844258
      2039.44       1.1624020     0.024124049
      2041.48       1.1759874     0.024404109
      2043.53       1.1895866     0.024684453
      2045.57       1.2031916     0.024964914
      2047.61       1.2155605     0.025215806
      2049.66       1.2242156     0.025378012
      2051.71       1.2328743     0.025540286
      2053.76       1.2415474     0.025702831
      2055.82       1.2502287     0.025865530
      2057.87       1.2589184     0.026028384
      2059.93       1.2647881     0.026173433
      2061.99       1.2694686     0.026310961
      2064.05       1.2741568     0.026448718
      2066.12       1.2788494     0.026586606
      2068.18       1.2835438     0.026724542
      2070.25       1.2883502     0.026863582
      2072.32       1.2936653     0.027006993
      2074.39       1.2989848     0.027150522
      2076.47       1.3043075     0.027294137
      2078.55       1.3096383     0.027437971
      2080.62       1.3149741     0.027581940
      2082.71       1.3269946     0.027822163
      2084.79       1.3424963     0.028112504
      2086.87       1.3580215     0.028403288
      2088.96       1.3735613     0.028694344
      2091.05       1.3891174     0.028985707
      2093.14       1.4007374     0.029199843
      2095.23       1.3910634     0.028996198
      2097.33       1.3813792     0.028792339
      2099.43       1.3716860     0.028588290
      2101.52       1.3619882     0.028384146
      2103.63       1.3522747     0.028179669
      2105.73       1.3488451     0.028085119
      2107.84       1.3484206     0.028043137
      2109.94       1.3479955     0.028001092
      2112.05       1.3475700     0.027959003
      2114.17       1.3471440     0.027916871
      2116.28       1.3459239     0.027871856
      2118.40       1.3418504     0.027816472
      2120.52       1.3377727     0.027761030
      2122.64       1.3336913     0.027705537
      2124.76       1.3296079     0.027650018
      2126.88       1.3255180     0.027594410
      2129.01       1.3209844     0.027463782
      2131.14       1.3163202     0.027311458
      2133.27       1.3116538     0.027159065
      2135.40       1.3069805     0.027006444
      2137.54       1.3023024     0.026853667
      2139.68       1.2944657     0.026669649
      2141.82       1.2808249     0.026428425
      2143.96       1.2671607     0.026186788
      2146.10       1.2534841     0.025944931
      2148.25       1.2397997     0.025702937
      2150.40       1.2260951     0.025460584
      2152.55       1.2146348     0.025245731
      2154.70       1.2032965     0.025032292
      2156.86       1.1919480     0.024818660
      2159.01       1.1805943     0.024604931
      2161.17       1.1692226     0.024390863
      2163.33       1.1572243     0.024157340
      2165.50       1.1447301     0.023908372
      2167.66       1.1322162     0.023659010
      2169.83       1.1196910     0.023409423
      2172.00       1.1071531     0.023159583
      2174.17       1.0953230     0.022924937
      2176.35       1.0865401     0.022755689
      2178.52       1.0777484     0.022586270
      2180.70       1.0689477     0.022416680
      2182.88       1.0601432     0.022247014
      2185.07       1.0513248     0.022077082
      2187.25       1.0357874     0.021758236
      2189.44       1.0189514     0.021410617
      2191.63       1.0020890     0.021062455
      2193.82      0.98521159     0.020713982
      2196.01      0.96831538     0.020365121
      2198.21      0.95206506     0.020035779
      2200.41      0.93644969     0.019725521
      2202.61      0.92080829     0.019414746
      2204.81      0.90515301     0.019103695
      2207.02      0.88948906     0.018792472
      2209.22      0.87727328     0.018547624
      2211.43      0.87949476     0.018580736
      2213.64      0.88171870     0.018613885
      2215.86      0.88394361     0.018647048
      2218.07      0.88617196     0.018680262
      2220.29      0.88840253     0.018713510
      2222.51      0.89523732     0.018868672
      2224.73      0.90258893     0.019037510
      2226.96      0.90995186     0.019206609
      2229.19      0.91732286     0.019375893
      2231.42      0.92469629     0.019545232
      2233.65      0.94012419     0.019852655
      2235.88      0.96048715     0.020244677
      2238.12      0.98087237     0.020637127
      2240.36       1.0012776     0.021029964
      2242.60       1.0216940     0.021423014
      2244.84       1.0432960     0.021854851
      2247.08       1.0669648     0.022354696
      2249.33       1.0906413     0.022854703
      2251.58       1.1143565     0.023355525
      2253.83       1.1380973     0.023856891
      2256.09       1.1613213     0.024344658
      2258.34       1.1806961     0.024731861
      2260.60       1.2001003     0.025119650
      2262.86       1.2195233     0.025507816
      2265.12       1.2389652     0.025896360
      2267.39       1.2584176     0.026285113
      2269.66       1.2782075     0.026663947
      2271.93       1.2980516     0.027041948
      2274.20       1.3179065     0.027420153
      2276.47       1.3377912     0.027798926
      2278.75       1.3576952     0.028178066
      2281.03       1.3707681     0.028435741
      2283.31       1.3808154     0.028639633
      2285.59       1.3908670     0.028843612
      2287.88       1.4009347     0.029047919
      2290.17       1.4110121     0.029252422
      2292.46       1.4159071     0.029369402
      2294.75       1.4157556     0.029401192
      2297.04       1.4156039     0.029433014
      2299.34       1.4154521     0.029464865
      2301.64       1.4153003     0.029496734
      2303.94       1.4151043     0.029508177
      2306.25       1.4148227     0.029479786
      2308.55       1.4145409     0.029451367
      2310.86       1.4142590     0.029422933
      2313.17       1.4139766     0.029394458
      2315.49       1.4124451     0.029340685
      2317.80       1.4054968     0.029177292
      2320.12       1.3985448     0.029013812
      2322.44       1.3915825     0.028850091
      2324.76       1.3846137     0.028686215
      2327.09       1.3778888     0.028528349
      2329.41       1.3752441     0.028470913
      2331.74       1.3725956     0.028413393
      2334.08       1.3699446     0.028355819
      2336.41       1.3672921     0.028298215
      2338.75       1.3646356     0.028240520
      2341.08       1.3590268     0.028140097
      2343.43       1.3532320     0.028036962
      2345.77       1.3474347     0.027933785
      2348.12       1.3416278     0.027830435
      2350.46       1.3358161     0.027726999
      2352.81       1.3350024     0.027714183
      2355.17       1.3351007     0.027717900
      2357.52       1.3351990     0.027721623
      2359.88       1.3352975     0.027725350
      2362.24       1.3353961     0.027729081
      2364.60       1.3380263     0.027784560
      2366.97       1.3414298     0.027855846
      2369.33       1.3448364     0.027927198
      2371.70       1.3482462     0.027998617
      2374.08       1.3516577     0.028070072
      2376.45       1.3521052     0.028080098
      2378.83       1.3513186     0.028064549
      2381.20       1.3505317     0.028048993
      2383.59       1.3497435     0.028033412
      2385.97       1.3489545     0.028017816
      2388.36       1.3479436     0.027996873
      2390.75       1.3468175     0.027973159
      2393.14       1.3456909     0.027949436
      2395.53       1.3445626     0.027925676
      2397.93       1.3434332     0.027901892
      2400.32       1.3374871     0.027798203
      2402.72       1.3287626     0.027648414
      2405.13       1.3200302     0.027498489
      2407.53       1.3112879     0.027348396
      2409.94       1.3025431     0.027198258
      2412.35       1.2937787     0.027035712
      2414.76       1.2850024     0.026865787
      2417.18       1.2762172     0.026695689
      2419.59       1.2674285     0.026525522
      2422.01       1.2586255     0.026355080
      2424.44       1.2486536     0.026162830
      2426.86       1.2380183     0.025958205
      2429.29       1.2273670     0.025753272
      2431.72       1.2167039     0.025548111
      2434.15       1.2060312     0.025342765
      2436.58       1.1978295     0.025148220
      2439.02       1.1908901     0.024959193
      2441.46       1.1839402     0.024769883
      2443.90       1.1769833     0.024580382
      2446.34       1.1700230     0.024390787
      2448.79       1.1668446     0.024308971
      2451.24       1.1652384     0.024271966
      2453.69       1.1636307     0.024234924
      2456.14       1.1620222     0.024197864
      2458.60       1.1604112     0.024160748
      2461.06       1.1611942     0.024187363
      2463.52       1.1627000     0.024233223
      2465.98       1.1642064     0.024279102
      2468.45       1.1657151     0.024325049
      2470.92       1.1672253     0.024371046
      2473.39       1.1755038     0.024545813
      2475.86       1.1850154     0.024744068
      2478.34       1.1945363     0.024942518
      2480.82       1.2040676     0.025141183
      2483.30       1.2136073     0.025340024
      2485.78       1.2234541     0.025547725
      2488.27       1.2333333     0.025756246
      2490.76       1.2432222     0.025964971
      2493.25       1.2531149     0.026173779
      2495.74       1.2633575     0.026388397
      2498.24       1.2789715     0.026691169
      2500.74       1.2946007     0.026994238
      2503.24       1.3102360     0.027297425
      2505.74       1.3258958     0.027601086
      2508.25       1.3405441     0.027887031
      2510.75       1.3508598     0.028096980
      2513.26       1.3611815     0.028307052
      2515.78       1.3715183     0.028517431
      2518.29       1.3818651     0.028728013
      2520.81       1.3898193     0.028907243
      2523.33       1.3930483     0.029024578
      2525.86       1.3962804     0.029142026
      2528.38       1.3995161     0.029259599
      2530.91       1.4027551     0.029377297
      2533.44       1.4053964     0.029430442
      2535.98       1.4074467     0.029419457
      2538.51       1.4094992     0.029408461
      2541.05       1.4115525     0.029397460
      2543.59       1.4136090     0.029386442
      2546.13       1.4155854     0.029405638
      2548.68       1.4175263     0.029438669
      2551.23       1.4194682     0.029471715
      2553.78       1.4214130     0.029504813
      2556.34       1.4233597     0.029537942
      2558.89       1.4209262     0.029485280
      2561.45       1.4179159     0.029421318
      2564.01       1.4149007     0.029357252
      2566.58       1.4118826     0.029293125
      2569.14       1.4084922     0.029221423
      2571.71       1.4018047     0.029082654
      2574.28       1.3951064     0.028943662
      2576.86       1.3884018     0.028804537
      2579.44       1.3816902     0.028665268
      2582.01       1.3709332     0.028444637
      2584.60       1.3520534     0.028060640
      2587.18       1.3331557     0.027676279
      2589.77       1.3142474     0.027291701
      2592.36       1.2953123     0.026906579
      2594.95       1.2816734     0.026627068
      2597.55       1.2718035     0.026422709
      2600.14       1.2619298     0.026218274
      2602.74       1.2520394     0.026013492
      2605.35       1.2421407     0.025808537
      2607.95       1.2335095     0.025640795
      2610.56       1.2250977     0.025479505
      2613.17       1.2166725     0.025317960
      2615.79       1.2082386     0.025156248
      2618.40       1.2015659     0.025028455
      2621.02       1.2062868     0.025120099
      2623.64       1.2110153     0.025211888
      2626.26       1.2157481     0.025303763
      2628.89       1.2204863     0.025395740
      2631.52       1.2185763     0.025354100
      2634.15       1.2080326     0.025138933
      2636.79       1.1974773     0.024923526
      2639.42       1.1869180     0.024708040
      2642.06       1.1763411     0.024492194
      2644.70       1.1661675     0.024284960
      2647.35       1.1561211     0.024080446
      2650.00       1.1460636     0.023875706
      2652.65       1.1360024     0.023670891
      2655.30       1.1260514     0.023469481
      2657.96       1.1174931     0.023309240
      2660.61       1.1089309     0.023148925
      2663.27       1.1003553     0.022988360
      2665.94       1.0917710     0.022827632
      2668.60       1.0830854     0.022660521
      2671.27       1.0742753     0.022485197
      2673.94       1.0654507     0.022309583
      2676.62       1.0566180     0.022133810
      2679.29       1.0477757     0.021957844
      2681.97       1.0429999     0.021859964
      2684.66       1.0392308     0.021781405
      2687.34       1.0354583     0.021702775
      2690.03       1.0316837     0.021624102
      2692.72       1.0296014     0.021581536
      2695.41       1.0351143     0.021701015
      2698.11       1.0406322     0.021820603
      2700.81       1.0461561     0.021940320
      2703.51       1.0516819     0.022060081
      2706.21       1.0640445     0.022313405
      2708.92       1.0813703     0.022663689
      2711.62       1.0987024     0.023014100
      2714.34       1.1160626     0.023365079
      2717.05       1.1334400     0.023716406
      2719.77       1.1535858     0.024106861
      2722.49       1.1737575     0.024497738
      2725.21       1.1939582     0.024889177
      2727.94       1.2141806     0.025281037
      2730.66       1.2361598     0.025713604
      2733.39       1.2604836     0.026200552
      2736.13       1.2848444     0.026688241
      2738.86       1.3092314     0.027176453
      2741.60       1.3336270     0.027664838
      2744.34       1.3512383     0.028020314
      2747.09       1.3678748     0.028356702
      2749.84       1.3845275     0.028693418
      2752.59       1.4011966     0.029030464
      2755.34       1.4186882     0.029367813
      2758.09       1.4378067     0.029705912
      2760.85       1.4569438     0.030044340
      2763.61       1.4760911     0.030382949
      2766.38       1.4952672     0.030722066
      2769.14       1.5036285     0.030922414
      2771.91       1.5095902     0.031092042
      2774.69       1.5155550     0.031261759
      2777.46       1.5215288     0.031431731
      2780.24       1.5234606     0.031501599
      2783.02       1.5165127     0.031351524
      2785.80       1.5095618     0.031201383
      2788.59       1.5025999     0.031051004
      2791.38       1.4956313     0.030900481
      2794.17       1.4868458     0.030721985
      2796.96       1.4776623     0.030537301
      2799.76       1.4684699     0.030352440
      2802.56       1.4592679     0.030167385
      2805.36       1.4508390     0.029996814
      2808.17       1.4438563     0.029853356
      2810.98       1.4368620     0.029709660
      2813.79       1.4298611     0.029565828
      2816.60       1.4228571     0.029421932
      2819.42       1.4243553     0.029456327
      2822.24       1.4268821     0.029512293
      2825.06       1.4294117     0.029568322
      2827.88       1.4319422     0.029624371
      2830.71       1.4365177     0.029718526
      2833.54       1.4435821     0.029859049
      2836.38       1.4506531     0.029999706
      2839.21       1.4577279     0.030140436
      2842.05       1.4644726     0.030274469
      2844.90       1.4586986     0.030154641
      2847.74       1.4529188     0.030034690
      2850.59       1.4471364     0.029914687
      2853.44       1.4413451     0.029794499
      2856.29       1.4364169     0.029693815
      2859.15       1.4320283     0.029605325
      2862.01       1.4276377     0.029516797
      2864.87       1.4232405     0.029428134
      2867.74       1.4190835     0.029348262
      2870.60       1.4157775     0.029299330
      2873.47       1.4124663     0.029250319
      2876.35       1.4091519     0.029201262
      2879.22       1.4058344     0.029152159
      2882.10       1.4045690     0.029140196
      2884.99       1.4036834     0.029135125
      2887.87       1.4027971     0.029130050
      2890.76       1.4019098     0.029124970
      2893.65       1.4011717     0.029111308
      2896.54       1.4005945     0.029088310
      2899.44       1.4000168     0.029065291
      2902.34       1.3994385     0.029042246
      2905.24       1.3995577     0.029034825
      2908.15       1.4043939     0.029133054
      2911.06       1.4092345     0.029231374
      2913.97       1.4140800     0.029329793
      2916.88       1.4189275     0.029428253
      2919.80       1.4207659     0.029470512
      2922.72       1.4218382     0.029498465
      2925.64       1.4229111     0.029526436
      2928.57       1.4239855     0.029554445
      2931.50       1.4254602     0.029589452
      2934.43       1.4273724     0.029632108
      2937.36       1.4292865     0.029674803
      2940.30       1.4312016     0.029717523
      2943.24       1.4325933     0.029749549
      2946.18       1.4315425     0.029731667
      2949.13       1.4304913     0.029713776
      2952.08       1.4294384     0.029695858
      2955.03       1.4283845     0.029677922
      2957.99       1.4243801     0.029600019
      2960.94       1.4200048     0.029514580
      2963.90       1.4156230     0.029429014
      2966.87       1.4112366     0.029343356
      2969.84       1.4100904     0.029314017
      2972.81       1.4109683     0.029319858
      2975.78       1.4118476     0.029325707
      2978.76       1.4127278     0.029331563
      2981.73       1.4117718     0.029311758
      2984.72       1.4075082     0.029245723
      2987.70       1.4032407     0.029179628
      2990.69       1.3989688     0.029113464
      2993.68       1.3946436     0.029043069
      2996.67       1.3899424     0.028940589
      2999.67       1.3852335     0.028837942
      3002.67       1.3805200     0.028735195
      3005.67       1.3758046     0.028632406
      3008.68       1.3691522     0.028500200
      3011.69       1.3622453     0.028364105
      3014.70       1.3553318     0.028227878
      3017.71       1.3484148     0.028091584
      3020.73       1.3455347     0.028036361
      3023.75       1.3446200     0.028020610
      3026.78       1.3437044     0.028004843
      3029.80       1.3427884     0.027989070
      3032.83       1.3396826     0.027925424
      3035.87       1.3341471     0.027808656
      3038.90       1.3286089     0.027691832
      3041.94       1.3230627     0.027574839
      3044.98       1.3186742     0.027482118
      3048.03       1.3171275     0.027448974
      3051.08       1.3155792     0.027415795
      3054.13       1.3140301     0.027382601
      3057.18       1.3122133     0.027344187
      3060.24       1.3084628     0.027268106
      3063.30       1.3047108     0.027191994
      3066.36       1.3009528     0.027115761
      3069.43       1.2971913     0.027039455
      3072.50       1.2967650     0.027039985
      3075.57       1.2964571     0.027043249
      3078.65       1.2961488     0.027046518
      3081.73       1.2958402     0.027049790
      3084.81       1.2976483     0.027090967
      3087.89       1.2999070     0.027140216
      3090.98       1.3021691     0.027189538
      3094.07       1.3044335     0.027238911
      3097.17       1.3033751     0.027242691
      3100.26       1.3008744     0.027226704
      3103.36       1.2983711     0.027210701
      3106.47       1.2958652     0.027194681
      3109.58       1.2902378     0.027073714
      3112.68       1.2823985     0.026878359
      3115.80       1.2745469     0.026682697
      3118.91       1.2666873     0.026486836
      3122.03       1.2613886     0.026348231
      3125.15       1.2587623     0.026269348
      3128.28       1.2561331     0.026190379
      3131.41       1.2535017     0.026111342
      3134.54       1.2511515     0.026066691
      3137.67       1.2492148     0.026072788
      3140.81       1.2472763     0.026078891
      3143.95       1.2453359     0.026085000
      3147.10       1.2409976     0.026059376
      3150.24       1.2319057     0.025970862
      3153.39       1.2228047     0.025882259
      3156.55       1.2136945     0.025793567
      3159.70       1.2070513     0.025710083
      3162.86       1.2067264     0.025639895
      3166.03       1.2064012     0.025569636
      3169.19       1.2060757     0.025499312
      3172.36       1.2048996     0.025415533
      3175.54       1.2010221     0.025289010
      3178.71       1.1971410     0.025162370
      3181.89       1.1932578     0.025035661
      3185.07       1.1898280     0.024930248
      3188.26       1.1881028     0.024904676
      3191.45       1.1863760     0.024879081
      3194.64       1.1846474     0.024853458
      3197.83       1.1838047     0.024833852
      3201.03       1.1865657     0.024838729
      3204.23       1.1893298     0.024843612
      3207.44       1.1920951     0.024848496
      3210.64       1.1935170     0.024849826
      3213.85       1.1895124     0.024836811
      3217.07       1.1855063     0.024823792
      3220.28       1.1814941     0.024810752
      3223.51       1.1786055     0.024793430
      3226.73       1.1799373     0.024760107
      3229.96       1.1812704     0.024726751
      3233.19       1.1826042     0.024693377
      3236.42       1.1841791     0.024681202
      3239.66       1.1865195     0.024736860
      3242.90       1.1888610     0.024792544
      3246.14       1.1912061     0.024848311
      3249.39       1.1924164     0.024880151
      3252.64       1.1907315     0.024850928
      3255.89       1.1890448     0.024821673
      3259.14       1.1873574     0.024792407
      3262.40       1.1841990     0.024749335
      3265.67       1.1781278     0.024678953
      3268.93       1.1720533     0.024608535
      3272.20       1.1659698     0.024538011
      3275.47       1.1625272     0.024478877
      3278.75       1.1629797     0.024436584
      3282.03       1.1634329     0.024394228
      3285.31       1.1638865     0.024351827
      3288.60       1.1643290     0.024329268
      3291.88       1.1647596     0.024327715
      3295.18       1.1651904     0.024326161
      3298.47       1.1656220     0.024324604
      3301.77       1.1686970     0.024377831
      3305.07       1.1736851     0.024470708
      3308.38       1.1786810     0.024563728
      3311.69       1.1836820     0.024656845
      3315.00       1.1783582     0.024550339
      3318.31       1.1683768     0.024353782
      3321.63       1.1583911     0.024157139
      3324.95       1.1483899     0.023960192
      3328.28       1.1454788     0.023903501
      3331.61       1.1442177     0.023879449
      3334.94       1.1429544     0.023855358
      3338.27       1.1416899     0.023831243
      3341.61       1.1422496     0.023839319
      3344.95       1.1429155     0.023849269
      3348.30       1.1435818     0.023859223
      3351.65       1.1434262     0.023853123
      3355.00       1.1350886     0.023687252
      3358.35       1.1267474     0.023521308
      3361.71       1.1183929     0.023355099
      3365.07       1.1119536     0.023225311
      3368.44       1.1112071     0.023203799
      3371.81       1.1104594     0.023182253
      3375.18       1.1097109     0.023160685
      3378.56       1.1069844     0.023100785
      3381.94       1.1016115     0.022989602
      3385.32       1.0962359     0.022878363
      3388.70       1.0908525     0.022766963
      3392.09       1.0880123     0.022708194
      3395.48       1.0867813     0.022682724
      3398.88       1.0855482     0.022657213
      3402.28       1.0843141     0.022631678
      3405.68       1.0848201     0.022639660
      3409.09       1.0857225     0.022655274
      3412.49       1.0866253     0.022670896
      3415.91       1.0873422     0.022683122
      3419.32       1.0810249     0.022566884
      3422.74       1.0747044     0.022450588
      3426.17       1.0683745     0.022334118
      3429.59       1.0634362     0.022243885
      3433.02       1.0626611     0.022232137
      3436.45       1.0618849     0.022220371
      3439.89       1.0611079     0.022208594
      3443.33       1.0591057     0.022162081
      3446.78       1.0558174     0.022079106
      3450.22       1.0525276     0.021996091
      3453.67       1.0492326     0.021912945
      3457.13       1.0462062     0.021851729
      3460.58       1.0432745     0.021798252
      3464.04       1.0403381     0.021744688
      3467.51       1.0373959     0.021691090
      3470.98       1.0325980     0.021646781
      3474.45       1.0277954     0.021602428
      3477.92       1.0229907     0.021558057
      3481.40       1.0194977     0.021516809
      3484.88       1.0194295     0.021483814
      3488.37       1.0193612     0.021450805
      3491.86       1.0192927     0.021417745
      3495.35       1.0183195     0.021385004
      3498.84       1.0166505     0.021352518
      3502.34       1.0149790     0.021319982
      3505.84       1.0133059     0.021287414
      3509.35       1.0116302     0.021227170
      3512.86       1.0099528     0.021162615
      3516.37       1.0082747     0.021098034
      3519.89       1.0070430     0.021047266
      3523.41       1.0078701     0.021060277
      3526.93       1.0086976     0.021073295
      3530.46       1.0095263     0.021086332
      3533.99       1.0085778     0.021073676
      3537.53       1.0058665     0.021035533
      3541.06       1.0031525     0.020997353
      3544.60       1.0004373     0.020959154
      3548.15      0.99902918     0.020928997
      3551.70      0.99787125     0.020900365
      3555.25      0.99671284     0.020871720
      3558.80      0.99456845     0.020828078
      3562.36      0.98820403     0.020720310
      3565.92      0.98183698     0.020612496
      3569.49      0.97545990     0.020504513
      3573.06      0.96878205     0.020374637
      3576.64      0.96185625     0.020226799
      3580.21      0.95492335     0.020078810
      3583.79      0.94798761     0.019930760
      3587.38      0.94269796     0.019810598
      3590.96      0.93753894     0.019692623
      3594.55      0.93237782     0.019574600
      3598.15      0.93054557     0.019523134
      3601.75      0.93618517     0.019621098
      3605.35      0.94183051     0.019719161
      3608.96      0.94748121     0.019817317
      3612.56      0.95085193     0.019880744
      3616.18      0.95326866     0.019929657
      3619.79      0.95568784     0.019978619
      3623.41      0.95640932     0.019997093
      3627.04      0.94399574     0.019779673
      3630.66      0.93156878     0.019562018
      3634.29      0.91913681     0.019344276
      3637.93      0.91305551     0.019227576
      3641.57      0.91249583     0.019198731
      3645.21      0.91193559     0.019169856
      3648.86      0.91137478     0.019140953
      3652.50      0.91641772     0.019274189
      3656.16      0.92165851     0.019413129
      3659.81      0.92690491     0.019552219
      3663.47      0.93156378     0.019660183
      3667.14      0.93538344     0.019723548
      3670.80      0.93920666     0.019786971
      3674.48      0.94303369     0.019850458
      3678.15      0.93967247     0.019786500
      3681.83      0.93521216     0.019703054
      3685.51      0.93074474     0.019619475
      3689.20      0.92701004     0.019551474
      3692.88      0.92474269     0.019514651
      3696.58      0.92247173     0.019477770
      3700.27      0.92019851     0.019440852
      3703.98      0.92297011     0.019496389
      3707.68      0.92690543     0.019573256
      3711.39      0.93084231     0.019650155
      3715.10      0.93391153     0.019707437
      3718.81      0.93496303     0.019719138
      3722.53      0.93601495     0.019730843
      3726.26      0.93706860     0.019742568
      3729.98      0.93436498     0.019692155
      3733.71      0.93073931     0.019626492
      3737.45      0.92710795     0.019560726
      3741.18      0.92243733     0.019484515
      3744.93      0.91552500     0.019385811
      3748.67      0.90860590     0.019287011
      3752.42      0.90168365     0.019188166
      3756.17      0.89814216     0.019086246
      3759.93      0.89524557     0.018983667
      3763.69      0.89234766     0.018881042
      3767.45      0.88857985     0.018776875
      3771.22      0.88336330     0.018670297
      3774.99      0.87814135     0.018563608
      3778.77      0.87291399     0.018456809
      3782.54      0.86833743     0.018359760
      3786.33      0.86380887     0.018263386
      3790.11      0.85927564     0.018166912
      3793.90      0.85487515     0.018077392
      3797.70      0.85061517     0.017995371
      3801.50      0.84635053     0.017913260
      3805.30      0.84201187     0.017830633
      3809.10      0.83618492     0.017737940
      3812.91      0.83035236     0.017645159
      3816.73      0.82451419     0.017552288
      3820.54      0.81965208     0.017477994
      3824.36      0.81537191     0.017414771
      3828.19      0.81108518     0.017351451
      3832.02      0.80887412     0.017318081
      3835.85      0.81418568     0.017393260
      3839.68      0.81950570     0.017468559
      3843.52      0.82483080     0.017543930
      3847.37      0.82392017     0.017547312
      3851.22      0.82161521     0.017534607
      3855.07      0.81930922     0.017521897
      3858.92      0.82135239     0.017557811
      3862.78      0.82916991     0.017658270
      3866.64      0.83699139     0.017758780
      3870.51      0.84434539     0.017853563
      3874.38      0.84289383     0.017840348
      3878.26      0.84144162     0.017827128
      3882.13      0.83998722     0.017813887
      3886.02      0.83641758     0.017774705
      3889.90      0.83187971     0.017723651
      3893.79      0.82733756     0.017672549
      3897.69      0.82236381     0.017599630
      3901.59      0.81650486     0.017482083
      3905.49      0.81064004     0.017364419
      3909.39      0.80477265     0.017246703
      3913.30      0.80311642     0.017221208
      3917.22      0.80152644     0.017197174
      3921.13      0.79993487     0.017173116
      3925.06      0.79695387     0.017090928
      3928.98      0.79322099     0.016977278
      3932.91      0.78948231     0.016863451
      3936.84      0.78786258     0.016801860
      3940.78      0.79066365     0.016849286
      3944.72      0.79346923     0.016896788
      3948.67      0.79619027     0.016943078
      3952.61      0.79086396     0.016873362
      3956.57      0.78552941     0.016803538
      3960.52      0.78018958     0.016733646
      3964.48      0.77265312     0.016594663
      3968.45      0.76420567     0.016427077
      3972.42      0.75575407     0.016259408
      3976.39      0.75082830     0.016165168
      3980.37      0.75091113     0.016175230
      3984.35      0.75099400     0.016185296
      3988.33      0.75135189     0.016199638
      3992.32      0.75354010     0.016242350
      3996.31      0.75573058     0.016285107
      4000.31      0.75792321     0.016327906
      4004.31      0.75834983     0.016335191
      4008.31      0.75848579     0.016336628
      4012.32      0.75862188     0.016338067
      4016.33      0.76177458     0.016361666
      4020.35      0.76697438     0.016400304
      4024.37      0.77217925     0.016438979
      4028.40      0.77536711     0.016480423
      4032.42      0.77468491     0.016527206
      4036.46      0.77400200     0.016574037
      4040.50      0.77328032     0.016611496
      4044.54      0.77221590     0.016564382
      4048.58      0.77115102     0.016517247
      4052.63      0.77008442     0.016470036
      4056.68      0.76750231     0.016407727
      4060.74      0.76468810     0.016343094
      4064.80      0.76186949     0.016278359
      4068.86      0.76059896     0.016255508
      4072.93      0.76017907     0.016255675
      4077.01      0.75975874     0.016255843
      4081.08      0.76009266     0.016241912
      4085.17      0.76141162     0.016209562
      4089.25      0.76273192     0.016177178
      4093.34      0.76256198     0.016131026
      4097.43      0.75740415     0.016038792
      4101.53      0.75224109     0.015946465
      4105.63      0.74702670     0.015853812
      4109.74      0.74069218     0.015755546
      4113.85      0.73435541     0.015657246
      4117.96      0.72800809     0.015558782
      4122.08      0.72201234     0.015442500
      4126.20      0.71607384     0.015323183
      4130.33      0.71012620     0.015203683
      4134.46      0.70414826     0.015088725
      4138.59      0.69815695     0.014975916
      4142.73      0.69215574     0.014862920
      4146.88      0.68525836     0.014724121
      4151.02      0.67752404     0.014561228
      4155.18      0.66978153     0.014398162
      4159.33      0.66291763     0.014256110
      4163.49      0.65758278     0.014150644
      4167.65      0.65224293     0.014045079
      4171.82      0.64853534     0.013963373
      4175.99      0.65066063     0.013966925
      4180.17      0.65278792     0.013970481
      4184.35      0.65431320     0.013966260
      4188.54      0.64923172     0.013876945
      4192.72      0.64414787     0.013787589
      4196.92      0.63905632     0.013698098
      4201.11      0.63352900     0.013592953
      4205.31      0.62798021     0.013487076
      4209.52      0.62242302     0.013381039
      4213.73      0.61960437     0.013381638
      4217.94      0.61730018     0.013402286
      4222.16      0.61499224     0.013422968
      4226.38      0.61608760     0.013406721
      4230.61      0.61840991     0.013377159
      4234.84      0.62073464     0.013347566
      4239.08      0.62447011     0.013389061
      4243.32      0.62901585     0.013471204
      4247.56      0.63356631     0.013553432
      4251.81      0.63505063     0.013584484
      4256.06      0.63401936     0.013573555
      4260.32      0.63298714     0.013562615
      4264.58      0.63470804     0.013593991
      4268.84      0.63953945     0.013673176
      4273.11      0.64437252     0.013752388
      4277.38      0.64705779     0.013806289
      4281.66      0.64650393     0.013821988
      4285.94      0.64594982     0.013837694
      4290.23      0.64398515     0.013820354
      4294.52      0.63928785     0.013738941
      4298.81      0.63458842     0.013657492
      4303.11      0.63237184     0.013624401
      4307.42      0.63634796     0.013711892
      4311.72      0.64032859     0.013799482
      4316.04      0.64315033     0.013859998
      4320.35      0.64239094     0.013836862
      4324.67      0.64163034     0.013813689
      4329.00      0.64157989     0.013810628
      4333.33      0.64417557     0.013882509
      4337.66      0.64677506     0.013954495
      4342.00      0.64889953     0.014016503
      4346.34      0.64895835     0.014035065
      4350.69      0.64901722     0.014053645
      4355.04      0.64871550     0.014059495
      4359.39      0.64666063     0.014003437
      4363.75      0.64460369     0.013947322
      4368.12      0.64225416     0.013887654
      4372.48      0.63840154     0.013809761
      4376.86      0.63454461     0.013731780
      4381.23      0.63148743     0.013675278
      4385.61      0.63245185     0.013726762
      4390.00      0.63341724     0.013778298
      4394.39      0.63369502     0.013815864
      4398.79      0.63076081     0.013788034
      4403.18      0.62782498     0.013760189
      4407.59      0.62545894     0.013721965
      4412.00      0.62545325     0.013641138
      4416.41      0.62544756     0.013560283
      4420.82      0.62440911     0.013474705
      4425.25      0.61977804     0.013373089
      4429.67      0.61514185     0.013271360
      4434.10      0.61135391     0.013185043
      4438.54      0.60998447     0.013142713
      4442.97      0.60861277     0.013100312
      4447.42      0.60666974     0.013047450
      4451.86      0.60343251     0.012970921
      4456.32      0.60019030     0.012894275
      4460.77      0.59805332     0.012844646
      4465.24      0.59790396     0.012843599
      4469.70      0.59775452     0.012842552
      4474.17      0.59632826     0.012834385
      4478.65      0.59314131     0.012816398
      4483.12      0.58995122     0.012798394
      4487.61      0.58846966     0.012782747
      4492.09      0.58876600     0.012769535
      4496.59      0.58906259     0.012756312
      4501.08      0.58819380     0.012727002
      4505.58      0.58644396     0.012685511
      4510.09      0.58469241     0.012643980
      4514.60      0.58581871     0.012681713
      4519.12      0.58845164     0.012760944
      4523.63      0.59108600     0.012840218
      4528.16      0.59049856     0.012825476
      4532.69      0.58885486     0.012779913
      4537.22      0.58721064     0.012734334
      4541.76      0.59257028     0.012836759
      4546.30      0.59910799     0.012964068
      4550.85      0.60565132     0.013091488
      4555.40      0.61128511     0.013197803
      4559.95      0.61689189     0.013303482
      4564.51      0.62193001     0.013404532
      4569.08      0.62104356     0.013456425
      4573.65      0.62015672     0.013508340
      4578.22      0.62121037     0.013570412
      4582.80      0.62927835     0.013668954
      4587.38      0.63735063     0.013767549
      4591.97      0.64486819     0.013871772
      4596.56      0.65135820     0.013986174
      4601.16      0.65785372     0.014100672
      4605.76      0.66146755     0.014167678
      4610.37      0.66217645     0.014186803
      4614.98      0.66288647     0.014205959
      4619.59      0.66420477     0.014236915
      4624.21      0.66584934     0.014274200
      4628.84      0.66749634     0.014311541
      4633.47      0.66626985     0.014292183
      4638.10      0.66437573     0.014259655
      4642.74      0.66247961     0.014227092
      4647.38      0.65956838     0.014150550
      4652.03      0.65663283     0.014073039
      4656.68      0.65343280     0.013992505
      4661.34      0.64881539     0.013895978
      4666.00      0.64419120     0.013799310
      4670.67      0.63865897     0.013694216
      4675.33      0.63137755     0.013572977
      4680.01      0.62408470     0.013451548
