# starting wavelength =        2218.0599
# ending wavelength =        7060.8202
# O2 telluric scale =        0
# O2 telluric shift =        0
# H2O telluric scale =        0
# H2O telluric shift =        0
      2218.07       3.4773436      -4.1206989
      2220.29       3.3601487      -4.0278494
      2222.51       3.5952000      -3.9390738
      2224.73       2.8138272      -3.8269575
      2226.96       2.3527257       3.7481980
      2229.19       2.5568392       3.6740715
      2231.42       2.1714943       3.5986678
      2233.65       1.7505576       3.4984995
      2235.88       1.1192922       3.4300085
      2238.12       1.1002391       3.3649336
      2240.36      0.59231525       3.2831751
      2242.60       1.0564880       3.2198972
      2244.84       1.0944890       3.1555274
      2247.08       1.4513846       3.0948237
      2249.33       1.6733767       3.0179544
      2251.58       1.6774866       2.9612357
      2253.83       1.8774166       2.9069479
      2256.09       1.3988716       2.8341996
      2258.34      0.99256523       2.7834362
      2260.60      0.67771199       2.7354766
      2262.86       1.0819986       2.6673733
      2265.12       1.1959569      -2.6198968
      2267.39       1.0681966      -2.5733145
      2269.66      0.37517834      -2.5296441
      2271.93     -0.13549846      -2.4679409
      2274.20     -0.57260639      -2.4272154
      2276.47     -0.95289412       2.3883191
      2278.75     0.048312207       2.3323509
      2281.03       1.0638517      -2.2964955
      2283.31       1.2595350       2.2570897
      2285.59       1.9474988       2.2029161
      2287.88       2.0251465       2.1665822
      2290.17       2.0907348       2.1345998
      2292.46       2.0316330       2.0865292
      2294.75       2.3603061       2.0548019
      2297.04       2.1187785       2.0241952
      2299.34       2.5901684       1.9851396
      2301.64       2.4549999       1.9567060
      2303.94       2.2244292       1.9296665
      2306.25       2.2139464       1.8920286
      2308.55       2.2656221       1.8703729
      2310.86       2.2570022       1.8469759
      2313.17       2.5464067       1.8123996
      2315.49       2.5968086      -1.7924051
      2317.80       2.5472939      -1.7690509
      2320.12       2.1897398      -1.7354518
      2322.44       1.8381698      -1.7135409
      2324.76       1.6913691      -1.6832331
      2327.09       1.6632727      -1.6607796
      2329.41       1.5363938      -1.6393989
      2331.74       1.0486879       1.6119940
      2334.08       1.0856197       1.5912602
      2336.41       1.0353394       1.5699909
      2338.75       1.2370686       1.5388410
      2341.08       1.1015746       1.5207932
      2343.43      0.83701328       1.5004943
      2345.77      0.78471916       1.4713130
      2348.12      0.74739413      -1.4546337
      2350.46      0.90624991      -1.4288467
      2352.81      0.55290350      -1.4119660
      2355.17      0.55316411      -1.3949669
      2357.52    -0.020890456      -1.3719827
      2359.88     -0.37572300      -1.3549496
      2362.24     -0.14853831      -1.3311498
      2364.60     -0.34703276      -1.3192323
      2366.97     -0.27873960      -1.3049771
      2369.33     -0.25675851      -1.2845423
      2371.70     -0.42514405      -1.2746383
      2374.08     -0.83506097      -1.2558656
      2376.45      -1.3882014      -1.2445615
      2378.83      -1.8298664      -1.2363893
      2381.20      -1.9345113      -1.2189833
      2383.59      -2.0067515      -1.2087443
      2385.97      -1.7186296      -1.1954717
      2388.36      -1.7313306      -1.1855372
      2390.75      -1.2644067      -1.1758885
      2393.14      -1.2847557      -1.1637696
      2395.53      -1.0979793      -1.1545504
      2397.93     -0.68627154      -1.1383765
      2400.32     -0.43465782       1.1309031
      2402.72      0.26496853       1.1142672
      2405.13      0.30875164       1.1037293
      2407.53      0.50570539       1.0900547
      2409.94      0.60760822       1.0800209
      2412.35      0.70240369       1.0707877
      2414.76      0.76783586       1.0598930
      2417.18      0.63507902       1.0520560
      2419.59      0.73786766      -1.0402609
      2422.01      0.81125465       1.0366948
      2424.44      0.76387601       1.0266743
      2426.86       1.1894843       1.0245123
      2429.29       1.0874424       1.0152826
      2431.72       1.4418082       1.0106638
      2434.15       1.4736368       1.0091467
      2436.58       1.7041023       1.0000035
      2439.02       1.9814189      0.99563342
      2441.46       2.2025131      0.99029824
      2443.90       2.0097457      0.98682821
      2446.34       1.8628386      0.98100794
      2448.79       1.9619875      0.97598893
      2451.24       1.7332139      0.96599083
      2453.69       1.6373948      0.96304737
      2456.14       1.6583953      0.95272052
      2458.60       1.6056393      0.94696580
      2461.06       1.3473263      0.93901114
      2463.52       1.2639544      0.93306988
      2465.98      0.95875360      0.92558985
      2468.45      0.77211327      0.92021764
      2470.92      0.61192031      0.91380720
      2473.39      0.65060484      0.90909317
      2475.86      0.81047051      0.90098630
      2478.34      0.88583062      0.89934875
      2480.82      0.95787350      0.89198101
      2483.30      0.84362144      0.89180317
      2485.78       1.0709624      0.88513613
      2488.27      0.87281364      0.88287861
      2490.76       1.1749626      0.87936816
      2493.25       1.0516746      0.87660156
      2495.74       1.2022999      0.87289541
      2498.24       1.1963659      0.87000946
      2500.74      0.75262710      0.86568304
      2503.24      0.86428794      0.86156267
      2505.74      0.77620591      0.85313899
      2508.25      0.78613308      0.84711071
      2510.75      0.79396686      0.84230108
      2513.26      0.88808659      0.83491741
      2515.78      0.97235134      0.82973910
      2518.29       1.0429099      0.82353595
      2520.81       1.0865148      0.81842654
      2523.33       1.2741046      0.81097505
      2525.86       1.3995715      0.80543904
      2528.38       1.4036881      0.79608421
      2530.91       1.5618936      0.79170789
      2533.44       1.7357987      0.78191247
      2535.98       1.9002512      0.77478032
      2538.51       1.8499761      0.76955603
      2541.05       1.5334984      0.76243520
      2543.59       1.5530016      0.75725250
      2546.13       1.5185999      0.75057219
      2548.68       1.6800369      0.74595054
      2551.23       1.9016019      0.73991725
      2553.78       1.8813229      0.73194655
      2556.34       1.9959547      0.72907647
      2558.89       1.9063050      0.72084957
      2561.45       1.8149499      0.71791960
      2564.01       1.6245214      0.70997550
      2566.58       1.4385889      0.70393870
      2569.14       1.2637111      0.69974947
      2571.71       1.4065630      0.69419117
      2574.28       1.3216535      0.69005345
      2576.86       1.4390992      0.68452780
      2579.44       1.3488470      0.67719555
      2582.01       1.1400593      0.67470019
      2584.60       1.1402362      0.66755317
      2587.18       1.0260792      0.66572388
      2589.77      0.98268206      0.65954926
      2592.36      0.70750874      0.65487552
      2594.95      0.74590854      0.65164298
      2597.55      0.66822591      0.64764539
      2600.14      0.57920513      0.64176936
      2602.74      0.76707906      0.64009352
      2605.35      0.58373582      0.63396858
      2607.95      0.53557986      0.63260575
      2610.56      0.51655673      0.62714078
      2613.17      0.54829626      0.62330795
      2615.79      0.43915991      0.62250411
      2618.40      0.36448259      0.61754254
      2621.02      0.34287005      0.61385874
      2623.64      0.42174483      0.61096578
      2626.26      0.52072126      0.60745352
      2628.89      0.49220386      0.60236667
      2631.52      0.70449415      0.60134585
      2634.15      0.79473066      0.59632464
      2636.79      0.87920178      0.59294902
      2639.42      0.70711906      0.59194593
      2642.06      0.71022685      0.58691800
      2644.70      0.99926941      0.58315001
      2647.35       1.1486782      0.58009701
      2650.00       1.3269940      0.57603620
      2652.65       1.3904180      0.57031315
      2655.30       1.3894163      0.56855123
      2657.96       1.4551158      0.56445536
      2660.61       1.4411412      0.55988753
      2663.27       1.4494713      0.55937320
      2665.94       1.3723696      0.55512733
      2668.60       1.4786558      0.55230940
      2671.27       1.5757228      0.54808389
      2673.94       1.7399572      0.54756309
      2676.62       1.6002811      0.54388445
      2679.29       1.7418700      0.53818479
      2681.97       1.5547862      0.53668670
      2684.66       1.4127173      0.53232732
      2687.34       1.3418478      0.53002097
      2690.03       1.1832083      0.52783185
      2692.72       1.2422009      0.52597047
      2695.41       1.1429743      0.52316985
      2698.11       1.1271022      0.52042035
      2700.81       1.0981839      0.51620353
      2703.51      0.93078111      0.51548744
      2706.21      0.98252237      0.51113458
      2708.92      0.82516191      0.50848285
      2711.62      0.87637587      0.50595695
      2714.34      0.92009861      0.50406678
      2717.05      0.95168046      0.50158977
      2719.77      0.92260050      0.49922513
      2722.49      0.79029770      0.49571384
      2725.21      0.80707041      0.49554203
      2727.94      0.78003250      0.49408331
      2730.66      0.82032654      0.49158326
      2733.39      0.86144726      0.49086642
      2736.13      0.94766512      0.49192896
      2738.86      0.87315407      0.48960264
      2741.60      0.81517121      0.48904191
      2744.34      0.95099581      0.48865849
      2747.09      0.91937136      0.48669824
      2749.84      0.98797276      0.48752514
      2752.59       1.0360965      0.48647460
      2755.34       1.0526302      0.48402272
      2758.09       1.2946559      0.48299096
      2760.85       1.2727089      0.48369031
      2763.61       1.3708496      0.48136436
      2766.38       1.4350238      0.48073390
      2769.14       1.5310182      0.47982022
      2771.91       1.5523581      0.47698367
      2774.69       1.6520406      0.47577399
      2777.46       1.7856144      0.47615364
      2780.24       1.9007873      0.47442370
      2783.02       1.9551418      0.47086461
      2785.80       2.0633982      0.46876604
      2788.59       1.9194197      0.46706475
      2791.38       1.9001235      0.46413449
      2794.17       2.0276399      0.46446873
      2796.96       2.0778618      0.46265390
      2799.76       2.2131818      0.46052305
      2802.56       2.1513439      0.45722791
      2805.36       2.0673423      0.45541901
      2808.17       2.0848930      0.45380110
      2810.98       2.0273727      0.45275554
      2813.79       2.0211956      0.45148268
      2816.60       1.9826488      0.45022788
      2819.42       2.0572630      0.44879792
      2822.24       2.0348849      0.44616484
      2825.06       1.9641662      0.44495050
      2827.88       1.7297535      0.44383944
      2830.71       1.6362711      0.44298361
      2833.54       1.4261445      0.44252265
      2836.38       1.3648211      0.44201348
      2839.21       1.4455022      0.44163621
      2842.05       1.3139320      0.44131556
      2844.90       1.2434335      0.44088450
      2847.74       1.1150578      0.43910462
      2850.59       1.1125300      0.43866659
      2853.44       1.1298776      0.43807325
      2856.29      0.92063940      0.43753333
      2859.15       1.0410898      0.43551320
      2862.01       1.0703544      0.43623417
      2864.87       1.1608735      0.43536005
      2867.74       1.3317074      0.43429372
      2870.60       1.2775966      0.43287625
      2873.47       1.3418784      0.43013560
      2876.35       1.4662209      0.42825787
      2879.22       1.4664632      0.42616346
      2882.10       1.5074124      0.42423548
      2884.99       1.6336523      0.42223091
      2887.87       1.8570313      0.41911713
      2890.76       1.9104576      0.41729931
      2893.65       1.8559883      0.41533650
      2896.54       1.8409315      0.41341775
      2899.44       1.8516658      0.41150351
      2902.34       1.8855041      0.40960473
      2905.24       1.8620025      0.40655992
      2908.15       1.9087431      0.40621069
      2911.06       2.0939255      0.40442870
      2913.97       2.0525007      0.40321050
      2916.88       2.0093666      0.40220225
      2919.80       2.0753161      0.40079598
      2922.72       2.0506918      0.39923972
      2925.64       2.0759434      0.39666540
      2928.57       2.0957867      0.39498804
      2931.50       1.9529856      0.39315465
      2934.43       1.8365761      0.39154193
      2937.36       1.8419600      0.39005062
      2940.30       1.7897874      0.38853999
      2943.24       1.8152263      0.38747878
      2946.18       1.6348420      0.38522697
      2949.13       1.5554631      0.38377125
      2952.08       1.5455750      0.38252392
      2955.03       1.4263289      0.38147933
      2957.99       1.4299305      0.38059485
      2960.94       1.3248630      0.37969366
      2963.90       1.2930092      0.37784933
      2966.87       1.2533729      0.37745578
      2969.84       1.1248801      0.37735668
      2972.81       1.1575348      0.37747722
      2975.78       1.1186828      0.37644646
      2978.76       1.0478494      0.37673699
      2981.73       1.0333806      0.37702981
      2984.72      0.97194309      0.37730832
      2987.70      0.98005643      0.37758056
      2990.69       1.0253150      0.37843778
      2993.68      0.93335607      0.37804276
      2996.67      0.95589822      0.37797401
      2999.67      0.91648386      0.37798061
      3002.67      0.85290419      0.37823010
      3005.67      0.72492605      0.37855010
      3008.68      0.63564734      0.37867500
      3011.69      0.65991222      0.37779595
      3014.70      0.66889902      0.37815844
      3017.71      0.70670051      0.37855700
      3020.73      0.71802783      0.37777512
      3023.75      0.76681092      0.37841156
      3026.78      0.95814200      0.37912754
      3029.80      0.81994304      0.38001249
      3032.83      0.80488074      0.38057632
      3035.87      0.82094354      0.38076441
      3038.90      0.78282547      0.38105924
      3041.94      0.85899316      0.38035045
      3044.98      0.79374031      0.38054908
      3048.03      0.81611415      0.38059184
      3051.08      0.97617813      0.38077550
      3054.13       1.0568099      0.38090209
      3057.18       1.0398585      0.38087552
      3060.24       1.0844350      0.38098832
      3063.30       1.1325940      0.37951640
      3066.36       1.1003452      0.37903638
      3069.43       1.1471985      0.37866910
      3072.50       1.1868502      0.37821213
      3075.57       1.1165244      0.37774339
      3078.65       1.1493559      0.37722720
      3081.73       1.0705643      0.37565465
      3084.81       1.0662385      0.37541427
      3087.89       1.1323504      0.37519387
      3090.98       1.1345212      0.37507813
      3094.07       1.1427748      0.37614921
      3097.17       1.1308407      0.37853170
      3100.26       1.1638611      0.37939856
      3103.36       1.1440151      0.37710726
      3106.47       1.1104261      0.37587097
      3109.58      0.98711827      0.37542185
      3112.68       1.0131303      0.37421278
      3115.80      0.91114312      0.37312609
      3118.91      0.95792966      0.37355468
      3122.03      0.95626287      0.37409791
      3125.15      0.93921107      0.37474041
      3128.28      0.94463810      0.37440520
      3131.41       1.0556129      0.37512833
      3134.54      0.94228326      0.37593072
      3137.67       1.0496484      0.37662882
      3140.81      0.97605047      0.37724363
      3143.95      0.97623568      0.37775107
      3147.10      0.96136568      0.37812691
      3150.24      0.89092110      0.37826237
      3153.39      0.85403305      0.37672003
      3156.55      0.85730360      0.37651634
      3159.70      0.87132223      0.37597988
      3162.86      0.98424722      0.37520693
      3166.03       1.0058324      0.37285403
      3169.19       1.1211812      0.37274755
      3172.36       1.2339933      0.37135824
      3175.54       1.1897026      0.36983509
      3178.71       1.3253033      0.36693559
      3181.89       1.4375419      0.36543570
      3185.07       1.3558893      0.36393015
      3188.26       1.2997932      0.36149728
      3191.45       1.4177216      0.36084449
      3194.64       1.4522488      0.35929803
      3197.83       1.4166710      0.35702350
      3201.03       1.4673084      0.35596212
      3204.23       1.4103601      0.35512360
      3207.44       1.5227071      0.35351117
      3210.64       1.4906683      0.35452430
      3213.85       1.4032705      0.35487219
      3217.07       1.4467407      0.35485781
      3220.28       1.4687515      0.35662922
      3223.51       1.5208536      0.35561774
      3226.73       1.4910017      0.35240737
      3229.96       1.5039487      0.35234148
      3233.19       1.4334688      0.35222167
      3236.42       1.5249561      0.35117074
      3239.66       1.5104519      0.35101943
      3242.90       1.5724485      0.35191383
      3246.14       1.4900290      0.35075466
      3249.39       1.4975348      0.35063056
      3252.64       1.5352251      0.34958113
      3255.89       1.5512995      0.34941973
      3259.14       1.4308087      0.35024000
      3262.40       1.5136075      0.34925473
      3265.67       1.4286114      0.34931479
      3268.93       1.3833536      0.34838428
      3272.20       1.4563924      0.34942834
      3275.47       1.4035171      0.34937872
      3278.75       1.4138999      0.34831616
      3282.03       1.3394713      0.34842526
      3285.31       1.3752714      0.34855491
      3288.60       1.3820974      0.34857239
      3291.88       1.3583870      0.34769391
      3295.18       1.3862394      0.34892016
      3298.47       1.3668135      0.35008354
      3301.77       1.2708504      0.34872172
      3305.07       1.2599802      0.34871236
      3308.38       1.1998490      0.34879519
      3311.69       1.1694562      0.34890555
      3315.00       1.1925085      0.34801652
      3318.31       1.1702602      0.34904396
      3321.63       1.0335466      0.34799456
      3324.95      0.94482380      0.34811479
      3328.28      0.98118377      0.34725978
      3331.61      0.97662221      0.34830920
      3334.94      0.98970737      0.34734935
      3338.27      0.95712238      0.34734010
      3341.61      0.96456402      0.34732099
      3344.95       1.0318619      0.34729812
      3348.30       1.0429982      0.34613644
      3351.65      0.96776925      0.34706303
      3355.00      0.86374326      0.34594557
      3358.35      0.89516194      0.34673488
      3361.71      0.89076402      0.34547183
      3365.07      0.93414327      0.34522479
      3368.44      0.91443206      0.34495276
      3371.81      0.93027615      0.34542803
      3375.18       1.0064426      0.34386619
      3378.56       1.1297019      0.34433815
      3381.94       1.1443556      0.34304990
      3385.32       1.0763585      0.34275719
      3388.70       1.0781142      0.34244522
      3392.09       1.0652650      0.34149743
      3395.48       1.0256245      0.34233044
      3398.88       1.0631818      0.34132828
      3402.28       1.0793924      0.34193992
      3405.68       1.1230960      0.34131306
      3409.09       1.1792334      0.34105507
      3412.49       1.1431931      0.34080244
      3415.91       1.2356113      0.33978696
      3419.32       1.2382642      0.34065933
      3422.74       1.2725051      0.33985454
      3426.17       1.2181437      0.33915408
      3429.59       1.1808170      0.34045320
      3433.02       1.1248902      0.33888909
      3436.45       1.1026901      0.33993131
      3439.89       1.2573411      0.33895307
      3443.33       1.2569225      0.33887839
      3446.78       1.2231088      0.33877335
      3450.22       1.2040783      0.33864274
      3453.67       1.2170217      0.33748113
      3457.13       1.3210038      0.33832639
      3460.58       1.4457192      0.33744101
      3464.04       1.4451085      0.33653323
      3467.51       1.4746759      0.33750154
      3470.98       1.5137743      0.33655141
      3474.45       1.4961464      0.33654542
      3477.92       1.5651359      0.33641365
      3481.40       1.4876410      0.33626457
      3484.88       1.3649164      0.33532654
      3488.37       1.3782766      0.33610084
      3491.86       1.3690704      0.33594166
      3495.35       1.3663299      0.33505209
      3498.84       1.3778611      0.33605585
      3502.34       1.2826794      0.33546723
      3505.84       1.3710511      0.33608702
      3509.35       1.3568705      0.33458981
      3512.86       1.3215357      0.33562048
      3516.37       1.2193234      0.33453688
      3519.89       1.1181990      0.33434659
      3523.41       1.1926889      0.33344370
      3526.93       1.1817896      0.33469106
      3530.46       1.2719548      0.33411954
      3533.99       1.3414074      0.33483564
      3537.53       1.3428144      0.33587941
      3541.06       1.3804381      0.33549250
      3544.60       1.3029038      0.33623432
      3548.15       1.2010388      0.33613984
      3551.70       1.2235096      0.33686630
      3555.25       1.1725715      0.33845453
      3558.80       1.2167309      0.33843271
      3562.36       1.2225930      0.33962035
      3565.92       1.1256449      0.33970846
      3569.49       1.1614371      0.34078927
      3573.06       1.1564303      0.34272307
      3576.64       1.2605613      0.34265554
      3580.21       1.1851264      0.34355694
      3583.79       1.1753183      0.34438958
      3587.38       1.2154721      0.34416278
      3590.96       1.3559663      0.34474482
      3594.55       1.3691358      0.34524391
      3598.15       1.3586251      0.34601483
      3601.75       1.4264163      0.34664539
      3605.35       1.4385332      0.34619961
      3608.96       1.4438307      0.34666112
      3612.56       1.3996534      0.34714531
      3616.18       1.3676537      0.34661669
      3619.79       1.3172721      0.34782130
      3623.41       1.3659443      0.34799020
      3627.04       1.2683011      0.34724292
      3630.66       1.2928602      0.34755101
      3634.29       1.2658015      0.34816571
      3637.93       1.2014919      0.34883558
      3641.57       1.1587914      0.34854699
      3645.21       1.2703318      0.34949485
      3648.86       1.0566948      0.35028336
      3652.50      0.96938004      0.35158916
      3656.16       1.0065405      0.35468876
      3659.81       1.0078327      0.35414213
      3663.47       1.1096381      0.35304352
      3667.14       1.0613017      0.35177505
      3670.80       1.1954811      0.35189137
      3674.48       1.2637933      0.35262066
      3678.15       1.2060571      0.35369684
      3681.83       1.1581867      0.35385308
      3685.51       1.1169651      0.35518463
      3689.20       1.2768015      0.35670864
      3692.88       1.2691418      0.35796012
      3696.58       1.2142077      0.35951782
      3700.27       1.2391140      0.36032724
      3703.98       1.1773550      0.36223745
      3707.68       1.1439528      0.36392911
      3711.39       1.2718299      0.36558274
      3715.10       1.3045140      0.36730321
      3718.81       1.4194286      0.36769151
      3722.53       1.3597188      0.36913050
      3726.26       1.3890512      0.37043880
      3729.98       1.4390940      0.37136288
      3733.71       1.3628160      0.37174699
      3737.45       1.3085493      0.37096685
      3741.18       1.3406844      0.37127944
      3744.93       1.4132037      0.37161188
      3748.67       1.3697884      0.37157083
      3752.42       1.3035378      0.37147388
      3756.17       1.2246503      0.37153489
      3759.93       1.1328858      0.37151624
      3763.69       1.0859708      0.37113994
      3767.45       1.0783606      0.37281996
      3771.22      0.91511158      0.37237294
      3774.99       1.0034716      0.37210804
      3778.77      0.97286801      0.37291454
      3782.54      0.96440496      0.37293633
      3786.33      0.98758859      0.37485672
      3790.11      0.89654768      0.37719763
      3793.90      0.72195005      0.38091556
      3797.70      0.86661757      0.38653706
      3801.50       1.0021309      0.38956637
      3805.30       1.0680121      0.38682890
      3809.10       1.2415033      0.39042207
      3812.91       1.2278006      0.39416806
      3816.73       1.3075109      0.39753470
      3820.54       1.3117559      0.40055537
      3824.36       1.3065749      0.40318690
      3828.19       1.2967209      0.40532270
      3832.02       1.4989250      0.40686523
      3835.85       1.5408517      0.40745612
      3839.68       1.3387042      0.40944633
      3843.52       1.4222108      0.41055669
      3847.37       1.4089806      0.40966334
      3851.22       1.4319831      0.40272329
      3855.07       1.5007716      0.39703432
      3858.92       1.4469562      0.39190945
      3862.78       1.4495220      0.38706849
      3866.64       1.4328186      0.38223050
      3870.51       1.3216674      0.37709211
      3874.38       1.2838790      0.37183978
      3878.26       1.2424490      0.36644423
      3882.13       1.2387433      0.36115141
      3886.02       1.1115825      0.35450697
      3889.90       1.0427257      0.34806650
      3893.79      0.96795404      0.34178125
      3897.69       1.0265446      0.33565128
      3901.59       1.1074097      0.32970604
      3905.49       1.0939357      0.32423798
      3909.39       1.1163970      0.31888069
      3913.30       1.1238725      0.31397905
      3917.22       1.3065466      0.30900165
      3921.13       1.3504848      0.30297289
      3925.06       1.3820411      0.29764537
      3928.98       1.2808506      0.29253734
      3932.91       1.2359761      0.28751595
      3936.84       1.1729497      0.28283864
      3940.78       1.1103349      0.27657557
      3944.72       1.1138038      0.27197243
      3948.67       1.2176212      0.26763278
      3952.61       1.2984257      0.26354049
      3956.57       1.3055818      0.25958276
      3960.52       1.3692023      0.25653432
      3964.48       1.2384087      0.25397880
      3968.45       1.2158991      0.25059799
      3972.42       1.2336755      0.24738193
      3976.39       1.2624462      0.24612196
      3980.37       1.2325323      0.24597903
      3984.35       1.2756254      0.24493253
      3988.33       1.1729288      0.24078770
      3992.32       1.1480274      0.23904002
      3996.31       1.1042032      0.23749630
      4000.31       1.0750340      0.23550000
      4004.31       1.0767343      0.23373616
      4008.31       1.0624899      0.23380129
      4012.32       1.0365248      0.23356360
      4016.33       1.0636763      0.23384479
      4020.35       1.0224665      0.23429823
      4024.37      0.92408593      0.23510889
      4028.40      0.93509050      0.23601432
      4032.42      0.92266621      0.23700677
      4036.46       1.0096770      0.23804184
      4040.50      0.98932130      0.23809723
      4044.54       1.0740284      0.23818991
      4048.58       1.1014803      0.23875534
      4052.63       1.2012317      0.23930208
      4056.68       1.1862799      0.23964363
      4060.74       1.1945555      0.23962203
      4064.80       1.2228679      0.23857215
      4068.86       1.1818880      0.23816359
      4072.93       1.2032927      0.23754284
      4077.01       1.0871513      0.23670862
      4081.08       1.0856612      0.23552235
      4085.17       1.0082189      0.23333940
      4089.25       1.0123924      0.23179085
      4093.34      0.97282035      0.23004061
      4097.43      0.99351271      0.22827264
      4101.53       1.0011092      0.22637041
      4105.63      0.98173151      0.22375856
      4109.74      0.94044472      0.22215144
      4113.85      0.80106670      0.22050197
      4117.96      0.71600406      0.21932149
      4122.08      0.67869852      0.21747720
      4126.20      0.69887081      0.21604227
      4130.33      0.68954807      0.21521173
      4134.46      0.68483038      0.21509780
      4138.59      0.66556968      0.21372842
      4142.73      0.63450752      0.21183856
      4146.88      0.60722972      0.21021666
      4151.02      0.62537752      0.20889418
      4155.18      0.60763553      0.20852314
      4159.33      0.65739753      0.20760398
      4163.49      0.64004976      0.20687411
      4167.65      0.63662387      0.20600957
      4171.82      0.62504727      0.20507611
      4175.99      0.62303548      0.20439810
      4180.17      0.63625705      0.20330574
      4184.35      0.62730823      0.20355656
      4188.54      0.76661602      0.20303635
      4192.72      0.89551463      0.20175224
      4196.92      0.94654030      0.20113536
      4201.11      0.85605950      0.20059814
      4205.31      0.86593182      0.19945441
      4209.52      0.85197859      0.19934795
      4213.73      0.88027324      0.20012648
      4217.94      0.82429216      0.19911282
      4222.16      0.87094827      0.19794705
      4226.38      0.87139044      0.19795055
      4230.61      0.87134306      0.19727652
      4234.84      0.89411471      0.19714532
      4239.08      0.90211289      0.19613884
      4243.32      0.91644211      0.19588707
      4247.56      0.84492316      0.19634056
      4251.81      0.85182190      0.19629605
      4256.06      0.86476103      0.19861902
      4260.32      0.87263758      0.19891125
      4264.58      0.90306847      0.19669250
      4268.84      0.87866613      0.19605793
      4273.11      0.88724692      0.19633908
      4277.38      0.88439126      0.19688812
      4281.66      0.88794706      0.19653005
      4285.94      0.94066473      0.19700252
      4290.23      0.90974426      0.19858463
      4294.52      0.89623783      0.20010293
      4298.81      0.90465793      0.20201247
      4303.11      0.91260784      0.20049715
      4307.42      0.87018049      0.20035276
      4311.72      0.99095798      0.19984863
      4316.04       1.0284570      0.20018174
      4320.35       1.0437668      0.20109673
      4324.67       1.0602422      0.20202736
      4329.00       1.0522959      0.20247779
      4333.33       1.1369925      0.20224035
      4337.66       1.1870666      0.20164782
      4342.00       1.3239632      0.19912382
      4346.34       1.3760022      0.19840343
      4350.69       1.4150196      0.19809359
      4355.04       1.4548682      0.19768685
      4359.39       1.3941208      0.19671663
      4363.75       1.3224335      0.19698312
      4368.12       1.2638731      0.19698078
      4372.48       1.2903288      0.19670888
      4376.86       1.2974067      0.19548493
      4381.23       1.3286992      0.19410209
      4385.61       1.2361760      0.19164214
      4390.00       1.2902697      0.19152343
      4394.39       1.3101586      0.19004478
      4398.79       1.3395034      0.18713088
      4403.18       1.2834659      0.18523534
      4407.59       1.2764458      0.18319655
      4412.00       1.2249596      0.18263387
      4416.41       1.1873653      0.18159936
      4420.82       1.2330524      0.18031600
      4425.25       1.1156080      0.17991480
      4429.67       1.0705909      0.17665085
      4434.10       1.0305911      0.17448636
      4438.54      0.98328651      0.17257090
      4442.97      0.94744133      0.17184875
      4447.42      0.92772526      0.17022524
      4451.86      0.90528896      0.16906753
      4456.32      0.86178057      0.16863040
      4460.77      0.90639807      0.16954624
      4465.24      0.91829279      0.16989376
      4469.70      0.95250800      0.16913824
      4474.17      0.94844771      0.16767627
      4478.65      0.96145185      0.16812147
      4483.12      0.96738068      0.16843802
      4487.61      0.93122827      0.16911412
      4492.09      0.95021515      0.17009408
      4496.59      0.97481000      0.16950706
      4501.08       1.0365482      0.16930368
      4505.58       1.0752515      0.16888711
      4510.09       1.1462941      0.16804667
      4514.60       1.1587606      0.16757234
      4519.12       1.1327095      0.16686979
      4523.63       1.1615211      0.16623789
      4528.16       1.1986745      0.16532543
      4532.69       1.1755808      0.16341399
      4537.22       1.2173609      0.16268033
      4541.76       1.2157281      0.16294393
      4546.30       1.2133280      0.16065327
      4550.85       1.2225303      0.15851445
      4555.40       1.2379779      0.15691737
      4559.95       1.2267328      0.15616374
      4564.51       1.2863179      0.15662254
      4569.08       1.2820453      0.15699791
      4573.65       1.2609937      0.15811770
      4578.22       1.1839749      0.15968947
      4582.80       1.2285899      0.16189140
      4587.38       1.1894213      0.16425693
      4591.97       1.1304168      0.16544445
      4596.56       1.1354078      0.16776920
      4601.16       1.0374356      0.16998510
      4605.76       1.0832044      0.17046101
      4610.37       1.0748927      0.17094033
      4614.98       1.0891224      0.17261822
      4619.59       1.0731416      0.17212753
      4624.21       1.1185475      0.16839458
      4628.84       1.0681398      0.16437641
      4633.47      0.99341772      0.16228545
      4638.10       1.0155533      0.16155449
      4642.74      0.99410047      0.15801021
      4647.38      0.95718508      0.15422456
      4652.03      0.87525683      0.15292809
      4656.68      0.83582678      0.15002080
      4661.34      0.81829046      0.14769485
      4666.00      0.76873111      0.14483504
      4670.67      0.76269620      0.14295762
      4675.33      0.74496008      0.14206486
      4680.01      0.78260276      0.14199833
      4684.69      0.75514151      0.14242820
      4689.38      0.76286338      0.14399731
      4694.07      0.74187341      0.14484951
      4698.76      0.74436725      0.14460877
      4703.46      0.76285332      0.14594233
      4708.16      0.73172096      0.14776121
      4712.87      0.65334283      0.14997518
      4717.58      0.64884841      0.15233210
      4722.30      0.65142506      0.15327818
      4727.03      0.63965294      0.15256854
      4731.75      0.66978056      0.15377525
      4736.48      0.69230885      0.15491109
      4741.22      0.69398972      0.15580259
      4745.96      0.68078057      0.15469153
      4750.71      0.67502157      0.15460152
      4755.46      0.63103900      0.15424002
      4760.22      0.64416501      0.15354524
      4764.97      0.70851228      0.15254169
      4769.74      0.71828814      0.15110605
      4774.51      0.74260114      0.14956641
      4779.29      0.78528649      0.14769486
      4784.07      0.76772439      0.14603116
      4788.85      0.83061234      0.14438596
      4793.64      0.87263952      0.14263807
      4798.43      0.91342277      0.14049627
      4803.23      0.96046689      0.13798827
      4808.03       1.0297374      0.13549863
      4812.84       1.0259140      0.13461178
      4817.66       1.0562460      0.13389914
      4822.48       1.1401005      0.13195182
      4827.30       1.1235905      0.12911512
      4832.12       1.0983921      0.12662778
      4836.96       1.0796781      0.12540597
      4841.79       1.0884467      0.12389312
      4846.63       1.0951194      0.12247966
      4851.48       1.0747007      0.12170048
      4856.33       1.0835051      0.12142297
      4861.19       1.1072343      0.12126086
      4866.05       1.1083092      0.12110436
      4870.92       1.1137605      0.12045305
      4875.79       1.0920049      0.11980190
      4880.66       1.0487917      0.11899282
      4885.55       1.0214544      0.11833223
      4890.43      0.99928364      0.11898737
      4895.32      0.94541802      0.11990239
      4900.22      0.93769557      0.11939523
      4905.12      0.92180547      0.11768800
      4910.02      0.90026883      0.11676148
      4914.94      0.84943454      0.11738035
      4919.85      0.85395534      0.11802948
      4924.77      0.84129737      0.11764201
      4929.70      0.84337472      0.11722157
      4934.62      0.83580394      0.11645632
      4939.56      0.82378556      0.11697621
      4944.50      0.79346504      0.11782651
      4949.44      0.80317208      0.11864204
      4954.39      0.80462179      0.12027173
      4959.35      0.80438370      0.12197176
      4964.31      0.76563873      0.12247731
      4969.27      0.72953941      0.12347638
      4974.24      0.75952933      0.12470639
      4979.22      0.79391492      0.12660713
      4984.20      0.81948072      0.12739689
      4989.18      0.83011371      0.12967557
      4994.17      0.86937013      0.13337440
      4999.16      0.90188841      0.13771222
      5004.16      0.91524490      0.14250783
      5009.17      0.93791901      0.14544623
      5014.18      0.94691135      0.14791628
      5019.19      0.87981725      0.15082136
      5024.21      0.88640563      0.15430414
      5029.23      0.87878697      0.15621318
      5034.26      0.93569086      0.15761616
      5039.30      0.90719056      0.15904285
      5044.34      0.93823658      0.16088747
      5049.39      0.97528228      0.16146539
      5054.43      0.99612542      0.15940719
      5059.49      0.93211664      0.15657258
      5064.55      0.93920850      0.15325841
      5069.61      0.91226033      0.14907614
      5074.68      0.88259591      0.14647847
      5079.76      0.88779282      0.14543407
      5084.84      0.87348321      0.14470942
      5089.92      0.92035609      0.14081492
      5095.01      0.91452680      0.13679757
      5100.11      0.93479611      0.13352047
      5105.21      0.94974001      0.13174337
      5110.31       1.0079825      0.13046851
      5115.42       1.0496220      0.12910727
      5120.54       1.0604871      0.12647831
      5125.66       1.0946318      0.12559634
      5130.79       1.0853720      0.12532124
      5135.92       1.0929247      0.12557987
      5141.05       1.1065366      0.12649961
      5146.20       1.0537993      0.12693484
      5151.34       1.0745645      0.12946173
      5156.49       1.0638407      0.12898888
      5161.65       1.0260998      0.12571264
      5166.81       1.0288241      0.12505448
      5171.98       1.0469508      0.12494852
      5177.15       1.0404316      0.12481034
      5182.33       1.0299032      0.12381815
      5187.51       1.0437063      0.12449437
      5192.70       1.0087468      0.12590752
      5197.89      0.99382303      0.12650805
      5203.09       1.0125794      0.12636434
      5208.29      0.93373352      0.12727387
      5213.50      0.91346833      0.12931518
      5218.72      0.88846204      0.13029789
      5223.93      0.90826588      0.12913260
      5229.16      0.85241171      0.12804756
      5234.39      0.86140018      0.12899731
      5239.62      0.80440813      0.13127881
      5244.86      0.80776239      0.13115364
      5250.11      0.77730003      0.13049825
      5255.36      0.77518647      0.12985345
      5260.61      0.72371671      0.12873928
      5265.87      0.72992374      0.12896057
      5271.14      0.68094438      0.12830354
      5276.41      0.65427053      0.12875250
      5281.69      0.66511714      0.13077252
      5286.97      0.69779101      0.13075612
      5292.26      0.74031279      0.12974063
      5297.55      0.74605551      0.13045187
      5302.85      0.78536986      0.13172813
      5308.15      0.80600183      0.13391326
      5313.46      0.82558983      0.13527225
      5318.77      0.80583310      0.13696691
      5324.09      0.81971755      0.13699679
      5329.42      0.88002980      0.13930851
      5334.75      0.87813812      0.13945326
      5340.08      0.90754000      0.14132327
      5345.42      0.90960184      0.14453999
      5350.77      0.89358672      0.14741147
      5356.12      0.92300301      0.14858808
      5361.48      0.92569027      0.14920068
      5366.83      0.92215063      0.14801766
      5372.20      0.97125971      0.14899220
      5377.58      0.95308690      0.15177308
      5382.95      0.89972755      0.15221802
      5388.34      0.93869163      0.15175211
      5393.72      0.93497087      0.15164695
      5399.12      0.90351178      0.15321556
      5404.52      0.92658014      0.15259672
      5409.92      0.94223765      0.15265202
      5415.33      0.90141467      0.15534678
      5420.75      0.96838308      0.15680387
      5426.17      0.93282516      0.15475875
      5431.60      0.88151919      0.15250806
      5437.03      0.77867651      0.15326782
      5442.47      0.78261534      0.15511979
      5447.91      0.77478857      0.15514257
      5453.36      0.78146714      0.15214633
      5458.81      0.78421684      0.14998172
      5464.27      0.75255324      0.14968286
      5469.73      0.70019319      0.14855809
      5475.20      0.74845643      0.14794261
      5480.68      0.73149061      0.14414762
      5486.16      0.71185035      0.14279246
      5491.65      0.65572997      0.14032114
      5497.14      0.66203125      0.13843815
      5502.64      0.62203986      0.13617472
      5508.14      0.61965612      0.13503258
      5513.65      0.59493909      0.13352049
      5519.16      0.54656195      0.13107811
      5524.68      0.51067180      0.12799690
      5530.20      0.50549757      0.12565925
      5535.73      0.51333537      0.12330841
      5541.27      0.49337958      0.12084976
      5546.81      0.46028333      0.11804725
      5552.36      0.47971316      0.11581089
      5557.91      0.50751123      0.11463636
      5563.47      0.51107740      0.11225854
      5569.04      0.51060605      0.11007174
      5574.60      0.56082593      0.10848450
      5580.18      0.56698133      0.10683935
      5585.76      0.58725343      0.10597714
      5591.35      0.60200857      0.10633498
      5596.94      0.61289313      0.10612377
      5602.53      0.66243611      0.10556094
      5608.14      0.63389783      0.10454201
      5613.75      0.65874023      0.10335394
      5619.36      0.68966729      0.10012082
      5624.98      0.71776379     0.098510044
      5630.60      0.68775038     0.098507500
      5636.23      0.67943403     0.099327235
      5641.87      0.67392936     0.099624422
      5647.51      0.67415609     0.099366478
      5653.16      0.72119742     0.099981979
      5658.82      0.77040774      0.10068204
      5664.47      0.78137712      0.10146557
      5670.14      0.78497907      0.10192862
      5675.81      0.80077500      0.10383547
      5681.48      0.79818725      0.10539036
      5687.17      0.80655367      0.10699704
      5692.85      0.83524308      0.10889524
      5698.55      0.81312818      0.11006782
      5704.25      0.81019066      0.11103514
      5709.95      0.83007794      0.11357126
      5715.66      0.83258247      0.11643093
      5721.38      0.81228020      0.11848007
      5727.10      0.80657130      0.11908982
      5732.83      0.74176994      0.12013173
      5738.56      0.70392733      0.12229087
      5744.30      0.67107520      0.12475033
      5750.04      0.65823266      0.12524745
      5755.79      0.65507488      0.12553154
      5761.55      0.60605058      0.12512903
      5767.31      0.57533953      0.12635075
      5773.08      0.59476165      0.12792579
      5778.85      0.63016216      0.12647619
      5784.63      0.58083175      0.12449242
      5790.41      0.58719215      0.12323958
      5796.21      0.60263791      0.12155548
      5802.00      0.59382910      0.12106076
      5807.81      0.57173651      0.12086168
      5813.61      0.56952784      0.12040935
      5819.43      0.54249550      0.11993960
      5825.25      0.51433277      0.11860000
      5831.07      0.51393267      0.11720891
      5836.90      0.53541997      0.11447732
      5842.74      0.52728879      0.11243715
      5848.58      0.51647732      0.11094988
      5854.43      0.50921628      0.10970681
      5860.29      0.57975288      0.10878425
      5866.15      0.59378389      0.10577733
      5872.01      0.64171171      0.10363411
      5877.89      0.65715109      0.10260235
      5883.76      0.68161147      0.10199444
      5889.65      0.68877181      0.10212838
      5895.54      0.72044155      0.10198437
      5901.43      0.75967389      0.10275500
      5907.34      0.75436596      0.10239789
      5913.24      0.77860038      0.10356659
      5919.16      0.80407246      0.10472715
      5925.08      0.78562881      0.10517811
      5931.00      0.77236002      0.10451874
      5936.93      0.77967044      0.10613219
      5942.87      0.74912276      0.10397087
      5948.81      0.77344985      0.10275686
      5954.76      0.74324917      0.10166427
      5960.72      0.71963446      0.10325688
      5966.68      0.73523272      0.10521261
      5972.64      0.68066690      0.10419314
      5978.62      0.69666114      0.10357178
      5984.60      0.63785370      0.10258486
      5990.58      0.59945448      0.10425962
      5996.57      0.61950245      0.10551752
      6002.57      0.62097050      0.10625279
      6008.57      0.62391647      0.10444576
      6014.58      0.61394009      0.10485434
      6020.60      0.60275442      0.10510037
      6026.62      0.60237938      0.10685454
      6032.65      0.60385105      0.10713991
      6038.68      0.58299069      0.10872093
      6044.72      0.62249051      0.10954308
      6050.76      0.63609932      0.11303261
      6056.81      0.66262632      0.11500633
      6062.87      0.73273884      0.11671660
      6068.93      0.74642352      0.11899836
      6075.00      0.78052660      0.12140901
      6081.08      0.79902140      0.12453196
      6087.16      0.90812600      0.12455948
      6093.25      0.92935583      0.12437708
      6099.34      0.92354884      0.12524203
      6105.44      0.95060652      0.12693385
      6111.54      0.95900720      0.12756209
      6117.66      0.91369477      0.12541544
      6123.78      0.94822557      0.12417504
      6129.90      0.93811509      0.12331398
      6136.03      0.93745133      0.12245436
      6142.17      0.92844391      0.12089171
      6148.31      0.93232000      0.12076172
      6154.46      0.93873725      0.11962696
      6160.61      0.99261071      0.11621939
      6166.77      0.98833156      0.11373547
      6172.94       1.0065127      0.11122276
      6179.11       1.0129144      0.10944406
      6185.29       1.0580108      0.10834045
      6191.48       1.0681801      0.10689858
      6197.67       1.0542871      0.10692156
      6203.87       1.0317188      0.10400339
      6210.07       1.0199329      0.10142042
      6216.28       1.0068402     0.099857695
      6222.50      0.97156895     0.098041007
      6228.72      0.97330913     0.098012776
      6234.95      0.96114837     0.096144961
      6241.19      0.93451665     0.094093592
      6247.42      0.94076341     0.091967094
      6253.67      0.92453543     0.090800146
      6259.93      0.89287938     0.089000869
      6266.19      0.90653351     0.087939478
      6272.46      0.89952678     0.086387338
      6278.73      0.91578505     0.085621341
      6285.01      0.92928334     0.085280475
      6291.29      0.93187094     0.085676435
      6297.58      0.91446826     0.085231654
      6303.88      0.92200501     0.083843782
      6310.19      0.89800321     0.082923063
      6316.50      0.88710960     0.081215017
      6322.81      0.90878367     0.079772107
      6329.14      0.91385906     0.079303749
      6335.47      0.88112377     0.080391837
      6341.80      0.83824020     0.080776975
      6348.14      0.81635758     0.081607011
      6354.49      0.82462342     0.082158191
      6360.85      0.82267909     0.082677797
      6367.21      0.87148362     0.083871057
      6373.57      0.86092988     0.085792087
      6379.95      0.88275229     0.087649648
      6386.33      0.90623551     0.089266323
      6392.72      0.91695265     0.091191134
      6399.11      0.93061381     0.092654598
      6405.51      0.99071613     0.094975029
      6411.92      0.98831265     0.097311570
      6418.32       1.0568822      0.10084114
      6424.74       1.0798140      0.10415266
      6431.17       1.1377695      0.10851715
      6437.60       1.1310196      0.11162163
      6444.04       1.1186149      0.11393542
      6450.48       1.0959569      0.11717729
      6456.94       1.1157164      0.12057511
      6463.39       1.1096238      0.12485829
      6469.85       1.1470065      0.12654755
      6476.33       1.1905116      0.12805075
      6482.80       1.1977221      0.12871950
      6489.28       1.2187001      0.12964224
      6495.77       1.2250431      0.13057509
      6502.27       1.1771535      0.12936156
      6508.77       1.1879778      0.12701979
      6515.28       1.1953530      0.12492455
      6521.80       1.1909409      0.12504416
      6528.32       1.1998153      0.12529969
      6534.85       1.1617008      0.12633079
      6541.38       1.1174706      0.12749504
      6547.92       1.0593212      0.12425716
      6554.47      0.98098145      0.12058335
      6561.03      0.92353610      0.11852171
      6567.59      0.88005263      0.11643294
      6574.16      0.87160012      0.11433510
      6580.73      0.78583259      0.11469684
      6587.31      0.69449212      0.11346018
      6593.90      0.70758265      0.11117876
      6600.50      0.70385536      0.11093308
      6607.10      0.72466794      0.11214513
      6613.70      0.71017651      0.11229168
      6620.32      0.68979322      0.11414151
      6626.94      0.64711744      0.11671349
      6633.57      0.64413939      0.11708955
      6640.20      0.66663009      0.11639141
      6646.84      0.66456878      0.11722217
      6653.49      0.67226443      0.11794718
      6660.14      0.69458608      0.11837265
      6666.80      0.65557388      0.11953478
      6673.47      0.74648341      0.12234642
      6680.14      0.74357890      0.12311166
      6686.82      0.78938078      0.12619347
      6693.51      0.80487063      0.12601081
      6700.20      0.84286174      0.12744436
      6706.90      0.89459820      0.12828212
      6713.61      0.98051937      0.12912943
      6720.32       1.0334871      0.13005985
      6727.05       1.0482331      0.12921127
      6733.77       1.1024054      0.12954952
      6740.51       1.1516032      0.12988812
      6747.25       1.2322713      0.13041498
      6754.00       1.2164723      0.13172355
      6760.75       1.2333621      0.13353918
      6767.51       1.2734101      0.13459123
      6774.28       1.2815471      0.13674588
      6781.05       1.2440187      0.14070477
      6787.84       1.2449791      0.14570642
      6794.62       1.1726347      0.15219887
      6801.42       1.1256818      0.15813507
      6808.22       1.0894243      0.16360933
      6815.03       1.0513098      0.16802232
      6821.85       1.0515982      0.17287211
      6828.67       1.1002891      0.17633461
      6835.50       1.1027596      0.17825582
      6842.33       1.0233789      0.18230386
      6849.17       1.0555831      0.18341436
      6856.02       1.1084755      0.18754879
      6862.88       1.0633946      0.19380981
      6869.74       1.1517517      0.20307038
      6876.61      0.93178147      0.21764883
      6883.49      0.97469962      0.21817872
      6890.37      0.95793318      0.21708387
      6897.27      0.94582188      0.21621772
      6904.16      0.91529909      0.21768672
      6911.07      0.83516762      0.21985577
      6917.98      0.82156028      0.22526789
      6924.89      0.84511993      0.22635960
      6931.82      0.82727681      0.23444235
      6938.75      0.95691806      0.23895797
      6945.69      0.90853169      0.24610436
      6952.64      0.90368180      0.25534577
      6959.59      0.92756832      0.26445568
      6966.55      0.97723861      0.27507483
      6973.52      0.97648824      0.28373288
      6980.49      0.91713728      0.30175114
      6987.47      0.89244462      0.32693180
      6994.46      0.92406375      0.34258082
      7001.46      0.98336369      0.35973516
      7008.46       1.0255000      0.38382055
      7015.46      0.99817355      0.41575939
      7022.48      0.89464544      0.48908558
      7029.51      0.95006219      0.58826189
      7036.53      0.97942083      0.66958763
      7043.57       1.0248575      0.73923680
      7050.62       1.2005595      0.83815902
      7057.66       1.0932381       1.0164054
