# starting wavelength =        2374.0609
# ending wavelength =        7538.6183
# O2 telluric scale =        0
# O2 telluric shift =        0
# H2O telluric scale =        0
# H2O telluric shift =        0
      2374.08      0.49221237     0.070142672
      2376.45      0.49135281     0.068483839
      2378.83      0.47889073     0.066930781
      2381.20      0.45312996     0.065391852
      2383.59      0.44472405     0.063906100
      2385.97      0.43838182     0.062555171
      2388.36      0.41510561     0.061178542
      2390.75      0.37685255     0.059333496
      2393.14      0.36821819     0.058158717
      2395.53      0.37902339     0.056931299
      2397.93      0.36917089     0.055741912
      2400.32      0.36032817     0.054640387
      2402.72      0.36481971     0.053466904
      2405.13      0.37077832     0.052278794
      2407.53      0.36487415     0.051165432
      2409.94      0.35165423     0.049549244
      2412.35      0.34927303     0.048467206
      2414.76      0.33958604     0.047531896
      2417.18      0.33910213     0.046569781
      2419.59      0.33442558     0.045697021
      2422.01      0.34814418     0.044777112
      2424.44      0.33270494     0.043885504
      2426.86      0.31276427     0.042749964
      2429.29      0.33293066     0.041924176
      2431.72      0.35014396     0.041129696
      2434.15      0.36699672     0.040441332
      2436.58      0.38097982     0.039699787
      2439.02      0.38200882     0.039045286
      2441.46      0.39148316     0.038320565
      2443.90      0.39326637     0.037298342
      2446.34      0.39763330     0.036658949
      2448.79      0.38829540     0.035948263
      2451.24      0.38827602     0.035302744
      2453.69      0.38689184     0.034591009
      2456.14      0.40662612     0.033916464
      2458.60      0.40715361     0.033053870
      2461.06      0.41518395     0.032387419
      2463.52      0.41285942     0.031752696
      2465.98      0.41466094     0.031089761
      2468.45      0.41741138     0.030470702
      2470.92      0.42283133     0.029964855
      2473.39      0.41866059     0.029216137
      2475.86      0.42506818     0.028819043
      2478.34      0.43343066     0.028394275
      2480.82      0.43199176     0.028075978
      2483.30      0.43341998     0.027708505
      2485.78      0.43950715     0.027163403
      2488.27      0.44666591     0.026927739
      2490.76      0.44286425     0.026609481
      2493.25      0.45019672     0.026384621
      2495.74      0.45260291     0.026074216
      2498.24      0.44698877     0.025634504
      2500.74      0.45357530     0.025284014
      2503.24      0.45459159     0.024923055
      2505.74      0.45285547     0.024619464
      2508.25      0.45362201     0.024244240
      2510.75      0.44919432     0.023747283
      2513.26      0.44046548     0.023369733
      2515.78      0.43858847     0.023075406
      2518.29      0.43681989     0.022745820
      2520.81      0.42863070     0.022502600
      2523.33      0.42955085     0.022074281
      2525.86      0.43497716     0.021878066
      2528.38      0.44172439     0.021635759
      2530.91      0.43470298     0.021494410
      2533.44      0.43655057     0.021150182
      2535.98      0.44021448     0.020950456
      2538.51      0.43620993     0.020841069
      2541.05      0.43521223     0.020681456
      2543.59      0.43496865     0.020625282
      2546.13      0.43024231     0.020340051
      2548.68      0.42971050     0.020246063
      2551.23      0.42704023     0.020064643
      2553.78      0.42419973     0.019961913
      2556.34      0.43556169     0.019648918
      2558.89      0.43633509     0.019579972
      2561.45      0.43369456     0.019444244
      2564.01      0.43258776     0.019400933
      2566.58      0.43551163     0.019151206
      2569.14      0.42820356     0.019107861
      2571.71      0.42532902     0.018974979
      2574.28      0.42155746     0.018919584
      2576.86      0.42444423     0.018635346
      2579.44      0.42218502     0.018555590
      2582.01      0.41893693     0.018471836
      2584.60      0.41789452     0.018306481
      2587.18      0.41344744     0.018099786
      2589.77      0.41885881     0.017948798
      2592.36      0.41890250     0.017864094
      2594.95      0.41280689     0.017687239
      2597.55      0.40798047     0.017435683
      2600.14      0.40461820     0.017267430
      2602.74      0.40373448     0.017180901
      2605.35      0.39115472     0.016961716
      2607.95      0.38158440     0.016966329
      2610.56      0.37100261     0.016919996
      2613.17      0.35859258     0.016969939
      2615.79      0.35457384     0.016954805
      2618.40      0.35085088     0.016954498
      2621.02      0.35065791     0.017058018
      2623.64      0.34923798     0.016953288
      2626.26      0.34817568     0.017060226
      2628.89      0.34949661     0.017050588
      2631.52      0.35648492     0.017124544
      2634.15      0.35551485     0.017050691
      2636.79      0.36279507     0.016962282
      2639.42      0.37504012     0.016925895
      2642.06      0.38382934     0.016669346
      2644.70      0.38961795     0.016613379
      2647.35      0.39604691     0.016486995
      2650.00      0.40338964     0.016315406
      2652.65      0.41103775     0.016277407
      2655.30      0.41777118     0.016164129
      2657.96      0.42380899     0.016118580
      2660.61      0.42744205     0.015887236
      2663.27      0.43839521     0.015861753
      2665.94      0.45175504     0.015844628
      2668.60      0.46345745     0.015683050
      2671.27      0.48260556     0.015634627
      2673.94      0.49654734     0.015556252
      2676.62      0.51658812     0.015507874
      2679.29      0.53170579     0.015581575
      2681.97      0.54628398     0.015578571
      2684.66      0.56599492     0.015553668
      2687.34      0.58551424     0.015645145
      2690.03      0.60785268     0.015637331
      2692.72      0.63019584     0.015607012
      2695.41      0.65145132     0.015562530
      2698.11      0.67624600     0.015587369
      2700.81      0.70342816     0.015482834
      2703.51      0.72829196     0.015393529
      2706.21      0.75606676     0.015385517
      2708.92      0.78328546     0.015259226
      2711.62      0.80475562     0.015148501
      2714.34      0.83546337     0.015005671
      2717.05      0.87303535     0.014972140
      2719.77      0.89379310     0.014875421
      2722.49      0.92931555     0.014791260
      2725.21      0.96885216     0.014849903
      2727.94      0.98944562     0.014700436
      2730.66       1.0223333     0.014619235
      2733.39       1.0482537     0.014672592
      2736.13       1.0634976     0.014631876
      2738.86       1.0769953     0.014565208
      2741.60       1.1050560     0.014599572
      2744.34       1.1232214     0.014422025
      2747.09       1.1457312     0.014422214
      2749.84       1.1652586     0.014418256
      2752.59       1.1824166     0.014313922
      2755.34       1.2025921     0.014229609
      2758.09       1.2134943     0.014119851
      2760.85       1.2243431     0.014127750
      2763.61       1.2325321     0.014061714
      2766.38       1.2467863     0.013976053
      2769.14       1.2616480     0.013793234
      2771.91       1.2732269     0.013789192
      2774.69       1.2765737     0.013580835
      2777.46       1.2865040     0.013564291
      2780.24       1.2912403     0.013421878
      2783.02       1.2957106     0.013224154
      2785.80       1.2975962     0.013227816
      2788.59       1.2941019     0.013069963
      2791.38       1.2935038     0.013099076
      2794.17       1.2973561     0.012951888
      2796.96       1.3013311     0.012899402
      2799.76       1.2984162     0.012836451
      2802.56       1.2922540     0.012749325
      2805.36       1.2817425     0.012691316
      2808.17       1.2688463     0.012623565
      2810.98       1.2473363     0.012549591
      2813.79       1.2325437     0.012477313
      2816.60       1.2081315     0.012391401
      2819.42       1.1888294     0.012337645
      2822.24       1.1738219     0.012282154
      2825.06       1.1634208     0.012220863
      2827.88       1.1544550     0.012165561
      2830.71       1.1439765     0.012100398
      2833.54       1.1425332     0.011966340
      2836.38       1.1411352     0.011998709
      2839.21       1.1403367     0.011856043
      2842.05       1.1462176     0.011794600
      2844.90       1.1657885     0.011824197
      2847.74       1.1881679     0.011683261
      2850.59       1.2088732     0.011617474
      2853.44       1.2352894     0.011562126
      2856.29       1.2649387     0.011480471
      2859.15       1.2978706     0.011409456
      2862.01       1.3266649     0.011367152
      2864.87       1.3497797     0.011332733
      2867.74       1.3708633     0.011311904
      2870.60       1.3890053     0.011306025
      2873.47       1.4124483     0.011282297
      2876.35       1.4357951     0.011189012
      2879.22       1.4552405     0.011278128
      2882.10       1.4690355     0.011314523
      2884.99       1.4840319     0.011271711
      2887.87       1.5007717     0.011372297
      2890.76       1.4967531     0.011373889
      2893.65       1.4941412     0.011224333
      2896.54       1.4986815     0.011086882
      2899.44       1.4964347     0.011011124
      2902.34       1.4917800     0.010734544
      2905.24       1.4856444     0.010518387
      2908.15       1.4884721     0.010409096
      2911.06       1.4868683     0.010185801
      2913.97       1.4911916     0.010074887
      2916.88       1.4869501     0.010020376
      2919.80       1.4791196    0.0099981355
      2922.72       1.4782837    0.0099947867
      2925.64       1.4781301    0.0099919560
      2928.57       1.4818626    0.0099568462
      2931.50       1.4847894    0.0099043194
      2934.43       1.4857264    0.0098809156
      2937.36       1.4835615    0.0098066927
      2940.30       1.4810058    0.0098693309
      2943.24       1.4693813    0.0099126513
      2946.18       1.4536507    0.0099097192
      2949.13       1.4431655    0.0099925913
      2952.08       1.4323954     0.010143386
      2955.03       1.4208949     0.010148255
      2957.99       1.4125256     0.010221174
      2960.94       1.3976247     0.010274713
      2963.90       1.3842545     0.010299477
      2966.87       1.3678192     0.010304355
      2969.84       1.3524289     0.010309798
      2972.81       1.3308868     0.010316902
      2975.78       1.3126118     0.010232258
      2978.76       1.2976439     0.010281151
      2981.73       1.2790270     0.010245710
      2984.72       1.2659925     0.010201060
      2987.70       1.2426059     0.010079113
      2990.69       1.2125670     0.010021236
      2993.68       1.1850563     0.010039137
      2996.67       1.1571912    0.0099904337
      2999.67       1.1294457    0.0098836446
      3002.67       1.1112766    0.0098332571
      3005.67       1.1023150    0.0097838609
      3008.68       1.0922662    0.0098036562
      3011.69       1.0861128    0.0097037820
      3014.70       1.0853193    0.0096657154
      3017.71       1.0848961    0.0096297669
      3020.73       1.0878521    0.0095905996
      3023.75       1.1026676    0.0094831145
      3026.78       1.1181635    0.0094972049
      3029.80       1.1434569    0.0094429950
      3032.83       1.1685086    0.0093936574
      3035.87       1.1978585    0.0093617332
      3038.90       1.2260601    0.0092769668
      3041.94       1.2498811    0.0092601154
      3044.98       1.2744237    0.0093091354
      3048.03       1.2915428    0.0093072178
      3051.08       1.3167292    0.0093135161
      3054.13       1.3315634    0.0092576570
      3057.18       1.3433839    0.0092543938
      3060.24       1.3651452    0.0092383897
      3063.30       1.3818745    0.0092210638
      3066.36       1.3889973    0.0092693866
      3069.43       1.3965778    0.0092029237
      3072.50       1.4055407    0.0092600599
      3075.57       1.4096135    0.0092167952
      3078.65       1.4146939    0.0092063803
      3081.73       1.4217886    0.0092087140
      3084.81       1.4287354    0.0092188958
      3087.89       1.4343537    0.0091620100
      3090.98       1.4337151    0.0091570417
      3094.07       1.4367434    0.0092029308
      3097.17       1.4364694    0.0091639999
      3100.26       1.4360686    0.0091093790
      3103.36       1.4430116    0.0090518960
      3106.47       1.4397044    0.0089463037
      3109.58       1.4442322    0.0088839242
      3112.68       1.4440925    0.0088256687
      3115.80       1.4512791    0.0087690657
      3118.91       1.4597476    0.0087165677
      3122.03       1.4626282    0.0086753675
      3125.15       1.4707185    0.0086480487
      3128.28       1.4754446    0.0085770397
      3131.41       1.4821284    0.0085783430
      3134.54       1.4865185    0.0085455639
      3137.67       1.4911513    0.0085906749
      3140.81       1.4949400    0.0085706747
      3143.95       1.4987825    0.0085533851
      3147.10       1.4988015    0.0085444503
      3150.24       1.4980924    0.0085350197
      3153.39       1.4978916    0.0085146574
      3156.55       1.4975399    0.0084369987
      3159.70       1.4937815    0.0084072253
      3162.86       1.4859924    0.0083804248
      3166.03       1.4815199    0.0083472193
      3169.19       1.4776021    0.0082880174
      3172.36       1.4712235    0.0082594107
      3175.54       1.4667915    0.0082290940
      3178.71       1.4596602    0.0081108678
      3181.89       1.4546160    0.0080490077
      3185.07       1.4523358    0.0080353427
      3188.26       1.4445381    0.0080646384
      3191.45       1.4397657    0.0081070902
      3194.64       1.4329361    0.0081649040
      3197.83       1.4218148    0.0081750237
      3201.03       1.4093747    0.0082148255
      3204.23       1.4003137    0.0082380393
      3207.44       1.3938546    0.0082425917
      3210.64       1.3858421    0.0082397063
      3213.85       1.3746864    0.0082121760
      3217.07       1.3623828    0.0081722464
      3220.28       1.3521184    0.0081404788
      3223.51       1.3420380    0.0081174906
      3226.73       1.3350649    0.0081088407
      3229.96       1.3278618    0.0081084946
      3233.19       1.3198891    0.0081321008
      3236.42       1.3152382    0.0081185600
      3239.66       1.3124211    0.0080409072
      3242.90       1.3098707    0.0080277244
      3246.14       1.3095312    0.0080208132
      3249.39       1.3036184    0.0080287140
      3252.64       1.2995071    0.0080394318
      3255.89       1.2971598    0.0080653127
      3259.14       1.2967506    0.0081437150
      3262.40       1.2972551    0.0081373487
      3265.67       1.3097139    0.0081514818
      3268.93       1.3145039    0.0081769996
      3272.20       1.3169926    0.0082112232
      3275.47       1.3221018    0.0082420167
      3278.75       1.3240074    0.0082608118
      3282.03       1.3290767    0.0082217752
      3285.31       1.3286953    0.0082195250
      3288.60       1.3333193    0.0082080693
      3291.88       1.3390671    0.0081872169
      3295.18       1.3419740    0.0081604354
      3298.47       1.3456375    0.0081291441
      3301.77       1.3471566    0.0080950833
      3305.07       1.3492094    0.0080623565
      3308.38       1.3481439    0.0080228063
      3311.69       1.3443617    0.0079936536
      3315.00       1.3432989    0.0079775583
      3318.31       1.3487635    0.0079783238
      3321.63       1.3558479    0.0079977009
      3324.95       1.3620176    0.0079816597
      3328.28       1.3657428    0.0079846604
      3331.61       1.3679146    0.0079368429
      3334.94       1.3698891    0.0079365519
      3338.27       1.3758335    0.0079362864
      3341.61       1.3746044    0.0079374998
      3344.95       1.3798179    0.0079391178
      3348.30       1.3881463    0.0079846539
      3351.65       1.3930895    0.0079350109
      3355.00       1.3903176    0.0079339119
      3358.35       1.3933126    0.0079286210
      3361.71       1.3897523    0.0079208995
      3365.07       1.3876293    0.0079138176
      3368.44       1.3856014    0.0079050073
      3371.81       1.3743656    0.0078412205
      3375.18       1.3668361    0.0078250766
      3378.56       1.3679223    0.0078557600
      3381.94       1.3708747    0.0078398751
      3385.32       1.3704558    0.0077768837
      3388.70       1.3660807    0.0077670626
      3392.09       1.3625672    0.0077601729
      3395.48       1.3673526    0.0077551021
      3398.88       1.3699379    0.0077509179
      3402.28       1.3764892    0.0077502653
      3405.68       1.3820883    0.0077510667
      3409.09       1.3932168    0.0077537510
      3412.49       1.4062581    0.0077554839
      3415.91       1.4134012    0.0077148393
      3419.32       1.4202548    0.0077653789
      3422.74       1.4316988    0.0077601048
      3426.17       1.4387208    0.0077570073
      3429.59       1.4478309    0.0077098021
      3433.02       1.4490957    0.0077056641
      3436.45       1.4470884    0.0077021240
      3439.89       1.4514058    0.0076964806
      3443.33       1.4588860    0.0076921813
      3446.78       1.4577160    0.0076902530
      3450.22       1.4567755    0.0076871253
      3453.67       1.4524962    0.0076410591
      3457.13       1.4560523    0.0076828529
      3460.58       1.4575627    0.0076795185
      3464.04       1.4624748    0.0076299640
      3467.51       1.4654653    0.0076234733
      3470.98       1.4722736    0.0076637776
      3474.45       1.4817234    0.0076187079
      3477.92       1.4939173    0.0076197470
      3481.40       1.5055467    0.0076247996
      3484.88       1.5156080    0.0076752029
      3488.37       1.5233532    0.0076318478
      3491.86       1.5310956    0.0076381921
      3495.35       1.5323772    0.0076442343
      3498.84       1.5349082    0.0076536330
      3502.34       1.5378434    0.0076587683
      3505.84       1.5424155    0.0076161477
      3509.35       1.5407792    0.0076152982
      3512.86       1.5360913    0.0076567503
      3516.37       1.5374801    0.0076091241
      3519.89       1.5333615    0.0076062904
      3523.41       1.5281976    0.0076455043
      3526.93       1.5265654    0.0076005773
      3530.46       1.5308574    0.0076003814
      3533.99       1.5344140    0.0076022263
      3537.53       1.5373854    0.0076029389
      3541.06       1.5407015    0.0076073164
      3544.60       1.5422731    0.0075715201
      3548.15       1.5462040    0.0076261392
      3551.70       1.5494719    0.0075924046
      3555.25       1.5487967    0.0075996354
      3558.80       1.5528578    0.0076495412
      3562.36       1.5534336    0.0076087966
      3565.92       1.5537552    0.0076137167
      3569.49       1.5534852    0.0076224784
      3573.06       1.5534384    0.0076215445
      3576.64       1.5474522    0.0076653684
      3580.21       1.5436523    0.0076182571
      3583.79       1.5394426    0.0076077759
      3587.38       1.5349356    0.0075881315
      3590.96       1.5317533    0.0075700861
      3594.55       1.5362067    0.0075085760
      3598.15       1.5350766    0.0075332928
      3601.75       1.5382780    0.0074809625
      3605.35       1.5380407    0.0074765437
      3608.96       1.5381582    0.0074769320
      3612.56       1.5385831    0.0074882338
      3616.18       1.5424363    0.0075088386
      3619.79       1.5417298    0.0075227334
      3623.41       1.5407453    0.0074921407
      3627.04       1.5372655    0.0075387743
      3630.66       1.5284818    0.0074927157
      3634.29       1.5229815    0.0075253593
      3637.93       1.5216388    0.0074672493
      3641.57       1.5169534    0.0074941360
      3645.21       1.5060765    0.0074398181
      3648.86       1.4958892    0.0074299481
      3652.50       1.4861230    0.0074183280
      3656.16       1.4787362    0.0074089596
      3659.81       1.4703539    0.0074098545
      3663.47       1.4630073    0.0074068297
      3667.14       1.4577859    0.0074030788
      3670.80       1.4518197    0.0073950520
      3674.48       1.4445225    0.0073898376
      3678.15       1.4404917    0.0073818703
      3681.83       1.4348262    0.0073840559
      3685.51       1.4320757    0.0073435693
      3689.20       1.4238212    0.0073851157
      3692.88       1.4149571    0.0073435859
      3696.58       1.4076955    0.0073839419
      3700.27       1.3967070    0.0073446826
      3703.98       1.3867631    0.0073445046
      3707.68       1.3795897    0.0073423658
      3711.39       1.3659955    0.0073429039
      3715.10       1.3525824    0.0073406870
      3718.81       1.3433371    0.0073368996
      3722.53       1.3403792    0.0072935739
      3726.26       1.3365388    0.0073321860
      3729.98       1.3450477    0.0072988371
      3733.71       1.3489324    0.0073460771
      3737.45       1.3527933    0.0073091180
      3741.18       1.3605549    0.0073135847
      3744.93       1.3722446    0.0073180929
      3748.67       1.3869912    0.0073253431
      3752.42       1.3937935    0.0072948608
      3756.17       1.4010396    0.0073392269
      3759.93       1.4030553    0.0073457320
      3763.69       1.4025319    0.0073105083
      3767.45       1.4033872    0.0073527886
      3771.22       1.3930098    0.0073186303
      3774.99       1.3842232    0.0073252638
      3778.77       1.3728849    0.0073309114
      3782.54       1.3607597    0.0073364453
      3786.33       1.3489197    0.0073413529
      3790.11       1.3382750    0.0073436443
      3793.90       1.3282009    0.0073507756
      3797.70       1.3215070    0.0073658383
      3801.50       1.3217292    0.0073353733
      3805.30       1.3125837    0.0073860272
      3809.10       1.3109516    0.0073538947
      3812.91       1.3084404    0.0073777149
      3816.73       1.3071117    0.0074115636
      3820.54       1.3107095    0.0073509667
      3824.36       1.3108133    0.0073607345
      3828.19       1.3151835    0.0073865270
      3832.02       1.3229496    0.0074126087
      3835.85       1.3305500    0.0074546952
      3839.68       1.3435825    0.0075032049
      3843.52       1.3545024    0.0075015644
      3847.37       1.3639144    0.0075377657
      3851.22       1.3696629    0.0076040959
      3855.07       1.3746078    0.0075779241
      3858.92       1.3729929    0.0075746673
      3862.78       1.3761525    0.0075523624
      3866.64       1.3796994    0.0075372720
      3870.51       1.3829140    0.0075216176
      3874.38       1.3849025    0.0075004796
      3878.26       1.3819456    0.0074955428
      3882.13       1.3868324    0.0074680323
      3886.02       1.3843236    0.0075057419
      3889.90       1.3920289    0.0075433458
      3893.79       1.4012680    0.0075021629
      3897.69       1.4072706    0.0075204313
      3901.59       1.4125328    0.0075452679
      3905.49       1.4219014    0.0075700122
      3909.39       1.4283697    0.0075534599
      3913.30       1.4402642    0.0076219714
      3917.22       1.4471388    0.0076559000
      3921.13       1.4500889    0.0076887514
      3925.06       1.4554067    0.0076798771
      3928.98       1.4591540    0.0077162201
      3932.91       1.4590318    0.0077421784
      3936.84       1.4638536    0.0077623593
      3940.78       1.4637691    0.0077893038
      3944.72       1.4594480    0.0077719265
      3948.67       1.4546893    0.0078294983
      3952.61       1.4499971    0.0078464209
      3956.57       1.4474132    0.0078608814
      3960.52       1.4364303    0.0078733862
      3964.48       1.4245210    0.0078452958
      3968.45       1.4090815    0.0078614369
      3972.42       1.3941933    0.0078761377
      3976.39       1.3760543    0.0078911615
      3980.37       1.3606878    0.0079027141
      3984.35       1.3504685    0.0079164506
      3988.33       1.3434832    0.0079335501
      3992.32       1.3319158    0.0079044678
      3996.31       1.3260776    0.0079198376
      4000.31       1.3203322    0.0079360776
      4004.31       1.3197906    0.0079569100
      4008.31       1.3219883    0.0079727954
      4012.32       1.3339938    0.0079915783
      4016.33       1.3396738    0.0080171088
      4020.35       1.3470413    0.0080526614
      4024.37       1.3540460    0.0080462375
      4028.40       1.3624400    0.0080810381
      4032.42       1.3669905    0.0081192765
      4036.46       1.3712569    0.0081586479
      4040.50       1.3686055    0.0081970673
      4044.54       1.3692551    0.0082728963
      4048.58       1.3749889    0.0082780371
      4052.63       1.3744259    0.0082973028
      4056.68       1.3761568    0.0083243839
      4060.74       1.3828128    0.0083592851
      4064.80       1.3831540    0.0084010307
      4068.86       1.3839766    0.0084403659
      4072.93       1.3811824    0.0084767838
      4077.01       1.3859560    0.0085164997
      4081.08       1.3931905    0.0085616332
      4085.17       1.3993229    0.0086029162
      4089.25       1.4067479    0.0087330246
      4093.34       1.4100722    0.0088068302
      4097.43       1.4144926    0.0087388123
      4101.53       1.4182817    0.0087754297
      4105.63       1.4265673    0.0089021475
      4109.74       1.4303077    0.0090980166
      4113.85       1.4309596    0.0093179074
      4117.96       1.4304930    0.0095268401
      4122.08       1.4394504    0.0097220948
      4126.20       1.4465645    0.0098585704
      4130.33       1.4458756    0.0099663450
      4134.46       1.4489664     0.010003624
      4138.59       1.4474638    0.0099592560
      4142.73       1.4432667    0.0098349360
      4146.88       1.4421855    0.0096392593
      4151.02       1.4340218    0.0093888183
      4155.18       1.4227668    0.0091284798
      4159.33       1.4158845    0.0088823414
      4163.49       1.4048118    0.0086710526
      4167.65       1.3933424    0.0085491779
      4171.82       1.3787293    0.0083472866
      4175.99       1.3685456    0.0080887794
      4180.17       1.3547469    0.0078813463
      4184.35       1.3405299    0.0077060882
      4188.54       1.3295976    0.0075638603
      4192.72       1.3225013    0.0074346470
      4196.92       1.3207238    0.0072932736
      4201.11       1.3141659    0.0071531664
      4205.31       1.3008498    0.0070351387
      4209.52       1.2886561    0.0069116415
      4213.73       1.2794559    0.0067946073
      4217.94       1.2705218    0.0066823105
      4222.16       1.2601631    0.0065755808
      4226.38       1.2538561    0.0064684039
      4230.61       1.2469542    0.0063645494
      4234.84       1.2386183    0.0062642995
      4239.08       1.2335403    0.0061301872
      4243.32       1.2227769    0.0060412378
      4247.56       1.2174058    0.0059586435
      4251.81       1.2082251    0.0058850236
      4256.06       1.2006445    0.0058162264
      4260.32       1.1936013    0.0057520479
      4264.58       1.1916279    0.0056895291
      4268.84       1.1905137    0.0056342364
      4273.11       1.1911365    0.0055859583
      4277.38       1.1872931    0.0055359782
      4281.66       1.1797825    0.0054915303
      4285.94       1.1722388    0.0054489785
      4290.23       1.1666420    0.0054051644
      4294.52       1.1582733    0.0053631293
      4298.81       1.1467826    0.0052955324
      4303.11       1.1329307    0.0052644977
      4307.42       1.1181924    0.0052242612
      4311.72       1.1036443    0.0051801316
      4316.04       1.0917576    0.0051443101
      4320.35       1.0825124    0.0051487674
      4324.67       1.0780085    0.0051276546
      4329.00       1.0753877    0.0050932686
      4333.33       1.0723606    0.0050505863
      4337.66       1.0802589    0.0050624426
      4342.00       1.0928997    0.0051061222
      4346.34       1.1063695    0.0051688944
      4350.69       1.1184940    0.0052444230
      4355.04       1.1370679    0.0053144908
      4359.39       1.1575444    0.0053603864
      4363.75       1.1801089    0.0053641784
      4368.12       1.1982059    0.0053678414
      4372.48       1.2112041    0.0053363873
      4376.86       1.2214902    0.0052793555
      4381.23       1.2306695    0.0052166923
      4385.61       1.2350445    0.0051358106
      4390.00       1.2391169    0.0050577404
      4394.39       1.2460479    0.0049903647
      4398.79       1.2537249    0.0049549332
      4403.18       1.2616849    0.0049740476
      4407.59       1.2742266    0.0049551676
      4412.00       1.2783904    0.0049694905
      4416.41       1.2861220    0.0049339604
      4420.82       1.2934578    0.0048782263
      4425.25       1.3004893    0.0048720070
      4429.67       1.3019215    0.0048726266
      4434.10       1.3096008    0.0049191141
      4438.54       1.3228348    0.0049647649
      4442.97       1.3285333    0.0050025121
      4447.42       1.3301292    0.0050177712
      4451.86       1.3362616    0.0050666055
      4456.32       1.3383471    0.0050670110
      4460.77       1.3373037    0.0050439709
      4465.24       1.3419056    0.0049769964
      4469.70       1.3414183    0.0049297133
      4474.17       1.3390549    0.0048707315
      4478.65       1.3401798    0.0048392847
      4483.12       1.3392457    0.0048408905
      4487.61       1.3402716    0.0047934294
      4492.09       1.3449699    0.0047458139
      4496.59       1.3410920    0.0047756935
      4501.08       1.3445088    0.0048212976
      4505.58       1.3435109    0.0048151026
      4510.09       1.3427153    0.0048557588
      4514.60       1.3400348    0.0048612440
      4519.12       1.3459233    0.0049100668
      4523.63       1.3456800    0.0049148944
      4528.16       1.3413124    0.0048727334
      4532.69       1.3409049    0.0048404680
      4537.22       1.3376100    0.0047983119
      4541.76       1.3326327    0.0047408108
      4546.30       1.3274334    0.0046812767
      4550.85       1.3266407    0.0046249755
      4555.40       1.3182981    0.0045691190
      4559.95       1.3123598    0.0045290675
      4564.51       1.3078581    0.0045185404
      4569.08       1.3004432    0.0045277406
      4573.65       1.2960484    0.0045378510
      4578.22       1.2949136    0.0044571457
      4582.80       1.2882159    0.0044336122
      4587.38       1.2878187    0.0044163837
      4591.97       1.2812865    0.0044140557
      4596.56       1.2756059    0.0044039402
      4601.16       1.2720264    0.0043924735
      4605.76       1.2705302    0.0043944363
      4610.37       1.2637627    0.0044000978
      4614.98       1.2613968    0.0043824768
      4619.59       1.2579716    0.0044561371
      4624.21       1.2535937    0.0045199138
      4628.84       1.2550501    0.0043837095
      4633.47       1.2513099    0.0043805518
      4638.10       1.2459092    0.0044027483
      4642.74       1.2394801    0.0044601712
      4647.38       1.2354006    0.0045188889
      4652.03       1.2307217    0.0045652131
      4656.68       1.2232659    0.0046049486
      4661.34       1.2147235    0.0046439234
      4666.00       1.2112871    0.0046771058
      4670.67       1.2011319    0.0046122317
      4675.33       1.1898538    0.0044961213
      4680.01       1.1789104    0.0043847529
      4684.69       1.1673420    0.0043186116
      4689.38       1.1632491    0.0042289968
      4694.07       1.1546675    0.0041784184
      4698.76       1.1483560    0.0041385310
      4703.46       1.1469411    0.0041283532
      4708.16       1.1408023    0.0041870534
      4712.87       1.1381505    0.0041667620
      4717.58       1.1341108    0.0040374373
      4722.30       1.1300195    0.0039902171
      4727.03       1.1276812    0.0039259025
      4731.75       1.1277806    0.0039199950
      4736.48       1.1241248    0.0038436656
      4741.22       1.1230166    0.0037740116
      4745.96       1.1201352    0.0037245445
      4750.71       1.1186310    0.0037265739
      4755.46       1.1152034    0.0038395474
      4760.22       1.1121833    0.0038387994
      4764.97       1.1105373    0.0038329960
      4769.74       1.1106629    0.0038764365
      4774.51       1.1078968    0.0039528109
      4779.29       1.1109771    0.0039977940
      4784.07       1.1090741    0.0040750091
      4788.85       1.1119963    0.0041032359
      4793.64       1.1110476    0.0041509825
      4798.43       1.1090654    0.0041168998
      4803.23       1.1108193    0.0040604564
      4808.03       1.1093386    0.0040137948
      4812.84       1.1077003    0.0039552495
      4817.66       1.1032955    0.0039068607
      4822.48       1.0987332    0.0038864146
      4827.30       1.0898062    0.0038240108
      4832.12       1.0848666    0.0037804515
      4836.96       1.0795341    0.0037551292
      4841.79       1.0743454    0.0037894156
      4846.63       1.0679687    0.0038478448
      4851.48       1.0629252    0.0037789673
      4856.33       1.0599429    0.0037444034
      4861.19       1.0567333    0.0037535288
      4866.05       1.0511340    0.0037432113
      4870.92       1.0512594    0.0037655818
      4875.79       1.0504007    0.0037761426
      4880.66       1.0507669    0.0037623551
      4885.55       1.0518435    0.0037787651
      4890.43       1.0522286    0.0037370770
      4895.32       1.0537974    0.0037105503
      4900.22       1.0556023    0.0036982117
      4905.12       1.0549758    0.0036351317
      4910.02       1.0538869    0.0035817536
      4914.94       1.0526101    0.0035755304
      4919.85       1.0536602    0.0035303041
      4924.77       1.0524304    0.0034320771
      4929.70       1.0509931    0.0033929636
      4934.62       1.0469505    0.0034257256
      4939.56       1.0429921    0.0034495687
      4944.50       1.0420983    0.0035177854
      4949.44       1.0430473    0.0035026352
      4954.39       1.0418549    0.0034855405
      4959.35       1.0418699    0.0035099320
      4964.31       1.0431063    0.0036103110
      4969.27       1.0457533    0.0036008070
      4974.24       1.0515337    0.0035870338
      4979.22       1.0520777    0.0036119928
      4984.20       1.0510005    0.0036387359
      4989.18       1.0560620    0.0036065910
      4994.17       1.0601972    0.0035859625
      4999.16       1.0611990    0.0035833123
      5004.16       1.0638277    0.0036009672
      5009.17       1.0655025    0.0036666804
      5014.18       1.0696133    0.0036648062
      5019.19       1.0687546    0.0035625630
      5024.21       1.0710268    0.0035175881
      5029.23       1.0639849    0.0034579996
      5034.26       1.0622161    0.0034535100
      5039.30       1.0578833    0.0034951606
      5044.34       1.0556460    0.0034112263
      5049.39       1.0580693    0.0033455645
      5054.43       1.0584175    0.0033541948
      5059.49       1.0570608    0.0034137041
      5064.55       1.0581978    0.0033908592
      5069.61       1.0589998    0.0033981415
      5074.68       1.0591108    0.0034581797
      5079.76       1.0646867    0.0035434643
      5084.84       1.0681794    0.0034717864
      5089.92       1.0721603    0.0034673468
      5095.01       1.0748692    0.0034750030
      5100.11       1.0801241    0.0034677872
      5105.21       1.0844882    0.0034524150
      5110.31       1.0889545    0.0034380413
      5115.42       1.0913561    0.0033801704
      5120.54       1.0926211    0.0033371395
      5125.66       1.0923974    0.0032889045
      5130.79       1.0905060    0.0033648678
      5135.92       1.0916635    0.0032717454
      5141.05       1.0957356    0.0032139900
      5146.20       1.0989642    0.0031905606
      5151.34       1.0983960    0.0031909695
      5156.49       1.0980921    0.0031986164
      5161.65       1.0981369    0.0032074521
      5166.81       1.0969601    0.0032145788
      5171.98       1.0956569    0.0032020751
      5177.15       1.0971806    0.0031854837
      5182.33       1.0979501    0.0031443704
      5187.51       1.0984892    0.0031344988
      5192.70       1.0973984    0.0031031416
      5197.89       1.0976377    0.0030771681
      5203.09       1.0952748    0.0030576747
      5208.29       1.0965279    0.0029874072
      5213.50       1.0968754    0.0029544461
      5218.72       1.0949471    0.0029570129
      5223.93       1.0909436    0.0029751314
      5229.16       1.0833950    0.0030410140
      5234.39       1.0779315    0.0030063150
      5239.62       1.0718547    0.0030219577
      5244.86       1.0651930    0.0030227580
      5250.11       1.0587128    0.0029948040
      5255.36       1.0514771    0.0029765443
      5260.61       1.0427987    0.0029544394
      5265.87       1.0384907    0.0029284814
      5271.14       1.0336981    0.0028991749
      5276.41       1.0326477    0.0028651056
      5281.69       1.0310857    0.0028275774
      5286.97       1.0275934    0.0028100337
      5292.26       1.0260978    0.0028039363
      5297.55       1.0264010    0.0028221758
      5302.85       1.0298370    0.0028473528
      5308.15       1.0275924    0.0028093143
      5313.46       1.0256573    0.0028287408
      5318.77       1.0212191    0.0028033428
      5324.09       1.0155552    0.0027643384
      5329.42       1.0099440    0.0027685704
      5334.75       1.0044232    0.0028036291
      5340.08      0.99887766    0.0028440866
      5345.42      0.99371070    0.0029254560
      5350.77      0.98515998    0.0029036673
      5356.12      0.97602057    0.0029487744
      5361.48      0.97193123    0.0030102649
      5366.83      0.96643947    0.0031177722
      5372.20      0.95644925    0.0031722521
      5377.58      0.95437562    0.0032318903
      5382.95      0.94817632    0.0032857297
      5388.34      0.94075000    0.0033160366
      5393.72      0.93591575    0.0033372502
      5399.12      0.93166623    0.0033042688
      5404.52      0.93122302    0.0033040988
      5409.92      0.92539649    0.0033075911
      5415.33      0.92232925    0.0033559461
      5420.75      0.91854406    0.0033756550
      5426.17      0.91312848    0.0033909047
      5431.60      0.90603544    0.0034123601
      5437.03      0.89932342    0.0034687085
      5442.47      0.89093827    0.0035410012
      5447.91      0.88597345    0.0035624959
      5453.36      0.87910398    0.0034997838
      5458.81      0.87715281    0.0034917904
      5464.27      0.87377628    0.0034475843
      5469.73      0.86995312    0.0033997074
      5475.20      0.86956744    0.0033092854
      5480.68      0.86826191    0.0032418906
      5486.16      0.86640639    0.0031610952
      5491.65      0.86511084    0.0030672290
      5497.14      0.86079355    0.0029988953
      5502.64      0.85831572    0.0029445359
      5508.14      0.85541625    0.0029008379
      5513.65      0.85137395    0.0028433597
      5519.16      0.84648268    0.0028463522
      5524.68      0.84154153    0.0028609363
      5530.20      0.83488479    0.0028589918
      5535.73      0.82642754    0.0028616394
      5541.27      0.82183272    0.0028383579
      5546.81      0.81301910    0.0028184508
      5552.36      0.80583975    0.0028383385
      5557.91      0.79807958    0.0028407403
      5563.47      0.79122049    0.0028268300
      5569.04      0.78634739    0.0028080151
      5574.60      0.78423954    0.0028450576
      5580.18      0.78039365    0.0029207025
      5585.76      0.77303025    0.0029595874
      5591.35      0.77060452    0.0029057552
      5596.94      0.76508374    0.0029266654
      5602.53      0.75978727    0.0029402697
      5608.14      0.75590342    0.0030141388
      5613.75      0.75266019    0.0031508837
      5619.36      0.75067743    0.0033323510
      5624.98      0.74879407    0.0036295992
      5630.60      0.74452428    0.0037650393
      5636.23      0.74305730    0.0038863566
      5641.87      0.73865438    0.0039584533
      5647.51      0.74129359    0.0038836028
      5653.16      0.73625454    0.0037607703
      5658.82      0.73414384    0.0036459564
      5664.47      0.73180707    0.0034187243
      5670.14      0.73146144    0.0031610987
      5675.81      0.72914283    0.0030011045
      5681.48      0.72835026    0.0029736020
      5687.17      0.72750857    0.0030078964
      5692.85      0.72556927    0.0029426796
      5698.55      0.72064735    0.0029136357
      5704.25      0.71632608    0.0029883056
      5709.95      0.71073980    0.0029809407
      5715.66      0.70748513    0.0030140287
      5721.38      0.70251896    0.0031049311
      5727.10      0.69998036    0.0030687673
      5732.83      0.69609000    0.0030619812
      5738.56      0.69272491    0.0030832921
      5744.30      0.69271062    0.0030782757
      5750.04      0.69171079    0.0031162130
      5755.79      0.69362669    0.0031499298
      5761.55      0.69199223    0.0032302833
      5767.31      0.69057638    0.0033077657
      5773.08      0.69100680    0.0033015644
      5778.85      0.69378968    0.0032512813
      5784.63      0.69449197    0.0032435327
      5790.41      0.69813547    0.0032613860
      5796.21      0.70145877    0.0032984170
      5802.00      0.70234783    0.0032895365
      5807.81      0.70170137    0.0032764961
      5813.61      0.69880507    0.0032628082
      5819.43      0.69772381    0.0032343134
      5825.25      0.69553062    0.0032500573
      5831.07      0.69209542    0.0033004628
      5836.90      0.69368307    0.0032265634
      5842.74      0.69196161    0.0032736009
      5848.58      0.68992128    0.0032501982
      5854.43      0.68410932    0.0031738647
      5860.29      0.67919431    0.0031022850
      5866.15      0.67464957    0.0030879297
      5872.01      0.66687637    0.0030518867
      5877.89      0.66057829    0.0031318782
      5883.76      0.65379184    0.0031023335
      5889.65      0.64970046    0.0031145081
      5895.54      0.64020766    0.0030926466
      5901.43      0.63486354    0.0030866842
      5907.34      0.63095832    0.0031137224
      5913.24      0.62561394    0.0031401274
      5919.16      0.61953475    0.0031514486
      5925.08      0.61448000    0.0030467312
      5931.00      0.61188751    0.0029478858
      5936.93      0.61104073    0.0028625476
      5942.87      0.61400184    0.0028127422
      5948.81      0.61789685    0.0027837574
      5954.76      0.62398451    0.0027779465
      5960.72      0.62947378    0.0026908564
      5966.68      0.63600444    0.0026576880
      5972.64      0.64030093    0.0026212361
      5978.62      0.64608932    0.0026359764
      5984.60      0.64919182    0.0026356245
      5990.58      0.65466977    0.0027204579
      5996.57      0.65811139    0.0026826645
      6002.57      0.66197448    0.0026993729
      6008.57      0.65846303    0.0026756694
      6014.58      0.65954563    0.0026215815
      6020.60      0.65671466    0.0025995865
      6026.62      0.65181293    0.0025452002
      6032.65      0.64924325    0.0024881459
      6038.68      0.64521240    0.0024445845
      6044.72      0.64233008    0.0024097678
      6050.76      0.63903706    0.0023549365
      6056.81      0.63559104    0.0023358775
      6062.87      0.62940778    0.0023716857
      6068.93      0.62392532    0.0023574705
      6075.00      0.61885504    0.0024165252
      6081.08      0.61339125    0.0024298595
      6087.16      0.60492713    0.0024476886
      6093.25      0.59854439    0.0024326301
      6099.34      0.58966920    0.0024346111
      6105.44      0.58344351    0.0024790803
      6111.54      0.57627088    0.0025162134
      6117.66      0.56844262    0.0025856628
      6123.78      0.56160019    0.0026573410
      6129.90      0.56174088    0.0026778058
      6136.03      0.55861652    0.0026910057
      6142.17      0.55719356    0.0026952699
      6148.31      0.55965050    0.0027287536
      6154.46      0.56521434    0.0027742378
      6160.61      0.57125445    0.0028406919
      6166.77      0.57519536    0.0028491001
      6172.94      0.58304539    0.0027888759
      6179.11      0.58959554    0.0027456652
      6185.29      0.59968290    0.0027998350
      6191.48      0.61393858    0.0028504121
      6197.67      0.62036280    0.0029262424
      6203.87      0.62572775    0.0029862381
      6210.07      0.63173155    0.0030641472
      6216.28      0.63603173    0.0030428827
      6222.50      0.63823088    0.0030249274
      6228.72      0.64338646    0.0030443021
      6234.95      0.64803555    0.0030843537
      6241.19      0.65523806    0.0031359266
      6247.42      0.65587664    0.0029889022
      6253.67      0.65442062    0.0028851145
      6259.93      0.65668915    0.0028090642
      6266.19      0.65782367    0.0027597483
      6272.46      0.65868309    0.0027009786
      6278.73      0.65844364    0.0026742607
      6285.01      0.65738051    0.0026347014
      6291.29      0.65658931    0.0025616982
      6297.58      0.65783629    0.0025222743
      6303.88      0.65936723    0.0025050824
      6310.19      0.66118625    0.0024329667
      6316.50      0.66176690    0.0024150640
      6322.81      0.66431141    0.0024200921
      6329.14      0.66523515    0.0024595170
      6335.47      0.66683204    0.0023904778
      6341.80      0.66580902    0.0023495183
      6348.14      0.66913871    0.0023788327
      6354.49      0.66954234    0.0024253109
      6360.85      0.67044220    0.0024767797
      6367.21      0.66869963    0.0025066606
      6373.57      0.66887741    0.0025904086
      6379.95      0.66920792    0.0027141468
      6386.33      0.66623932    0.0028480389
      6392.72      0.66267595    0.0029708325
      6399.11      0.65923175    0.0029887479
      6405.51      0.65483659    0.0030053221
      6411.92      0.65368077    0.0029809716
      6418.32      0.65413908    0.0028957043
      6424.74      0.65329290    0.0028422848
      6431.17      0.65322109    0.0027859555
      6437.60      0.65257489    0.0026580322
      6444.04      0.64929141    0.0025370311
      6450.48      0.64514630    0.0025130884
      6456.94      0.64260994    0.0024705031
      6463.39      0.64192551    0.0025155945
      6469.85      0.64100119    0.0025725342
      6476.33      0.64106870    0.0026744252
      6482.80      0.64110856    0.0027506217
      6489.28      0.64142225    0.0027978965
      6495.77      0.64168227    0.0029179131
      6502.27      0.63964332    0.0030437484
      6508.77      0.63608909    0.0031169813
      6515.28      0.63757395    0.0032014754
      6521.80      0.63646511    0.0032819313
      6528.32      0.63433795    0.0033176591
      6534.85      0.63718833    0.0033090932
      6541.38      0.63830476    0.0033102604
      6547.92      0.63881494    0.0033730727
      6554.47      0.63405031    0.0034011021
      6561.03      0.63422041    0.0033116231
      6567.59      0.62961046    0.0031818509
      6574.16      0.62665427    0.0031320791
      6580.73      0.62486171    0.0030600999
      6587.31      0.62305913    0.0031315741
      6593.90      0.62377702    0.0031424602
      6600.50      0.62383119    0.0032331561
      6607.10      0.62280988    0.0030933909
      6613.70      0.61665305    0.0029889470
      6620.32      0.61259901    0.0030001664
      6626.94      0.61040172    0.0029757611
      6633.57      0.60736818    0.0029285972
      6640.20      0.60632540    0.0028675178
      6646.84      0.60105178    0.0027804287
      6653.49      0.59751938    0.0026767560
      6660.14      0.59700326    0.0026018261
      6666.80      0.59367143    0.0025445678
      6673.47      0.58838550    0.0025041467
      6680.14      0.58332405    0.0024580209
      6686.82      0.58028909    0.0023819476
      6693.51      0.57566721    0.0023019804
      6700.20      0.57154325    0.0022860074
      6706.90      0.56931050    0.0022222951
      6713.61      0.56698513    0.0022130933
      6720.32      0.56624929    0.0022477390
      6727.05      0.56209661    0.0022186409
      6733.77      0.55795637    0.0021590047
      6740.51      0.55156457    0.0021155970
      6747.25      0.54657422    0.0021022818
      6754.00      0.54222320    0.0020957766
      6760.75      0.53562894    0.0021039395
      6767.51      0.52983822    0.0020908912
      6774.28      0.52441142    0.0020550899
      6781.05      0.51912203    0.0020357755
      6787.84      0.51413863    0.0020283290
      6794.62      0.51100557    0.0020219092
      6801.42      0.50724071    0.0020335510
      6808.22      0.50781127    0.0020333311
      6815.03      0.50685679    0.0020193499
      6821.85      0.50759375    0.0020204935
      6828.67      0.50936385    0.0020558889
      6835.50      0.51317635    0.0020953037
      6842.33      0.51740797    0.0021125863
      6849.17      0.52091389    0.0021013359
      6856.02      0.52087928    0.0020987319
      6862.88      0.52375088    0.0021564715
      6869.74      0.52583544    0.0022371342
      6876.61      0.52688463    0.0023707898
      6883.49      0.52683927    0.0025340007
      6890.37      0.52566067    0.0026935575
      6897.27      0.52548437    0.0029189290
      6904.16      0.52485284    0.0031496183
      6911.07      0.52112526    0.0033263557
      6917.98      0.51761925    0.0034647295
      6924.89      0.52007489    0.0035745943
      6931.82      0.51833430    0.0036470886
      6938.75      0.51945019    0.0035508531
      6945.69      0.51267568    0.0033621612
      6952.64      0.51123631    0.0033707926
      6959.59      0.50821827    0.0034832266
      6966.55      0.50456109    0.0035608792
      6973.52      0.50151096    0.0035742159
      6980.49      0.49879290    0.0035921793
      6987.47      0.49710684    0.0036642607
      6994.46      0.50038234    0.0036512095
      7001.46      0.50016856    0.0037120562
      7008.46      0.50126917    0.0038905621
      7015.46      0.50604405    0.0038338246
      7022.48      0.51034373    0.0036826460
      7029.51      0.51528037    0.0035797635
      7036.53      0.51909405    0.0034879681
      7043.57      0.52289086    0.0034498609
      7050.62      0.52540022    0.0033925864
      7057.66      0.53265164    0.0034478479
      7064.72      0.53762917    0.0033603821
      7071.79      0.54068282    0.0032646202
      7078.86      0.54304818    0.0031962256
      7085.94      0.54905943    0.0032085948
      7093.03      0.55278910    0.0031433450
      7100.12      0.55459441    0.0030863240
      7107.22      0.55728528    0.0030555477
      7114.33      0.55546477    0.0029807102
      7121.44      0.55801604    0.0029799874
      7128.56      0.55708047    0.0029658623
      7135.69      0.55540807    0.0029675302
      7142.83      0.55088205    0.0030165383
      7149.97      0.55060847    0.0031143191
      7157.12      0.54805098    0.0031996291
      7164.28      0.54574014    0.0032918379
      7171.44      0.54231866    0.0033297897
      7178.62      0.54051069    0.0033508607
      7185.80      0.53526923    0.0033650544
      7192.98      0.52918596    0.0033327287
      7200.17      0.52221587    0.0033767541
      7207.38      0.51719401    0.0033995689
      7214.58      0.51837026    0.0033525742
      7221.80      0.51588182    0.0033684828
      7229.02      0.51404361    0.0033667218
      7236.25      0.51161698    0.0033997936
      7243.49      0.51185620    0.0033740627
      7250.73      0.51076152    0.0034278134
      7257.98      0.50720447    0.0034667370
      7265.24      0.50517915    0.0035501773
      7272.51      0.50134671    0.0036596173
      7279.78      0.49674261    0.0038151050
      7287.06      0.49229566    0.0038613179
      7294.35      0.48661271    0.0039693209
      7301.64      0.48156292    0.0022759885
      7308.94      0.47599555    0.0023272668
      7316.25      0.47096224    0.0023454089
      7323.57      0.46459951    0.0024306280
      7330.89      0.45908403    0.0024683899
      7338.22      0.45279168    0.0025041649
      7345.56      0.44706230    0.0025382888
      7352.91      0.44106397    0.0025737751
      7360.26      0.43403438    0.0026260878
      7367.62      0.42984743    0.0026848389
      7374.99      0.42441441    0.0027208568
      7382.37      0.41838121    0.0027603458
      7389.75      0.41197524    0.0028140062
      7397.14      0.40447795    0.0028875448
      7404.53      0.39898544    0.0029638167
      7411.94      0.39210594    0.0030458463
      7419.35      0.38797805    0.0031270077
      7426.77      0.38241731    0.0031978853
      7434.20      0.37681801    0.0033039805
      7441.63      0.37190622    0.0034301091
      7449.07      0.36700494    0.0035878738
      7456.52      0.36053796    0.0037500982
      7463.98      0.35470300    0.0038958217
      7471.45      0.34955165    0.0040059003
      7478.92      0.34393994    0.0041835033
      7486.40      0.33961385    0.0042999531
      7493.88      0.33449585    0.0045047326
      7501.38      0.32964871    0.0046874187
      7508.88      0.32494262    0.0049259764
      7516.39      0.32110530    0.0051596706
      7523.91      0.31760173    0.0054423969
      7531.43      0.31481216    0.0057927377
