# starting wavelength =        2113.2849
# ending wavelength =        6847.9033
# O2 telluric scale =        0
# O2 telluric shift =        0
# H2O telluric scale =        0
# H2O telluric shift =        0
      2114.17      0.18986249     0.086442019
      2116.28      0.18186300     0.083773406
      2118.40      0.19172228     0.081192416
      2120.52      0.17738498     0.078926794
      2122.64      0.16465556     0.076777905
      2124.76      0.14202634     0.074180376
      2126.88      0.13246851     0.072335821
      2129.01      0.14017133     0.070638621
      2131.14      0.14745105     0.069122491
      2133.27      0.13565444     0.067724498
      2135.40      0.13806619     0.066450203
      2137.54      0.13628355     0.065260717
      2139.68      0.15943586     0.063926249
      2141.82      0.19394797     0.062570527
      2143.96      0.18969594     0.060814683
      2146.10      0.18407483     0.059522018
      2148.25      0.19116393     0.058250679
      2150.40      0.19907911     0.057142209
      2152.55      0.21848470     0.056047854
      2154.70      0.21511236     0.055005239
      2156.86      0.23456496     0.054038474
      2159.01      0.23486388     0.053061524
      2161.17      0.24480030     0.051648179
      2163.33      0.24819361     0.050579556
      2165.50      0.25533434     0.049463928
      2167.66      0.25215920     0.048501921
      2169.83      0.24191429     0.047593475
      2172.00      0.23000188     0.046810887
      2174.17      0.24867358     0.046159243
      2176.35      0.24493048     0.045115409
      2178.52      0.24718388     0.044387141
      2180.70      0.24033929     0.043755339
      2182.88      0.22278662     0.043062085
      2185.07      0.20966351     0.042403141
      2187.25      0.22978471     0.041865914
      2189.44      0.22139239     0.041272769
      2191.63      0.20444817     0.040479691
      2193.82      0.19679507     0.039873067
      2196.01      0.20940630     0.039245928
      2198.21      0.20604209     0.038708000
      2200.41      0.19669194     0.038053001
      2202.61      0.19752485     0.037477756
      2204.81      0.19622760     0.036433384
      2207.02      0.21214233     0.035716558
      2209.22      0.20742646     0.035166796
      2211.43      0.21545093     0.034564581
      2213.64      0.23527101     0.033853771
      2215.86      0.23252450     0.033038407
      2218.07      0.24756944     0.031950719
      2220.29      0.24556790     0.031239431
      2222.51      0.24356016     0.030600631
      2224.73      0.24966159     0.030135108
      2226.96      0.24828455     0.029707289
      2229.19      0.24400269     0.029416339
      2231.42      0.24444863     0.028923858
      2233.65      0.23941512     0.028668733
      2235.88      0.23500180     0.028574201
      2238.12      0.23663482     0.028406350
      2240.36      0.24534154     0.028360164
      2242.60      0.25066064     0.028053666
      2244.84      0.25367475     0.027946937
      2247.08      0.24375732     0.027677507
      2249.33      0.24541621     0.027358713
      2251.58      0.23990400     0.027085532
      2253.83      0.25198571     0.026470936
      2256.09      0.24530439     0.026138011
      2258.34      0.24945133     0.025710683
      2260.60      0.26071822     0.025321435
      2262.86      0.27079509     0.024873373
      2265.12      0.26629185     0.024362465
      2267.39      0.26940161     0.024049790
      2269.66      0.27961074     0.023811687
      2271.93      0.28968307     0.023556734
      2274.20      0.28514910     0.023315949
      2276.47      0.29325775     0.023154989
      2278.75      0.28822994     0.022983525
      2281.03      0.27634084     0.022912731
      2283.31      0.27803776     0.022789757
      2285.59      0.26569311     0.022702695
      2287.88      0.26797015     0.022750180
      2290.17      0.26356840     0.022720600
      2292.46      0.25827736     0.022556378
      2294.75      0.26318958     0.022301765
      2297.04      0.26212044     0.022134601
      2299.34      0.26900053     0.022095503
      2301.64      0.27284047     0.021998025
      2303.94      0.27306662     0.021907555
      2306.25      0.27507407     0.021873959
      2308.55      0.27843623     0.021930369
      2310.86      0.29385387     0.021864981
      2313.17      0.30915875     0.021736573
      2315.49      0.32884711     0.021617350
      2317.80      0.34481962     0.021577379
      2320.12      0.35147813     0.021393997
      2322.44      0.35581039     0.021115577
      2324.76      0.36748296     0.020987917
      2327.09      0.36809888     0.020792731
      2329.41      0.37911909     0.020688948
      2331.74      0.38505417     0.020384374
      2334.08      0.38090848     0.020104868
      2336.41      0.37982901     0.019753747
      2338.75      0.37590018     0.019486913
      2341.08      0.38282868     0.019127438
      2343.43      0.38483207     0.019054760
      2345.77      0.38936988     0.019047276
      2348.12      0.39414133     0.019198261
      2350.46      0.40065401     0.019135146
      2352.81      0.40550346     0.019366001
      2355.17      0.40464980     0.019585572
      2357.52      0.40860183     0.019631869
      2359.88      0.41208252     0.019859750
      2362.24      0.40697818     0.019972308
      2364.60      0.40588382     0.020033161
      2366.97      0.41114500     0.019992967
      2369.33      0.41522483     0.019970459
      2371.70      0.41016134     0.019849664
      2374.08      0.40171611     0.019358936
      2376.45      0.38533291     0.019117438
      2378.83      0.37260855     0.018806431
      2381.20      0.36904030     0.018454480
      2383.59      0.36717892     0.018259309
      2385.97      0.36898521     0.018072856
      2388.36      0.36220297     0.017928544
      2390.75      0.36251116     0.017693076
      2393.14      0.36458816     0.017666443
      2395.53      0.36995915     0.017583727
      2397.93      0.37563214     0.017519097
      2400.32      0.38771031     0.017569805
      2402.72      0.39280309     0.017469172
      2405.13      0.39469942     0.017602361
      2407.53      0.39667372     0.017786862
      2409.94      0.40984271     0.017762502
      2412.35      0.41809695     0.017953995
      2414.76      0.42187283     0.018001774
      2417.18      0.42811869     0.018048805
      2419.59      0.43179815     0.018198996
      2422.01      0.42445619     0.018179170
      2424.44      0.42481677     0.018087473
      2426.86      0.42193147     0.018079596
      2429.29      0.41682667     0.017950279
      2431.72      0.41164115     0.017784522
      2434.15      0.40931150     0.017771316
      2436.58      0.40859531     0.017633369
      2439.02      0.40373108     0.017431036
      2441.46      0.39927246     0.017333247
      2443.90      0.40092133     0.017150881
      2446.34      0.39884598     0.016942835
      2448.79      0.39566300     0.016894384
      2451.24      0.38933204     0.016776443
      2453.69      0.39632715     0.016657034
      2456.14      0.39520195     0.016740534
      2458.60      0.40221155     0.016650833
      2461.06      0.40594139     0.016807446
      2463.52      0.40707099     0.016944659
      2465.98      0.40959738     0.016817045
      2468.45      0.40879627     0.016876959
      2470.92      0.40368822     0.016888741
      2473.39      0.39978110     0.016665077
      2475.86      0.40393486     0.016700750
      2478.34      0.39498194     0.016639025
      2480.82      0.39167779     0.016592625
      2483.30      0.39205024     0.016690313
      2485.78      0.39088409     0.016700707
      2488.27      0.39338245     0.016729358
      2490.76      0.39475900     0.016703253
      2493.25      0.38406740     0.016466268
      2495.74      0.38191326     0.016433795
      2498.24      0.37981981     0.016103084
      2500.74      0.38800682     0.015997340
      2503.24      0.39806531     0.015756948
      2505.74      0.39562994     0.015458084
      2508.25      0.39195713     0.015438212
      2510.75      0.38915875     0.015244409
      2513.26      0.39762545     0.015281028
      2515.78      0.41029691     0.015130969
      2518.29      0.42403006     0.015042044
      2520.81      0.43673730     0.014957727
      2523.33      0.44364177     0.014875118
      2525.86      0.45326271     0.014837042
      2528.38      0.46562693     0.014789712
      2530.91      0.48149648     0.014701324
      2533.44      0.48830852     0.014646604
      2535.98      0.49957034     0.014648420
      2538.51      0.50166441     0.014566290
      2541.05      0.50196746     0.014677581
      2543.59      0.51092318     0.014689326
      2546.13      0.51371526     0.014582288
      2548.68      0.52257327     0.014696912
      2551.23      0.52362808     0.014569521
      2553.78      0.53025137     0.014584829
      2556.34      0.52330938     0.014481675
      2558.89      0.53460956     0.014254092
      2561.45      0.54540492     0.014192445
      2564.01      0.55881026     0.013921651
      2566.58      0.57167415     0.013713950
      2569.14      0.57600685     0.013612294
      2571.71      0.58023360     0.013346069
      2574.28      0.58837144     0.013280212
      2576.86      0.59057715     0.013119726
      2579.44      0.58501457     0.012929945
      2582.01      0.58419030     0.012790350
      2584.60      0.57593543     0.012645151
      2587.18      0.56912233     0.012720359
      2589.77      0.56025244     0.012758455
      2592.36      0.55477927     0.012718852
      2594.95      0.55577192     0.012883117
      2597.55      0.55867305     0.012990419
      2600.14      0.54961954     0.012971626
      2602.74      0.55215142     0.013036111
      2605.35      0.54047785     0.012855652
      2607.95      0.54820345     0.012684827
      2610.56      0.54208762     0.012575338
      2613.17      0.53684779     0.012312680
      2615.79      0.53339581     0.012123353
      2618.40      0.52563795     0.011997160
      2621.02      0.51859358     0.011960931
      2623.64      0.51146428     0.011989199
      2626.26      0.49726923     0.011978934
      2628.89      0.49338790     0.011877885
      2631.52      0.49833894     0.011918046
      2634.15      0.49070792     0.011857468
      2636.79      0.48675159     0.011728404
      2639.42      0.49133713     0.011762417
      2642.06      0.49177429     0.011733862
      2644.70      0.49868405     0.011749671
      2647.35      0.49556355     0.011745197
      2650.00      0.49651431     0.011948038
      2652.65      0.49683432     0.012095318
      2655.30      0.49161712     0.012137299
      2657.96      0.48500301     0.012289383
      2660.61      0.47433409     0.012421565
      2663.27      0.46252170     0.012502073
      2665.94      0.45243157     0.012573009
      2668.60      0.43675774     0.012615369
      2671.27      0.41301898     0.012676378
      2673.94      0.40133449     0.012713992
      2676.62      0.38499074     0.012727169
      2679.29      0.38408548     0.012731376
      2681.97      0.38408696     0.012638308
      2684.66      0.38019698     0.012608306
      2687.34      0.37319707     0.012652378
      2690.03      0.37598206     0.012619741
      2692.72      0.37372855     0.012518131
      2695.41      0.37561732     0.012517370
      2698.11      0.38556751     0.012514190
      2700.81      0.39872879     0.012576535
      2703.51      0.40444209     0.012463936
      2706.21      0.41760261     0.012423691
      2708.92      0.42740109     0.012382351
      2711.62      0.43978405     0.012329408
      2714.34      0.45377855     0.012281828
      2717.05      0.46045775     0.012212229
      2719.77      0.46837080     0.012122998
      2722.49      0.48714334     0.012010049
      2725.21      0.51461430     0.011883565
      2727.94      0.53072173     0.011721087
      2730.66      0.55390653     0.011728468
      2733.39      0.57639064     0.011674671
      2736.13      0.60003774     0.011647977
      2738.86      0.61567881     0.011639034
      2741.60      0.63758431     0.011583692
      2744.34      0.65600317     0.011613778
      2747.09      0.68212674     0.011644463
      2749.84      0.70577029     0.011737197
      2752.59      0.71837248     0.011737316
      2755.34      0.73991496     0.011655106
      2758.09      0.76275634     0.011667340
      2760.85      0.78915438     0.011683250
      2763.61      0.80500997     0.011723010
      2766.38      0.82826415     0.011768341
      2769.14      0.85341236     0.011719995
      2771.91      0.87976278     0.011827637
      2774.69      0.91163670     0.011851102
      2777.46      0.92674194     0.011833717
      2780.24      0.94170422     0.011774121
      2783.02      0.95733375     0.011678187
      2785.80      0.96728611     0.011480092
      2788.59      0.97148204     0.011345485
      2791.38      0.97545422     0.011227084
      2794.17      0.96858052     0.011125152
      2796.96      0.95968991     0.011033452
      2799.76      0.95527731     0.010968008
      2802.56      0.94404956     0.010980653
      2805.36      0.93470708     0.010854362
      2808.17      0.93031346     0.010800013
      2810.98      0.92072097     0.010761351
      2813.79      0.90954455     0.010727481
      2816.60      0.89647864     0.010696867
      2819.42      0.89318238     0.010677955
      2822.24      0.89311240     0.010665730
      2825.06      0.88623079     0.010668277
      2827.88      0.87777302     0.010599097
      2830.71      0.86154656     0.010598939
      2833.54      0.85584049     0.010591081
      2836.38      0.84141727     0.010554190
      2839.21      0.83437521     0.010518430
      2842.05      0.82808387     0.010487383
      2844.90      0.81957325     0.010464507
      2847.74      0.80548755     0.010424149
      2850.59      0.79935357     0.010347691
      2853.44      0.80222265     0.010270912
      2856.29      0.80381919     0.010223561
      2859.15      0.80697849     0.010129051
      2862.01      0.80744047     0.010102633
      2864.87      0.81654047     0.010101729
      2867.74      0.83044227     0.010129731
      2870.60      0.84388089     0.010151633
      2873.47      0.86266450     0.010187328
      2876.35      0.88388293     0.010238930
      2879.22      0.90412694     0.010273711
      2882.10      0.92095359     0.010303796
      2884.99      0.94399975     0.010337536
      2887.87      0.97296227     0.010373315
      2890.76      0.99885956     0.010371706
      2893.65       1.0308120     0.010385461
      2896.54       1.0521838     0.010432087
      2899.44       1.0766463     0.010484765
      2902.34       1.0945028     0.010532349
      2905.24       1.1146706     0.010547136
      2908.15       1.1341152     0.010545251
      2911.06       1.1462784     0.010550333
      2913.97       1.1497496     0.010542433
      2916.88       1.1594233     0.010533498
      2919.80       1.1642877     0.010549919
      2922.72       1.1629643     0.010595054
      2925.64       1.1555323     0.010647445
      2928.57       1.1517524     0.010735743
      2931.50       1.1471015     0.010766908
      2934.43       1.1389950     0.010836546
      2937.36       1.1297820     0.010896908
      2940.30       1.1295496     0.010946036
      2943.24       1.1296148     0.010983579
      2946.18       1.1264418     0.010983262
      2949.13       1.1193962     0.010959885
      2952.08       1.1089397     0.010926707
      2955.03       1.1046596     0.010867899
      2957.99       1.0889469     0.010811080
      2960.94       1.0832893     0.010681745
      2963.90       1.0678717     0.010628862
      2966.87       1.0426300     0.010580146
      2969.84       1.0156821     0.010536617
      2972.81      0.99853678     0.010503317
      2975.78      0.96832799     0.010474162
      2978.76      0.94572126     0.010451789
      2981.73      0.92255241     0.010441973
      2984.72      0.89611254     0.010385718
      2987.70      0.86959772     0.010395355
      2990.69      0.85095025     0.010473004
      2993.68      0.83883427     0.010474985
      2996.67      0.83063473     0.010477186
      2999.67      0.82609285     0.010486456
      3002.67      0.82329484     0.010497982
      3005.67      0.81553314     0.010454213
      3008.68      0.81612002     0.010476122
      3011.69      0.81873023     0.010491666
      3014.70      0.81171150     0.010513605
      3017.71      0.80952899     0.010527114
      3020.73      0.80153338     0.010468402
      3023.75      0.78631695     0.010526949
      3026.78      0.78186591     0.010511078
      3029.80      0.77778954     0.010484292
      3032.83      0.76884766     0.010663856
      3035.87      0.76669573     0.010460176
      3038.90      0.75959111     0.010328976
      3041.94      0.75379985     0.010324991
      3044.98      0.75119135     0.010442979
      3048.03      0.75276471     0.010559027
      3051.08      0.75758264     0.010638221
      3054.13      0.76094581     0.010760109
      3057.18      0.77040074     0.010883940
      3060.24      0.78220392     0.010907867
      3063.30      0.78050152     0.010836772
      3066.36      0.78921813     0.010856063
      3069.43      0.79173982     0.010773117
      3072.50      0.79246973     0.010675701
      3075.57      0.79836278     0.010497409
      3078.65      0.80430351     0.010372209
      3081.73      0.80477857     0.010315771
      3084.81      0.81446189     0.010251118
      3087.89      0.82079124     0.010234719
      3090.98      0.82264736     0.010443473
      3094.07      0.82885012     0.010318627
      3097.17      0.83212345     0.010248538
      3100.26      0.83814036     0.010175202
      3103.36      0.84361167     0.010155636
      3106.47      0.84911716     0.010153158
      3109.58      0.85623742     0.010118031
      3112.68      0.85944627     0.010206425
      3115.80      0.86479391     0.010246615
      3118.91      0.87132941     0.010113829
      3122.03      0.87399428     0.010105040
      3125.15      0.88275539     0.010157874
      3128.28      0.89178735     0.010159234
      3131.41      0.90694427     0.010108741
      3134.54      0.91681439     0.010107925
      3137.67      0.92372140     0.010165322
      3140.81      0.93539239     0.010118492
      3143.95      0.95258758     0.010125246
      3147.10      0.96618481     0.010075977
      3150.24      0.97224550     0.010146425
      3153.39      0.98548461     0.010141485
      3156.55      0.99967455     0.010077020
      3159.70       1.0028119     0.010070917
      3162.86       1.0084864     0.010122629
      3166.03       1.0119396     0.010061146
      3169.19       1.0080049     0.010060556
      3172.36       1.0037951     0.010118928
      3175.54       1.0009242     0.010068924
      3178.71      0.99743578     0.010077719
      3181.89      0.98713739     0.010027144
      3185.07      0.97670240     0.010102108
      3188.26      0.96775794     0.010122230
      3191.45      0.95454790     0.010093619
      3194.64      0.93819387     0.010177730
      3197.83      0.92912976     0.010152312
      3201.03      0.92543772     0.010177845
      3204.23      0.91946392     0.010263460
      3207.44      0.91087976     0.010241478
      3210.64      0.90416557     0.010269683
      3213.85      0.90568900     0.010284828
      3217.07      0.90105256     0.010284552
      3220.28      0.88858652     0.010276256
      3223.51      0.88226524     0.010245308
      3226.73      0.87399154     0.010143469
      3229.96      0.86729728     0.010148164
      3233.19      0.86929070     0.010100737
      3236.42      0.87044003     0.010013118
      3239.66      0.86309982     0.010048355
      3242.90      0.86488524    0.0099819853
      3246.14      0.86587785     0.010042021
      3249.39      0.86251586     0.010014899
      3252.64      0.86092987     0.010045136
      3255.89      0.86514066     0.010069534
      3259.14      0.86748818     0.010083921
      3262.40      0.87436161     0.010083857
      3265.67      0.87765924     0.010073286
      3268.93      0.88275820    0.0099935336
      3272.20      0.88432377     0.010026685
      3275.47      0.88772148    0.0099475957
      3278.75      0.88748923    0.0099864872
      3282.03      0.88677094    0.0099222877
      3285.31      0.89047598    0.0099602006
      3288.60      0.89362704    0.0098997066
      3291.88      0.89762636    0.0099076389
      3295.18      0.90220140    0.0099127949
      3298.47      0.90041397    0.0098599941
      3301.77      0.90122604    0.0099095261
      3305.07      0.91043865    0.0098501724
      3308.38      0.91323058    0.0098981687
      3311.69      0.91846592    0.0098502880
      3315.00      0.92598928    0.0099097562
      3318.31      0.93552861    0.0098573432
      3321.63      0.93652775    0.0098586575
      3324.95      0.93949858    0.0098544578
      3328.28      0.94137453    0.0098537417
      3331.61      0.93809764    0.0098446314
      3334.94      0.93132336    0.0098367579
      3338.27      0.93430652    0.0098329519
      3341.61      0.93196436    0.0098180446
      3344.95      0.92479074    0.0098077043
      3348.30      0.92319502     0.010085570
      3351.65      0.91398035    0.0097664469
      3355.00      0.90644439    0.0097290747
      3358.35      0.90755281    0.0097869897
      3361.71      0.90397318    0.0098856784
      3365.07      0.91501988     0.010067803
      3368.44      0.92518171     0.010138647
      3371.81      0.92768274     0.010265934
      3375.18      0.94013767     0.010360861
      3378.56      0.94622148     0.010415211
      3381.94      0.95767791     0.010342472
      3385.32      0.95607585     0.010363594
      3388.70      0.95606541     0.010206194
      3392.09      0.96110110     0.010100102
      3395.48      0.95976956     0.010041664
      3398.88      0.96130056    0.0098786236
      3402.28      0.96450447    0.0098108078
      3405.68      0.95658083    0.0097442301
      3409.09      0.95365413    0.0098855954
      3412.49      0.95122050     0.010085521
      3415.91      0.95850405    0.0098217476
      3419.32      0.96328432    0.0099030187
      3422.74      0.97312714    0.0099365096
      3426.17      0.98972108    0.0099045424
      3429.59       1.0085303    0.0099364710
      3433.02       1.0120551    0.0099062865
      3436.45       1.0170926    0.0098829509
      3439.89       1.0237682    0.0098977473
      3443.33       1.0291508    0.0099238023
      3446.78       1.0378580    0.0099691996
      3450.22       1.0344443     0.010033227
      3453.67       1.0429086     0.010045029
      3457.13       1.0496981     0.010114554
      3460.58       1.0610288     0.010280730
      3464.04       1.0746427     0.010293714
      3467.51       1.0797873     0.010242972
      3470.98       1.0844024     0.010235903
      3474.45       1.0984323     0.010259573
      3477.92       1.1143415     0.010317831
      3481.40       1.1341662     0.010388122
      3484.88       1.1517987     0.010437697
      3488.37       1.1716549     0.010443289
      3491.86       1.1927391     0.010508336
      3495.35       1.2053390     0.010909166
      3498.84       1.2060889     0.010627988
      3502.34       1.2154135     0.010503215
      3505.84       1.2239429     0.010499507
      3509.35       1.2331575     0.010544285
      3512.86       1.2436995     0.010552618
      3516.37       1.2500874     0.010673605
      3519.89       1.2625699     0.010783776
      3523.41       1.2725676     0.010923577
      3526.93       1.2931081     0.011015441
      3530.46       1.3048178     0.011205863
      3533.99       1.3206472     0.011040053
      3537.53       1.3406690     0.010988583
      3541.06       1.3591576     0.010910837
      3544.60       1.3732534     0.010826221
      3548.15       1.3808751     0.010739230
      3551.70       1.3906880     0.010653082
      3555.25       1.3938000     0.010624055
      3558.80       1.3938409     0.010694095
      3562.36       1.3892810     0.010829906
      3565.92       1.3796719     0.010672905
      3569.49       1.3757089     0.010626447
      3573.06       1.3639562     0.010640770
      3576.64       1.3445979     0.010648339
      3580.21       1.3313362     0.010655099
      3583.79       1.3126127     0.010608346
      3587.38       1.2958833     0.010624433
      3590.96       1.2787300     0.010633720
      3594.55       1.2744332     0.010647526
      3598.15       1.2695828     0.010665191
      3601.75       1.2737470     0.010689175
      3605.35       1.2798530     0.010703173
      3608.96       1.2812756     0.010784323
      3612.56       1.2856243     0.010769416
      3616.18       1.2976109     0.010824123
      3619.79       1.3122047     0.010836083
      3623.41       1.3174036     0.010900732
      3627.04       1.3274177     0.010963148
      3630.66       1.3393247     0.011026282
      3634.29       1.3493039     0.011085135
      3637.93       1.3629129     0.011145813
      3641.57       1.3785592     0.011206224
      3645.21       1.3925946     0.011257323
      3648.86       1.4113148     0.011312315
      3652.50       1.4310520     0.011374140
      3656.16       1.4529223     0.011448971
      3659.81       1.4733604     0.011518792
      3663.47       1.4978356     0.011594257
      3667.14       1.5264410     0.011694149
      3670.80       1.5434157     0.011746245
      3674.48       1.5644040     0.011898993
      3678.15       1.5811458     0.012169909
      3681.83       1.5952368     0.012296590
      3685.51       1.6102333     0.012287643
      3689.20       1.6125219     0.012495402
      3692.88       1.6108947     0.012846257
      3696.58       1.6167126     0.013296877
      3700.27       1.6124356     0.013916320
      3703.98       1.6038174     0.014412274
      3707.68       1.6027488     0.014870900
      3711.39       1.6032111     0.015223834
      3715.10       1.5866963     0.015422579
      3718.81       1.5756898     0.015442066
      3722.53       1.5645324     0.015324720
      3726.26       1.5346059     0.015095966
      3729.98       1.4994645     0.014772210
      3733.71       1.4568105     0.014429419
      3737.45       1.4181488     0.014140762
      3741.18       1.3760041     0.013962801
      3744.93       1.3342485     0.013995528
      3748.67       1.2948417     0.014300259
      3752.42       1.2692688     0.014016401
      3756.17       1.2435244     0.013792508
      3759.93       1.2160750     0.013692821
      3763.69       1.2031572     0.013599136
      3767.45       1.1835316     0.013511946
      3771.22       1.1646448     0.013404335
      3774.99       1.1606160     0.013288996
      3778.77       1.1609944     0.013181919
      3782.54       1.1725931     0.013082506
      3786.33       1.1800811     0.012982475
      3790.11       1.1887920     0.012852049
      3793.90       1.1993969     0.012680477
      3797.70       1.2056317     0.012542879
      3801.50       1.2137329     0.012475822
      3805.30       1.2189504     0.012439640
      3809.10       1.2353379     0.012407883
      3812.91       1.2541132     0.012368300
      3816.73       1.2723314     0.012308144
      3820.54       1.2938515     0.012226745
      3824.36       1.3131604     0.012133287
      3828.19       1.3283715     0.012040650
      3832.02       1.3460973     0.011853490
      3835.85       1.3564121     0.011544154
      3839.68       1.3587340     0.011379194
      3843.52       1.3742181     0.011246569
      3847.37       1.3817739     0.011134171
      3851.22       1.3948590     0.011057318
      3855.07       1.4195015     0.011018526
      3858.92       1.4340024     0.011010845
      3862.78       1.4465836     0.010958181
      3866.64       1.4642427     0.010874303
      3870.51       1.4832722     0.010782265
      3874.38       1.4948196     0.010679376
      3878.26       1.5126900     0.010494664
      3882.13       1.5425822     0.010414599
      3886.02       1.5597215     0.010400323
      3889.90       1.5694440     0.010320128
      3893.79       1.5865824     0.010195024
      3897.69       1.6083578     0.010190150
      3901.59       1.6221505     0.010296937
      3905.49       1.6329658     0.010345741
      3909.39       1.6412108     0.010430291
      3913.30       1.6511871     0.010630670
      3917.22       1.6660248     0.010722078
      3921.13       1.6730821     0.010763305
      3925.06       1.6788867     0.010771816
      3928.98       1.6911472     0.010754558
      3932.91       1.6931297     0.010623930
      3936.84       1.6877764     0.010498683
      3940.78       1.6787677     0.010312650
      3944.72       1.6707680     0.010180670
      3948.67       1.6532520     0.010078352
      3952.61       1.6410053    0.0099774296
      3956.57       1.6233586     0.010058078
      3960.52       1.5894651     0.010180138
      3964.48       1.5623082     0.010160180
      3968.45       1.5391734     0.010084819
      3972.42       1.5176218    0.0099801278
      3976.39       1.4834412    0.0099268433
      3980.37       1.4482121    0.0098524067
      3984.35       1.4208895    0.0097575317
      3988.33       1.3945953    0.0096535196
      3992.32       1.3782625    0.0095406567
      3996.31       1.3631959    0.0094400326
      4000.31       1.3491690    0.0093754667
      4004.31       1.3399884    0.0093512711
      4008.31       1.3331247    0.0092918835
      4012.32       1.3230178    0.0093051341
      4016.33       1.3244540    0.0092520316
      4020.35       1.3342807    0.0091748860
      4024.37       1.3304925    0.0091529211
      4028.40       1.3307631    0.0091322205
      4032.42       1.3405624    0.0091536660
      4036.46       1.3422319    0.0090857625
      4040.50       1.3409435    0.0090596330
      4044.54       1.3427236    0.0090345557
      4048.58       1.3553509    0.0089687019
      4052.63       1.3573955    0.0089928046
      4056.68       1.3644464    0.0089748527
      4060.74       1.3748040    0.0089572165
      4064.80       1.3792948    0.0089088870
      4068.86       1.3865779    0.0089025905
      4072.93       1.3970320    0.0089338220
      4077.01       1.4031482    0.0088825485
      4081.08       1.4086293    0.0088719138
      4085.17       1.4123489    0.0088592743
      4089.25       1.4068711    0.0088467022
      4093.34       1.4127031    0.0088354785
      4097.43       1.4054678    0.0088190416
      4101.53       1.3891711    0.0087617217
      4105.63       1.3778248    0.0087827650
      4109.74       1.3690606    0.0088445715
      4113.85       1.3551095    0.0088183512
      4117.96       1.3438506    0.0087287289
      4122.08       1.3465344    0.0086260631
      4126.20       1.3526643    0.0086639540
      4130.33       1.3544467    0.0087395345
      4134.46       1.3600333    0.0088157700
      4138.59       1.3650201    0.0088904839
      4142.73       1.3645534    0.0089369937
      4146.88       1.3729331    0.0090587724
      4151.02       1.3809269    0.0090785713
      4155.18       1.3814675    0.0091327708
      4159.33       1.3805473    0.0091451613
      4163.49       1.3647320    0.0088693583
      4167.65       1.3565325    0.0087938041
      4171.82       1.3546598    0.0088219619
      4175.99       1.3351154    0.0088155678
      4180.17       1.3278428    0.0088380808
      4184.35       1.3178521    0.0089314660
      4188.54       1.3105959    0.0090868883
      4192.72       1.3029473    0.0091152147
      4196.92       1.3010979    0.0090627401
      4201.11       1.2937357    0.0088601956
      4205.31       1.2993415    0.0086991688
      4209.52       1.3005133    0.0084969424
      4213.73       1.3052800    0.0083592184
      4217.94       1.3118542    0.0082626923
      4222.16       1.3079804    0.0081346104
      4226.38       1.3087161    0.0080716587
      4230.61       1.3084287    0.0080548709
      4234.84       1.3058349    0.0081393064
      4239.08       1.3005816    0.0080516317
      4243.32       1.2961018    0.0078823967
      4247.56       1.2887483    0.0077666032
      4251.81       1.2790405    0.0076839904
      4256.06       1.2744621    0.0075539675
      4260.32       1.2745294    0.0074297216
      4264.58       1.2682113    0.0073535336
      4268.84       1.2594302    0.0072923918
      4273.11       1.2405230    0.0072646814
      4277.38       1.2270984    0.0073005957
      4281.66       1.2107714    0.0072983319
      4285.94       1.2087100    0.0072985014
      4290.23       1.1981663    0.0073091216
      4294.52       1.1880418    0.0072894936
      4298.81       1.1766280    0.0073537189
      4303.11       1.1596176    0.0073929571
      4307.42       1.1493395    0.0074714332
      4311.72       1.1364296    0.0075140919
      4316.04       1.1241103    0.0075351693
      4320.35       1.1110441    0.0075675428
      4324.67       1.0965521    0.0076183503
      4329.00       1.0763845    0.0076241328
      4333.33       1.0665107    0.0076791191
      4337.66       1.0603537    0.0076720516
      4342.00       1.0489834    0.0077194571
      4346.34       1.0406422    0.0076876214
      4350.69       1.0347428    0.0076847858
      4355.04       1.0257214    0.0076871657
      4359.39       1.0230719    0.0076051432
      4363.75       1.0294379    0.0076030321
      4368.12       1.0427568    0.0075342339
      4372.48       1.0453586    0.0074399204
      4376.86       1.0537467    0.0073608496
      4381.23       1.0666941    0.0072723930
      4385.61       1.0811621    0.0071892962
      4390.00       1.1040094    0.0071906282
      4394.39       1.1258637    0.0071450751
      4398.79       1.1442817    0.0070397262
      4403.18       1.1656011    0.0070015453
      4407.59       1.1849129    0.0069505993
      4412.00       1.2018798    0.0069429314
      4416.41       1.2250691    0.0069289865
      4420.82       1.2466676    0.0069850405
      4425.25       1.2691564    0.0069789124
      4429.67       1.2895747    0.0069416382
      4434.10       1.3076579    0.0069837785
      4438.54       1.3197439    0.0069748956
      4442.97       1.3372628    0.0069428845
      4447.42       1.3569459    0.0068995490
      4451.86       1.3707639    0.0068759012
      4456.32       1.3838104    0.0068506493
      4460.77       1.3986518    0.0068251767
      4465.24       1.4153481    0.0067978964
      4469.70       1.4373313    0.0067680818
      4474.17       1.4596046    0.0067536494
      4478.65       1.4786072    0.0067149135
      4483.12       1.5020400    0.0066669306
      4487.61       1.5236991    0.0066268695
      4492.09       1.5430984    0.0065465487
      4496.59       1.5608054    0.0064969400
      4501.08       1.5855302    0.0064664773
      4505.58       1.6037430    0.0064767039
      4510.09       1.6199314    0.0064239644
      4514.60       1.6344354    0.0063676848
      4519.12       1.6429604    0.0063586914
      4523.63       1.6504615    0.0063498000
      4528.16       1.6561475    0.0064648908
      4532.69       1.6524031    0.0065267197
      4537.22       1.6445848    0.0065055041
      4541.76       1.6414018    0.0065382820
      4546.30       1.6356410    0.0066461793
      4550.85       1.6324068    0.0067858454
      4555.40       1.6346550    0.0068027325
      4559.95       1.6285272    0.0069158071
      4564.51       1.6247100    0.0070553936
      4569.08       1.6214675    0.0072066127
      4573.65       1.6183106    0.0072704271
      4578.22       1.6126989    0.0074007087
      4582.80       1.6087924    0.0074967117
      4587.38       1.6103474    0.0075066689
      4591.97       1.6088246    0.0075550326
      4596.56       1.6004376    0.0074206983
      4601.16       1.5915004    0.0072508852
      4605.76       1.5710717    0.0070795044
      4610.37       1.5468204    0.0069036178
      4614.98       1.5199403    0.0068654004
      4619.59       1.5005663    0.0068102473
      4624.21       1.4856158    0.0067233744
      4628.84       1.4713969    0.0066854001
      4633.47       1.4556315    0.0067276213
      4638.10       1.4397771    0.0067581513
      4642.74       1.4245140    0.0065818751
      4647.38       1.4080019    0.0065292966
      4652.03       1.3975511    0.0064413124
      4656.68       1.3869732    0.0063297481
      4661.34       1.3749279    0.0062005492
      4666.00       1.3610589    0.0061115078
      4670.67       1.3450126    0.0060292771
      4675.33       1.3243913    0.0059583924
      4680.01       1.3049284    0.0058832368
      4684.69       1.2793207    0.0058822543
      4689.38       1.2516747    0.0058789629
      4694.07       1.2231333    0.0058733892
      4698.76       1.2030083    0.0058487043
      4703.46       1.1843674    0.0058032064
      4708.16       1.1693955    0.0057763228
      4712.87       1.1548326    0.0057672043
      4717.58       1.1440270    0.0057691435
      4722.30       1.1345725    0.0057616119
      4727.03       1.1328860    0.0057530911
      4731.75       1.1376999    0.0057534143
      4736.48       1.1475791    0.0057375977
      4741.22       1.1585444    0.0057792027
      4745.96       1.1716089    0.0058121854
      4750.71       1.1783788    0.0058569346
      4755.46       1.1855896    0.0058891955
      4760.22       1.1852363    0.0059101233
      4764.97       1.1830667    0.0059261662
      4769.74       1.1817223    0.0059211530
      4774.51       1.1737549    0.0059460812
      4779.29       1.1633018    0.0059630597
      4784.07       1.1535399    0.0058735671
      4788.85       1.1392139    0.0057988426
      4793.64       1.1283044    0.0057403581
      4798.43       1.1190472    0.0058040507
      4803.23       1.1104401    0.0058692897
      4808.03       1.1001890    0.0059420884
      4812.84       1.0976194    0.0060371892
      4817.66       1.1031500    0.0061665452
      4822.48       1.1058859    0.0062833594
      4827.30       1.1141197    0.0064704988
      4832.12       1.1237372    0.0065288082
      4836.96       1.1342203    0.0066343958
      4841.79       1.1379436    0.0067278659
      4846.63       1.1418329    0.0066843176
      4851.48       1.1515416    0.0066428557
      4856.33       1.1546046    0.0066399771
      4861.19       1.1556882    0.0066535576
      4866.05       1.1543187    0.0066623735
      4870.92       1.1546798    0.0066821189
      4875.79       1.1507683    0.0066322011
      4880.66       1.1407747    0.0065754390
      4885.55       1.1340853    0.0065090228
      4890.43       1.1276374    0.0065115887
      4895.32       1.1120395    0.0065159616
      4900.22       1.0998978    0.0064536900
      4905.12       1.0897151    0.0063669245
      4910.02       1.0758664    0.0062887510
      4914.94       1.0559541    0.0061906574
      4919.85       1.0437129    0.0061447009
      4924.77       1.0282865    0.0060154328
      4929.70       1.0123452    0.0059922455
      4934.62       1.0046543    0.0059385130
      4939.56      0.99773590    0.0058151590
      4944.50      0.99586254    0.0057008920
      4949.44      0.98982721    0.0056915999
      4954.39      0.98856275    0.0057089098
      4959.35      0.98940477    0.0057189473
      4964.31      0.99394895    0.0057735628
      4969.27      0.99555139    0.0057922941
      4974.24       1.0011188    0.0057550965
      4979.22       1.0065258    0.0057814811
      4984.20       1.0176659    0.0058155683
      4989.18       1.0142423    0.0058301966
      4994.17       1.0201609    0.0059065161
      4999.16       1.0267215    0.0058985644
      5004.16       1.0251480    0.0058807086
      5009.17       1.0257725    0.0058639389
      5014.18       1.0284690    0.0059623900
      5019.19       1.0301836    0.0060508336
      5024.21       1.0348881    0.0060213594
      5029.23       1.0386864    0.0059672580
      5034.26       1.0402055    0.0059872844
      5039.30       1.0415673    0.0060642087
      5044.34       1.0460153    0.0062829367
      5049.39       1.0499167    0.0066035109
      5054.43       1.0509307    0.0070793769
      5059.49       1.0593055    0.0076125077
      5064.55       1.0580573    0.0078510911
      5069.61       1.0659588    0.0080594725
      5074.68       1.0713598    0.0082365688
      5079.76       1.0712323    0.0081453264
      5084.84       1.0608817    0.0079661527
      5089.92       1.0684010    0.0078640575
      5095.01       1.0779258    0.0073497897
      5100.11       1.0801013    0.0068426218
      5105.21       1.0915803    0.0064541415
      5110.31       1.0975889    0.0063710759
      5115.42       1.1039746    0.0063190106
      5120.54       1.1155967    0.0062402889
      5125.66       1.1263915    0.0061961516
      5130.79       1.1351350    0.0063046728
      5135.92       1.1502690    0.0063409451
      5141.05       1.1656173    0.0064599626
      5146.20       1.1820410    0.0064633980
      5151.34       1.1942554    0.0065078622
      5156.49       1.2068045    0.0064776369
      5161.65       1.2142987    0.0064784248
      5166.81       1.2251116    0.0064173199
      5171.98       1.2323918    0.0064362875
      5177.15       1.2339190    0.0064470616
      5182.33       1.2370102    0.0065419548
      5187.51       1.2419701    0.0066381985
      5192.70       1.2404632    0.0065515844
      5197.89       1.2442927    0.0065249141
      5203.09       1.2494020    0.0065219076
      5208.29       1.2477770    0.0065917065
      5213.50       1.2529277    0.0067283630
      5218.72       1.2560385    0.0068400884
      5223.93       1.2574241    0.0069515377
      5229.16       1.2617816    0.0071226231
      5234.39       1.2664876    0.0069989537
      5239.62       1.2732906    0.0070804829
      5244.86       1.2715940    0.0071359171
      5250.11       1.2657308    0.0072008799
      5255.36       1.2619508    0.0073379224
      5260.61       1.2538603    0.0072681048
      5265.87       1.2374050    0.0070990190
      5271.14       1.2206086    0.0071016521
      5276.41       1.2005679    0.0070110765
      5281.69       1.1730606    0.0068558571
      5286.97       1.1530294    0.0067836347
      5292.26       1.1321008    0.0067389363
      5297.55       1.1181860    0.0067700406
      5302.85       1.1002361    0.0064855927
      5308.15       1.0848707    0.0064131085
      5313.46       1.0747204    0.0064296627
      5318.77       1.0673970    0.0066311611
      5324.09       1.0652366    0.0067383978
      5329.42       1.0621438    0.0066996763
      5334.75       1.0701100    0.0065762963
      5340.08       1.0794771    0.0065451090
      5345.42       1.0866440    0.0065558287
      5350.77       1.1000247    0.0063682584
      5356.12       1.1174749    0.0062885112
      5361.48       1.1277926    0.0060665470
      5366.83       1.1342346    0.0059336604
      5372.20       1.1427248    0.0058060905
      5377.58       1.1529307    0.0056827114
      5382.95       1.1617455    0.0055364545
      5388.34       1.1679957    0.0055342319
      5393.72       1.1719262    0.0055034520
      5399.12       1.1745902    0.0054778519
      5404.52       1.1737147    0.0053179935
      5409.92       1.1703778    0.0052777769
      5415.33       1.1672691    0.0053172509
      5420.75       1.1616822    0.0053709652
      5426.17       1.1535705    0.0052587140
      5431.60       1.1473057    0.0052486428
      5437.03       1.1385086    0.0052378001
      5442.47       1.1267105    0.0052312031
      5447.91       1.1214707    0.0051957914
      5453.36       1.1089892    0.0051616327
      5458.81       1.0954702    0.0051642877
      5464.27       1.0820290    0.0052119478
      5469.73       1.0654997    0.0052309143
      5475.20       1.0531575    0.0052241565
      5480.68       1.0429840    0.0051586330
      5486.16       1.0334074    0.0051665082
      5491.65       1.0216266    0.0052544160
      5497.14       1.0128318    0.0053896323
      5502.64       1.0063553    0.0055651505
      5508.14       1.0007824    0.0057716060
      5513.65       1.0000912    0.0058478964
      5519.16      0.99958089    0.0059286929
      5524.68       1.0079589    0.0059837150
      5530.20       1.0126809    0.0060962378
      5535.73       1.0133195    0.0061301989
      5541.27       1.0153809    0.0062338594
      5546.81       1.0228653    0.0061420927
      5552.36       1.0299302    0.0061115299
      5557.91       1.0321478    0.0060770635
      5563.47       1.0347219    0.0061489568
      5569.04       1.0365772    0.0062671449
      5574.60       1.0334450    0.0064109515
      5580.18       1.0271882    0.0064359497
      5585.76       1.0254923    0.0064629633
      5591.35       1.0212600    0.0063524060
      5596.94       1.0155575    0.0062756926
      5602.53       1.0069428    0.0063028687
      5608.14       1.0071267    0.0063994531
      5613.75       1.0038609    0.0063937791
      5619.36      0.99915032    0.0061086927
      5624.98      0.99275352    0.0059686090
      5630.60      0.99434126    0.0058527061
      5636.23      0.98934432    0.0058025780
      5641.87      0.98041692    0.0056725509
      5647.51      0.97891954    0.0056109507
      5653.16      0.97292235    0.0054595459
      5658.82      0.97344984    0.0054085893
      5664.47      0.97144241    0.0052990140
      5670.14      0.96804258    0.0052682169
      5675.81      0.96493293    0.0051167281
      5681.48      0.96093496    0.0050992056
      5687.17      0.96135712    0.0051287484
      5692.85      0.96187159    0.0051532178
      5698.55      0.95841619    0.0049870571
      5704.25      0.95044548    0.0049478290
      5709.95      0.94730688    0.0050495048
      5715.66      0.94847829    0.0051523762
      5721.38      0.94363396    0.0052658857
      5727.10      0.93751295    0.0053652731
      5732.83      0.93380775    0.0056375604
      5738.56      0.93608961    0.0059461274
      5744.30      0.92719564    0.0062982794
      5750.04      0.91956612    0.0065738914
      5755.79      0.91469897    0.0065719152
      5761.55      0.91045203    0.0066390672
      5767.31      0.91519671    0.0066116489
      5773.08      0.91050295    0.0064678162
      5778.85      0.91184837    0.0064332863
      5784.63      0.91445660    0.0063028109
      5790.41      0.92257871    0.0060777793
      5796.21      0.92803801    0.0057593778
      5802.00      0.92871659    0.0056592326
      5807.81      0.93113457    0.0056072502
      5813.61      0.93172659    0.0057222442
      5819.43      0.94008496    0.0059751032
      5825.25      0.94435690    0.0061711556
      5831.07      0.94550480    0.0062078325
      5836.90      0.94280824    0.0061566525
      5842.74      0.94807055    0.0061108118
      5848.58      0.94570135    0.0061827274
      5854.43      0.93756509    0.0061449503
      5860.29      0.93538210    0.0062593263
      5866.15      0.93258781    0.0061672205
      5872.01      0.93152863    0.0061094675
      5877.89      0.92490425    0.0060208560
      5883.76      0.91902709    0.0061027892
      5889.65      0.91754300    0.0061315807
      5895.54      0.91395457    0.0061605811
      5901.43      0.91225214    0.0062534613
      5907.34      0.90925747    0.0063220939
      5913.24      0.90513917    0.0063065794
      5919.16      0.89847730    0.0061899989
      5925.08      0.89475750    0.0062140403
      5931.00      0.89295503    0.0063412391
      5936.93      0.89142279    0.0065969016
      5942.87      0.88794716    0.0063895782
      5948.81      0.87608773    0.0062228931
      5954.76      0.87363625    0.0061845512
      5960.72      0.87123889    0.0061873967
      5966.68      0.87338747    0.0061135576
      5972.64      0.87671907    0.0060862977
      5978.62      0.87024035    0.0059424093
      5984.60      0.87084458    0.0059134447
      5990.58      0.87519008    0.0057382463
      5996.57      0.87889456    0.0057008816
      6002.57      0.88488040    0.0056049731
      6008.57      0.89281513    0.0055198023
      6014.58      0.90293841    0.0054940939
      6020.60      0.90888801    0.0054737975
      6026.62      0.91291085    0.0054813250
      6032.65      0.91367662    0.0053920900
      6038.68      0.91839693    0.0054073877
      6044.72      0.91491533    0.0054712401
      6050.76      0.91084040    0.0053579041
      6056.81      0.90597712    0.0053530587
      6062.87      0.89464973    0.0052695754
      6068.93      0.88801905    0.0052736723
      6075.00      0.88164498    0.0052853687
      6081.08      0.86874825    0.0053662383
      6087.16      0.84931214    0.0053688222
      6093.25      0.83269146    0.0052879990
      6099.34      0.81648092    0.0053471037
      6105.44      0.80464924    0.0052214357
      6111.54      0.79035917    0.0051429605
      6117.66      0.78050386    0.0051460402
      6123.78      0.76594006    0.0050128753
      6129.90      0.75730283    0.0049014088
      6136.03      0.75040883    0.0048862490
      6142.17      0.74323211    0.0049637990
      6148.31      0.73544906    0.0050046687
      6154.46      0.72692850    0.0050545065
      6160.61      0.72014495    0.0051516739
      6166.77      0.71536446    0.0052054870
      6172.94      0.71418513    0.0055280678
      6179.11      0.71728832    0.0056607599
      6185.29      0.72305803    0.0061235426
      6191.48      0.73318240    0.0065915066
      6197.67      0.74335027    0.0070810048
      6203.87      0.74919229    0.0076304916
      6210.07      0.76806219    0.0080754679
      6216.28      0.78418189    0.0085741153
      6222.50      0.80745173    0.0088684320
      6228.72      0.83087552    0.0091392213
      6234.95      0.84649271    0.0091717451
      6241.19      0.86294119    0.0091824252
      6247.42      0.89015661    0.0090451881
      6253.67      0.91325582    0.0090799363
      6259.93      0.93031687    0.0091344979
      6266.19      0.93885059    0.0092792619
      6272.46      0.95343812    0.0093446748
      6278.73      0.96477992    0.0096246776
      6285.01      0.97548265    0.0093780384
      6291.29      0.98186996    0.0092906683
      6297.58      0.99454774    0.0094456689
      6303.88       1.0172075    0.0096764124
      6310.19       1.0320455    0.0096171921
      6316.50       1.0393443    0.0092351044
      6322.81       1.0460202    0.0091712500
      6329.14       1.0485546    0.0092097604
      6335.47       1.0555803    0.0091787266
      6341.80       1.0572761    0.0090437564
      6348.14       1.0610144    0.0092172699
      6354.49       1.0545649    0.0088369175
      6360.85       1.0522404    0.0088102757
      6367.21       1.0429930    0.0085719022
      6373.57       1.0440868    0.0085593295
      6379.95       1.0338040    0.0082119902
      6386.33       1.0200852    0.0079916346
      6392.72       1.0077638    0.0078745692
      6399.11      0.99631878    0.0076393062
      6405.51      0.98347882    0.0076969038
      6411.92      0.97715525    0.0074582250
      6418.32      0.96937137    0.0074850260
      6424.74      0.96227985    0.0076372121
      6431.17      0.95947496    0.0078769226
      6437.60      0.95506183    0.0078591348
      6444.04      0.95616567    0.0080534646
      6450.48      0.95582897    0.0080947309
      6456.94      0.96116099    0.0081746146
      6463.39      0.96529519    0.0083103518
      6469.85      0.96455268    0.0080622120
      6476.33      0.97233112    0.0080641972
      6482.80      0.97352230    0.0081120113
      6489.28      0.97903375    0.0080793549
      6495.77      0.97948865    0.0081892543
      6502.27      0.98424832    0.0080855114
      6508.77      0.98594767    0.0080311540
      6515.28      0.98819368    0.0079431286
      6521.80      0.98706312    0.0081150347
      6528.32      0.98025990    0.0081391176
      6534.85      0.97924782    0.0083629651
      6541.38      0.97427061    0.0085565380
      6547.92      0.97267470    0.0088537148
      6554.47      0.96909186    0.0088911200
      6561.03      0.96013095    0.0090597611
      6567.59      0.94662714    0.0091740365
      6574.16      0.93634818    0.0094435609
      6580.73      0.92177194    0.0097549978
      6587.31      0.90521743    0.0098382544
      6593.90      0.89647604     0.010003422
      6600.50      0.88134172     0.010232572
      6607.10      0.87128910     0.010602949
      6613.70      0.84935770     0.011235199
      6620.32      0.83276395     0.011544039
      6626.94      0.82027717     0.011518463
      6633.57      0.81328418     0.011613846
      6640.20      0.79826663     0.011726758
      6646.84      0.78635815     0.011868944
      6653.49      0.77510225     0.012019867
      6660.14      0.76694772     0.012316645
      6666.80      0.75551753     0.012736197
      6673.47      0.75326118     0.013123228
      6680.14      0.74743201     0.013456347
      6686.82      0.74159703     0.013327302
      6693.51      0.73409980     0.013273449
      6700.20      0.72333950     0.013577348
      6706.90      0.71016536     0.013704891
      6713.61      0.70255997     0.014236735
      6720.32      0.68416753     0.014431335
      6727.05      0.67108368     0.014841950
      6733.77      0.66598423     0.015969606
      6740.51      0.65644636     0.016235507
      6747.25      0.64364620     0.016281047
      6754.00      0.62537016     0.016562878
      6760.75      0.61026183     0.016879269
      6767.51      0.58848400     0.017380323
      6774.28      0.57006490     0.018137390
      6781.05      0.54749235     0.019483461
      6787.84      0.53799954     0.021616452
      6794.62      0.52322350     0.023388836
      6801.42      0.50141351     0.025017771
      6808.22      0.47978147     0.027100837
      6815.03      0.45371285     0.029599566
      6821.85      0.43508673     0.033941354
      6828.67      0.41867113     0.039276212
      6835.50      0.38057752     0.046061221
      6842.33      0.35653226     0.054789044
