# starting wavelength =        2410.4683
# ending wavelength =        6887.0523
# O2 telluric scale =        0
# O2 telluric shift =        0
# H2O telluric scale =        0
# H2O telluric shift =        0
      2412.35       1.7714332      0.86998277
      2414.76       1.6250215      0.77936546
      2417.18       1.6445205      0.71164751
      2419.59       1.6242218      0.67238966
      2422.01       1.5409231      0.60811896
      2424.44       1.4217324      0.56187984
      2426.86       1.3376044      0.53430305
      2429.29       1.2666581      0.49722134
      2431.72       1.2281949      0.45745237
      2434.15       1.2032088      0.42966372
      2436.58       1.1836788      0.41253570
      2439.02       1.1829756      0.38999753
      2441.46       1.2012715      0.36557691
      2443.90       1.1579115      0.34843200
      2446.34       1.1369386      0.33766659
      2448.79       1.0760058      0.32350292
      2451.24       1.0771799      0.30850236
      2453.69       1.0605048      0.29743296
      2456.14      0.97909686      0.29048147
      2458.60       1.0177411      0.28110312
      2461.06       1.0652904      0.27173316
      2463.52       1.1152465      0.26411380
      2465.98       1.0777298      0.25943220
      2468.45       1.0140997      0.25278830
      2470.92       1.0500206      0.24673619
      2473.39      0.95256722      0.24111218
      2475.86      0.90897904      0.23778789
      2478.34      0.87291194      0.23334760
      2480.82      0.85101169      0.22867442
      2483.30      0.88110664      0.22602244
      2485.78      0.81873129      0.22176499
      2488.27      0.75732746      0.21869331
      2490.76      0.69519258      0.21487585
      2493.25      0.72460833      0.21123159
      2495.74      0.73715578      0.20927931
      2498.24      0.71627915      0.20589383
      2500.74      0.68278677      0.20387366
      2503.24      0.66339303      0.20077037
      2505.74      0.63757198      0.19918094
      2508.25      0.70999170      0.19626917
      2510.75      0.71005774      0.19484929
      2513.26      0.69124547      0.19272406
      2515.78      0.68828452      0.19168125
      2518.29      0.68705016      0.18965267
      2520.81      0.73703945      0.18865235
      2523.33      0.75876780      0.18637104
      2525.86      0.78335359      0.18575880
      2528.38      0.73074207      0.18356340
      2530.91      0.75896259      0.18299684
      2533.44      0.73954813      0.18088433
      2535.98      0.73636771      0.18000486
      2538.51      0.69326694      0.17833015
      2541.05      0.69456568      0.17748967
      2543.59      0.73691181      0.17589739
      2546.13      0.80053209      0.17509497
      2548.68      0.87412750      0.17358244
      2551.23      0.88171880      0.17175665
      2553.78      0.86787781      0.17103173
      2556.34      0.88117234      0.16962019
      2558.89      0.91587082      0.16893080
      2561.45      0.93730793      0.16759275
      2564.01      0.95076537      0.16693796
      2566.58      0.98749436      0.16567091
      2569.14       1.0024049      0.16504989
      2571.71      0.97921102      0.16346621
      2574.28      0.96678232      0.16326327
      2576.86      0.96743952      0.16173907
      2579.44      0.94529216      0.16066211
      2582.01      0.91599785      0.16010765
      2584.60      0.91834871      0.15909251
      2587.18      0.93858812      0.15856875
      2589.77      0.95865207      0.15720893
      2592.36      0.98410809      0.15711923
      2594.95      0.95840311      0.15580874
      2597.55      0.97543095      0.15492543
      2600.14      0.97383407      0.15449302
      2602.74      0.96761006      0.15366370
      2605.35      0.98368810      0.15325877
      2607.95      0.91410750      0.15248120
      2610.56      0.90073637      0.15210289
      2613.17      0.92326035      0.15137494
      2615.79      0.93296417      0.15026262
      2618.40      0.92208501      0.14990869
      2621.02      0.91310929      0.14926837
      2623.64      0.93980594      0.14893892
      2626.26      0.93462344      0.14834228
      2628.89      0.92260788      0.14803649
      2631.52      0.90667280      0.14748150
      2634.15      0.93663530      0.14649274
      2636.79      0.92017841      0.14668305
      2639.42      0.91537981      0.14572837
      2642.06      0.90381127      0.14594406
      2644.70      0.83132263      0.14502183
      2647.35      0.78921715      0.14458616
      2650.00      0.75852352      0.14437022
      2652.65      0.78045390      0.14396738
      2655.30      0.75299427      0.14377070
      2657.96      0.73254334      0.14292795
      2660.61      0.72094660      0.14258369
      2663.27      0.68008852      0.14240042
      2665.94      0.66586603      0.14208365
      2668.60      0.63982657      0.14191758
      2671.27      0.60894643      0.14162635
      2673.94      0.60784532      0.14213377
      2676.62      0.56124952      0.14316936
      2679.29      0.58619084      0.14373589
      2681.97      0.56442730      0.14486317
      2684.66      0.56822131      0.14267446
      2687.34      0.52869573      0.14131045
      2690.03      0.49687305      0.14090599
      2692.72      0.49289418      0.14004001
      2695.41      0.51847098      0.13902454
      2698.11      0.54620261      0.13932292
      2700.81      0.51793780      0.13858735
      2703.51      0.50604719      0.13840667
      2706.21      0.48910343      0.13846491
      2708.92      0.50237544      0.13844540
      2711.62      0.51713160      0.13912176
      2714.34      0.54384109      0.14034870
      2717.05      0.52981473      0.14119731
      2719.77      0.55187560      0.14131775
      2722.49      0.58701728      0.14006028
      2725.21      0.63808473      0.13958435
      2727.94      0.68434192      0.14007724
      2730.66      0.72821837      0.13954800
      2733.39      0.75662644      0.13960026
      2736.13      0.75063927      0.13989481
      2738.86      0.79456632      0.14013147
      2741.60      0.84860131      0.13988324
      2744.34      0.90052187      0.14087025
      2747.09      0.94587655      0.14069251
      2749.84       1.0036512      0.14174823
      2752.59       1.0363100      0.14160611
      2755.34       1.0694170      0.14208964
      2758.09       1.0656818      0.14257452
      2760.85       1.0453142      0.14306647
      2763.61       1.0914354      0.14309465
      2766.38       1.1228262      0.14402748
      2769.14       1.1537742      0.14400600
      2771.91       1.1651688      0.14443966
      2774.69       1.1638224      0.14533584
      2777.46       1.1952009      0.14520638
      2780.24       1.1928326      0.14552260
      2783.02       1.2080926      0.14509237
      2785.80       1.2081627      0.14606422
      2788.59       1.2234922      0.14627830
      2791.38       1.2334550      0.14638277
      2794.17       1.2327481      0.14638862
      2796.96       1.2518812      0.14636304
      2799.76       1.2853577      0.14693048
      2802.56       1.2820262      0.14758509
      2805.36       1.2769351      0.14888699
      2808.17       1.2822097      0.14811717
      2810.98       1.3401606      0.14790719
      2813.79       1.2601179      0.14609076
      2816.60       1.2642546      0.14493755
      2819.42       1.2209626      0.14393152
      2822.24       1.2207795      0.14283519
      2825.06       1.2815672      0.14210967
      2827.88       1.2787387      0.14090539
      2830.71       1.2478164      0.14102601
      2833.54       1.2260277      0.13991845
      2836.38       1.2334208      0.13938658
      2839.21       1.2620719      0.13950837
      2842.05       1.2091685      0.13851813
      2844.90       1.2271360      0.13805447
      2847.74       1.2485410      0.13725732
      2850.59       1.2488741      0.13728101
      2853.44       1.1970088      0.13652714
      2856.29       1.1326315      0.13614107
      2859.15       1.0844799      0.13579341
      2862.01       1.0796824      0.13552545
      2864.87       1.0772628      0.13523672
      2867.74       1.0944099      0.13449671
      2870.60       1.0816919      0.13480837
      2873.47       1.0775720      0.13468452
      2876.35       1.0059365      0.13406215
      2879.22      0.97911733      0.13458421
      2882.10      0.95617994      0.13502474
      2884.99      0.97808284      0.13630832
      2887.87      0.87510570      0.13682490
      2890.76      0.84108463      0.13571963
      2893.65      0.81560840      0.13676225
      2896.54      0.77316823      0.13504892
      2899.44      0.78450397      0.13356619
      2902.34      0.77284539      0.13225956
      2905.24      0.76343443      0.13174119
      2908.15      0.71521644      0.13143008
      2911.06      0.68723300      0.13122743
      2913.97      0.68520926      0.13063543
      2916.88      0.67476622      0.13135599
      2919.80      0.64468793      0.13091182
      2922.72      0.61568760      0.13116915
      2925.64      0.56664149      0.13154779
      2928.57      0.58210896      0.13170398
      2931.50      0.61196299      0.13228968
      2934.43      0.68173754      0.13305511
      2937.36      0.67294623      0.13195517
      2940.30      0.67831420      0.13089377
      2943.24      0.68568505      0.13036764
      2946.18      0.68357598      0.12980755
      2949.13      0.71317620      0.12968288
      2952.08      0.76549594      0.12910055
      2955.03      0.74621144      0.12945103
      2957.99      0.72984367      0.12926320
      2960.94      0.69595914      0.12862764
      2963.90      0.68152373      0.12840032
      2966.87      0.68182296      0.12815253
      2969.84      0.65864202      0.12800565
      2972.81      0.61003533      0.12772238
      2975.78      0.62288546      0.12742353
      2978.76      0.59358478      0.12673745
      2981.73      0.57791813      0.12641145
      2984.72      0.56699258      0.12660135
      2987.70      0.56444437      0.12590440
      2990.69      0.56915573      0.12555932
      2993.68      0.58032781      0.12489713
      2996.67      0.61169107      0.12409803
      2999.67      0.61270070      0.12432780
      3002.67      0.60628243      0.12407799
      3005.67      0.61954201      0.12330738
      3008.68      0.60572179      0.12311071
      3011.69      0.63100991      0.12295849
      3014.70      0.58629576      0.12272434
      3017.71      0.59194594      0.12264960
      3020.73      0.59978070      0.12264867
      3023.75      0.57043271      0.12208462
      3026.78      0.55891449      0.12220314
      3029.80      0.58545019      0.12243999
      3032.83      0.59637711      0.12245342
      3035.87      0.59831116      0.12123811
      3038.90      0.60290417      0.12007957
      3041.94      0.62163657      0.11928285
      3044.98      0.62679049      0.11858782
      3048.03      0.65851819      0.11820404
      3051.08      0.65512469      0.11823385
      3054.13      0.67158584      0.11756444
      3057.18      0.67835282      0.11719104
      3060.24      0.66786652      0.11682974
      3063.30      0.69107267      0.11610594
      3066.36      0.72130178      0.11577781
      3069.43      0.70153059      0.11547022
      3072.50      0.69904507      0.11562172
      3075.57      0.69738595      0.11496384
      3078.65      0.73045056      0.11471678
      3081.73      0.72298778      0.11450381
      3084.81      0.73701310      0.11397097
      3087.89      0.74048557      0.11381248
      3090.98      0.79940542      0.11369989
      3094.07      0.82546438      0.11400040
      3097.17      0.80427700      0.11355572
      3100.26      0.81029595      0.11358181
      3103.36      0.82071342      0.11368123
      3106.47      0.82984279      0.11386531
      3109.58      0.83601166      0.11356221
      3112.68      0.80454207      0.11390446
      3115.80      0.84265158      0.11437108
      3118.91      0.84773809      0.11457191
      3122.03      0.84812282      0.11367375
      3125.15      0.86472462      0.11281710
      3128.28      0.88403284      0.11236825
      3131.41      0.91279474      0.11192760
      3134.54      0.89110998      0.11185976
      3137.67      0.90628184      0.11179556
      3140.81      0.90555812      0.11173495
      3143.95      0.90067899      0.11130717
      3147.10      0.88845621      0.11163460
      3150.24      0.89661764      0.11157841
      3153.39      0.91772656      0.11152576
      3156.55      0.92535689      0.11111308
      3159.70      0.93364939      0.11106221
      3162.86      0.93974861      0.11101484
      3166.03      0.94446590      0.11097090
      3169.19       1.0102517      0.11093044
      3172.36       1.0367724      0.11052596
      3175.54       1.0555831      0.11049166
      3178.71       1.0373318      0.11046069
      3181.89       1.0577128      0.11080459
      3185.07       1.0713428      0.11080049
      3188.26       1.0682803      0.11067140
      3191.45       1.0819538      0.11056287
      3194.64       1.0812538      0.11047332
      3197.83       1.0095673      0.11040128
      3201.03       1.0372220      0.10998466
      3204.23       1.0227583      0.10994422
      3207.44       1.0299102      0.10991725
      3210.64       1.0307429      0.10990268
      3213.85       1.0432406      0.10953446
      3217.07       1.0386508      0.10953628
      3220.28       1.0720856      0.10954778
      3223.51       1.0700428      0.10956813
      3226.73       1.0952506      0.10959657
      3229.96       1.1220374      0.10962583
      3233.19       1.1087418      0.10966196
      3236.42       1.1247818      0.10970452
      3239.66       1.1419924      0.10975288
      3242.90       1.1364841      0.10980638
      3246.14       1.1113959      0.10950104
      3249.39       1.1035605      0.10956178
      3252.64       1.0996555      0.10962607
      3255.89       1.1021329      0.10969339
      3259.14       1.1125999      0.10976331
      3262.40       1.0758419      0.10983540
      3265.67       1.0765973      0.10952840
      3268.93       1.0705382      0.10959997
      3272.20       1.0666787      0.10967274
      3275.47       1.0670114      0.10974636
      3278.75       1.1055946      0.10982051
      3282.03       1.1034197      0.10952482
      3285.31       1.0794613      0.10959827
      3288.60       1.0682390      0.10967154
      3291.88       1.0766311      0.10974444
      3295.18       1.0547166      0.10981676
      3298.47       1.0231459      0.10988837
      3301.77       1.0529326      0.10958063
      3305.07       1.0459397      0.10964855
      3308.38       1.0274989      0.10971556
      3311.69       1.0159588      0.10978359
      3315.00       1.0021130      0.10984971
      3318.31      0.96021593      0.10991471
      3321.63      0.95430616      0.10997863
      3324.95      0.97080827      0.10965411
      3328.28      0.99549531      0.10971590
      3331.61      0.99477868      0.10977681
      3334.94       1.0121421      0.10983690
      3338.27       1.0169768      0.10989630
      3341.61      0.98708087      0.10995515
      3344.95      0.97728065      0.11001361
      3348.30      0.94620465      0.10970231
      3351.65      0.90506332      0.10975971
      3355.00      0.90800249      0.10981733
      3358.35      0.90471467      0.10987542
      3361.71      0.88968474      0.10993421
      3365.07      0.89124982      0.10999402
      3368.44      0.90631946      0.11005514
      3371.81      0.90019537      0.11011792
      3375.18      0.89067936      0.10980361
      3378.56      0.88295838      0.10987040
      3381.94      0.89570636      0.10993985
      3385.32      0.88512221      0.11001238
      3388.70      0.88835394      0.11008840
      3392.09      0.85665820      0.11016839
      3395.48      0.86105387      0.11025288
      3398.88      0.85815936      0.11003567
      3402.28      0.84380734      0.11013091
      3405.68      0.84549746      0.10985010
      3409.09      0.90468964      0.10995563
      3412.49      0.91365164      0.11006812
      3415.91      0.89357962      0.11018819
      3419.32      0.86431832      0.11031658
      3422.74      0.88200206      0.11045406
      3426.17      0.91443721      0.11060140
      3429.59      0.93306365      0.11075949
      3433.02      0.93331990      0.11092932
      3436.45      0.91709108      0.11111183
      3439.89      0.92472364      0.11088479
      3443.33      0.93370036      0.11108598
      3446.78      0.95164827      0.11130245
      3450.22      0.94309666      0.11078870
      3453.67      0.95228810      0.11092100
      3457.13      0.95098885      0.11105369
      3460.58      0.96564909      0.11118671
      3464.04       1.0047775      0.11131993
      3467.51      0.98163080      0.11145328
      3470.98      0.99587634      0.11158669
      3474.45      0.99709678      0.11172004
      3477.92       1.0132887      0.11185326
      3481.40       1.0365011      0.11198624
      3484.88       1.0641048      0.11211892
      3488.37       1.0623471      0.11194326
      3491.86       1.0617350      0.11168832
      3495.35       1.0759316      0.11181843
      3498.84       1.0849518      0.11194787
      3502.34       1.0903379      0.11207655
      3505.84       1.0919555      0.11220438
      3509.35       1.0806308      0.11233126
      3512.86       1.0860459      0.11245712
      3516.37       1.0762490      0.11226799
      3519.89       1.0881076      0.11238972
      3523.41       1.0558469      0.11251009
      3526.93       1.0543843      0.11262903
      3530.46       1.0250853      0.11274640
      3533.99       1.0242926      0.11286214
      3537.53       1.0103461      0.11297615
      3541.06       1.0257401      0.11308834
      3544.60       1.0192715      0.11288160
      3548.15       1.0359900      0.11298890
      3551.70       1.0303647      0.11309410
      3555.25       1.0121378      0.11319710
      3558.80       1.0031424      0.11329780
      3562.36       1.0048616      0.11339614
      3565.92      0.96803647      0.11349196
      3569.49      0.94209131      0.11326558
      3573.06      0.96905974      0.11335351
      3576.64      0.94451182      0.11343865
      3580.21      0.90626794      0.11352091
      3583.79      0.89823850      0.11360021
      3587.38      0.90757990      0.11367645
      3590.96      0.94144441      0.11342383
      3594.55      0.97730076      0.11349256
      3598.15      0.98301213      0.11355797
      3601.75      0.98867943      0.11361997
      3605.35      0.95668166      0.11367850
      3608.96      0.97426674      0.11373347
      3612.56      0.94612432      0.11345588
      3616.18      0.91032742      0.11350013
      3619.79      0.92630584      0.11354052
      3623.41      0.93683372      0.11357696
      3627.04      0.95456280      0.11360937
      3630.66       1.0228529      0.11330365
      3634.29       1.0580655      0.11332653
      3637.93       1.0562143      0.11334513
      3641.57       1.0587182      0.11335940
      3645.21       1.0321572      0.11336927
      3648.86       1.0185836      0.11303620
      3652.50       1.0078307      0.11303331
      3656.16       1.0182851      0.11302576
      3659.81       1.0690529      0.11301350
      3663.47       1.0531157      0.11299651
      3667.14       1.0850659      0.11263298
      3670.80       1.1095777      0.11260506
      3674.48       1.1476721      0.11257225
      3678.15       1.2032277      0.11253450
      3681.83       1.2365334      0.11249181
      3685.51       1.2757427      0.11209153
      3689.20       1.3039746      0.11203474
      3692.88       1.2755941      0.11229525
      3696.58       1.2775948      0.11222684
      3700.27       1.3189507      0.11180312
      3703.98       1.3410903      0.11172033
      3707.68       1.3367948      0.11163238
      3711.39       1.3567947      0.11153930
      3715.10       1.3704887      0.11108820
      3718.81       1.3871463      0.11098380
      3722.53       1.3903026      0.11087432
      3726.26       1.4198913      0.11075978
      3729.98       1.4289020      0.11028066
      3733.71       1.4289996      0.11015191
      3737.45       1.4249541      0.11001815
      3741.18       1.4068928      0.10987948
      3744.93       1.4120005      0.10967046
      3748.67       1.4230287      0.10951611
      3752.42       1.4260375      0.10935696
      3756.17       1.4426733      0.10919307
      3759.93       1.4129087      0.10866473
      3763.69       1.3930762      0.10849074
      3767.45       1.3832870      0.10831221
      3771.22       1.3735691      0.10812921
      3774.99       1.3663310      0.10757332
      3778.77       1.3929836      0.10737739
      3782.54       1.4031793      0.10744552
      3786.33       1.3755924      0.10687590
      3790.11       1.3723660      0.10666145
      3793.90       1.3753408      0.10644295
      3797.70       1.3372116      0.10622047
      3801.50       1.3246242      0.10563198
      3805.30       1.3205660      0.10540132
      3809.10       1.3008887      0.10516695
      3812.91       1.2661102      0.10455926
      3816.73       1.2762850      0.10455938
      3820.54       1.2748225      0.10430846
      3824.36       1.2641764      0.10368916
      3828.19       1.2559189      0.10342747
      3832.02       1.2382445      0.10316252
      3835.85       1.1919225      0.10289444
      3839.68       1.1432707      0.10226247
      3843.52       1.1329071      0.10221320
      3847.37       1.1166864      0.10193031
      3851.22       1.1133650      0.10128322
      3855.07       1.1164078      0.10099466
      3858.92       1.1197977      0.10070345
      3862.78       1.1373685      0.10004265
      3866.64       1.1440814     0.099742411
      3870.51       1.1254129     0.099654403
      3874.38       1.1328765     0.098984983
      3878.26       1.1375437     0.098672171
      3882.13       1.1222962     0.098357189
      3886.02       1.1165087     0.097683812
      3889.90       1.1119962     0.097364921
      3893.79       1.1188235     0.097604227
      3897.69       1.1066442     0.098033416
      3901.59       1.0821853     0.098498325
      3905.49       1.1214661     0.096914799
      3909.39       1.1035029     0.096176234
      3913.30       1.1197004     0.095529891
      3917.22       1.1499389     0.094649681
      3921.13       1.1344086     0.094168565
      3925.06       1.1430969     0.093738060
      3928.98       1.1579914     0.092961214
      3932.91       1.1410635     0.092624002
      3936.84       1.1327700     0.092473799
      3940.78       1.1512126     0.091835657
      3944.72       1.1753058     0.091577208
      3948.67       1.1789241     0.091021314
      3952.61       1.1904564     0.090792708
      3956.57       1.2392311     0.090717841
      3960.52       1.2524862     0.090208498
      3964.48       1.2249062     0.089999613
      3968.45       1.2574466     0.089462992
      3972.42       1.2450643     0.089256936
      3976.39       1.2158572     0.089228706
      3980.37       1.2082536     0.088679055
      3984.35       1.1959735     0.088460814
      3988.33       1.1854189     0.087930706
      3992.32       1.1592512     0.087694224
      3996.31       1.1288961     0.087594565
      4000.31       1.1234055     0.087024650
      4004.31       1.1399118     0.086757126
      4008.31       1.1307173     0.086123538
      4012.32       1.1294625     0.086002603
      4016.33       1.1443853     0.085697904
      4020.35       1.1478743     0.085016493
      4024.37       1.1475470     0.084689803
      4028.40       1.1414211     0.084130021
      4032.42       1.1195649     0.083773797
      4036.46       1.1067604     0.083051428
      4040.50       1.1052430     0.082668336
      4044.54       1.0858034     0.082037291
      4048.58       1.0750615     0.081627298
      4052.63       1.1175849     0.081146727
      4056.68       1.1488912     0.080363033
      4060.74       1.1078709     0.080019325
      4064.80       1.0738709     0.079215032
      4068.86       1.0758924     0.078727196
      4072.93       1.1148019     0.077881222
      4077.01       1.1443510     0.077519963
      4081.08       1.1391301     0.076663632
      4085.17       1.1262755     0.076150586
      4089.25       1.0984699     0.075420882
      4093.34       1.0470911     0.074899120
      4097.43       1.0220634     0.074376847
      4101.53       1.0171735     0.073555390
      4105.63       1.0044657     0.073109208
      4109.74       1.0122543     0.072291441
      4113.85       1.0380900     0.071771633
      4117.96       1.0764721     0.071030604
      4122.08       1.0902118     0.070512999
      4126.20       1.1204073     0.069679385
      4130.33       1.1155417     0.069168663
      4134.46       1.1065028     0.068449728
      4138.59       1.1301577     0.067946439
      4142.73       1.1538909     0.067180089
      4146.88       1.1515742     0.066749236
      4151.02       1.1430874     0.065998028
      4155.18       1.1528513     0.065519678
      4159.33       1.1574012     0.064847958
      4163.49       1.1659934     0.064382989
      4167.65       1.1804392     0.063643827
      4171.82       1.1743653     0.063285352
      4175.99       1.1608851     0.062570690
      4180.17       1.1546098     0.062137729
      4184.35       1.1347713     0.061543147
      4188.54       1.1315484     0.060873379
      4192.72       1.1113354     0.060469056
      4196.92       1.0791442     0.059915569
      4201.11       1.0700865     0.059532973
      4205.31       1.0683015     0.058907766
      4209.52       1.0596812     0.058657851
      4213.73       1.0631441     0.058062777
      4217.94       1.0533935     0.057592348
      4222.16       1.0319982     0.056770230
      4226.38       1.0190589     0.056225549
      4230.61      0.98785583     0.055549191
      4234.84      0.99223031     0.055180429
      4239.08      0.98914031     0.054505256
      4243.32      0.98095569     0.053825893
      4247.56      0.98279861     0.053459515
      4251.81      0.96804318     0.052781899
      4256.06      0.95897144     0.052412315
      4260.32      0.96541002     0.051736593
      4264.58      0.96552453     0.051316712
      4268.84      0.94301919     0.050690473
      4273.11      0.92361419     0.050027485
      4277.38      0.93919397     0.049610252
      4281.66      0.96164606     0.048984028
      4285.94      0.96159684     0.048566977
      4290.23      0.96569025     0.047941575
      4294.52      0.94551816     0.047280697
      4298.81      0.93828947     0.046863788
      4303.11      0.94471514     0.046243870
      4307.42      0.93570925     0.045828252
      4311.72      0.93631404     0.045210614
      4316.04      0.93611551     0.044572556
      4320.35      0.91464645     0.044162954
      4324.67      0.91881632     0.043550356
      4329.00      0.92837210     0.043143487
      4333.33      0.92236357     0.042535269
      4337.66      0.90976060     0.041904059
      4342.00      0.90949403     0.041501813
      4346.34      0.90368208     0.040905092
      4350.69      0.89122121     0.040507335
      4355.04      0.89608171     0.039917449
      4359.39      0.90098152     0.039324171
      4363.75      0.90919270     0.038942935
      4368.12      0.92070428     0.038360577
      4372.48      0.93170202     0.037769278
      4376.86      0.94231978     0.037412991
      4381.23      0.95681104     0.036833012
      4385.61      0.97599484     0.036282002
      4390.00      0.97902313     0.035915658
      4394.39      0.98841527     0.035376591
      4398.79      0.97404185     0.034844824
      4403.18      0.98253942     0.034493103
      4407.59      0.99336689     0.033976727
      4412.00      0.99025615     0.033636997
      4416.41      0.97303032     0.033133283
      4420.82      0.98866085     0.032623711
      4425.25       1.0047029     0.032316183
      4429.67       1.0031817     0.031823132
      4434.10       1.0071632     0.031357679
      4438.54       1.0007430     0.030906464
      4442.97       1.0118467     0.030603401
      4447.42       1.0200248     0.030171023
      4451.86       1.0073317     0.029745106
      4456.32       1.0042795     0.029467158
      4460.77      0.99930744     0.029060299
      4465.24       1.0138340     0.028650616
      4469.70       1.0258870     0.028408909
      4474.17       1.0370600     0.028018897
      4478.65       1.0421314     0.027657888
      4483.12       1.0455904     0.027421937
      4487.61       1.0484143     0.027081602
      4492.09       1.0541950     0.026754820
      4496.59       1.0696433     0.026438861
      4501.08       1.0784276     0.026234904
      4505.58       1.0861941     0.025939995
      4510.09       1.0838942     0.025639957
      4514.60       1.0851835     0.025477386
      4519.12       1.1060629     0.025197516
      4523.63       1.1080899     0.024950566
      4528.16       1.1046015     0.024710016
      4532.69       1.1138592     0.024566288
      4537.22       1.1239252     0.024346068
      4541.76       1.1333093     0.024145291
      4546.30       1.1430052     0.023934175
      4550.85       1.1435420     0.023840572
      4555.40       1.1382428     0.023649737
      4559.95       1.1391706     0.023498065
      4564.51       1.1389811     0.023360636
      4569.08       1.1403262     0.023274346
      4573.65       1.1478305     0.023159643
      4578.22       1.1491118     0.023034906
      4582.80       1.1571404     0.022945605
      4587.38       1.1592727     0.022893890
      4591.97       1.1588928     0.022827913
      4596.56       1.1636447     0.022739895
      4601.16       1.1647191     0.022702081
      4605.76       1.1697092     0.022679296
      4610.37       1.1708704     0.022669819
      4614.98       1.1693637     0.022671134
      4619.59       1.1691557     0.022641848
      4624.21       1.1676667     0.022669345
      4628.84       1.1684448     0.022727965
      4633.47       1.1627816     0.022771857
      4638.10       1.1511089     0.022832581
      4642.74       1.1387258     0.022882597
      4647.38       1.1246814     0.022963930
      4652.03       1.1228150     0.023029830
      4656.68       1.1204475     0.023139866
      4661.34       1.1101759     0.023267579
      4666.00       1.1095179     0.023339175
      4670.67       1.1006783     0.023496431
      4675.33       1.0883729     0.023603642
      4680.01       1.0890478     0.023799209
      4684.69       1.0803730     0.024000696
      4689.38       1.0709792     0.024144347
      4694.07       1.0666191     0.024376077
      4698.76       1.0617250     0.024524606
      4703.46       1.0553248     0.024783046
      4708.16       1.0530331     0.025072948
      4712.87       1.0529199     0.025251868
      4717.58       1.0453116     0.025550909
      4722.30       1.0408522     0.025865152
      4727.03       1.0318017     0.026097373
      4731.75       1.0254036     0.026437681
      4736.48       1.0192780     0.026674565
      4741.22       1.0061429     0.027037603
      4745.96      0.99522206     0.027414491
      4750.71      0.98109225     0.027664325
      4755.46      0.96112926     0.028062698
      4760.22      0.93810684     0.028473940
      4764.97      0.93823155     0.028774483
      4769.74      0.93092554     0.029206311
      4774.51      0.91007837     0.029632886
      4779.29      0.90173717     0.029953060
      4784.07      0.90475818     0.030413858
      4788.85      0.88119841     0.030884961
      4793.64      0.85980881     0.031194558
      4798.43      0.85181614     0.031680282
      4803.23      0.84636272     0.032174697
      4808.03      0.84489771     0.032523233
      4812.84      0.84049449     0.033055476
      4817.66      0.82990025     0.033568461
      4822.48      0.84005236     0.033911321
      4827.30      0.85727751     0.034455732
      4832.12      0.87184631     0.034981713
      4836.96      0.86830304     0.035314829
      4841.79      0.86157749     0.035844608
      4846.63      0.86114061     0.036376421
      4851.48      0.87602816     0.036909244
      4856.33      0.88085602     0.037257942
      4861.19      0.88856486     0.037787488
      4866.05      0.90272471     0.038315056
      4870.92      0.90086099     0.038636894
      4875.79      0.89384339     0.039156483
      4880.66      0.89893370     0.039671162
      4885.55      0.91771348     0.040179883
      4890.43      0.92308252     0.040510602
      4895.32      0.90412822     0.041006565
      4900.22      0.91037905     0.041494048
      4905.12      0.92829893     0.041781194
      4910.02      0.92646126     0.042249611
      4914.94      0.91708263     0.042707456
      4919.85      0.91035901     0.043154130
      4924.77      0.90282834     0.043400019
      4929.70      0.91662078     0.043824153
      4934.62      0.94050734     0.044235956
      4939.56      0.95871949     0.044635208
      4944.50      0.97238183     0.044838691
      4949.44      0.99019280     0.045213821
      4954.39      0.99366478     0.045576506
      4959.35       1.0076063     0.045927008
      4964.31       1.0121336     0.046091037
      4969.27       1.0159490     0.046419072
      4974.24       1.0171942     0.046736314
      4979.22       1.0107425     0.047043562
      4984.20       1.0120296     0.047341804
      4989.18       1.0018063     0.047455213
      4994.17      0.99205084     0.047738053
      4999.16      0.98153766     0.048015366
      5004.16      0.97233307     0.048288817
      5009.17      0.96721043     0.048380668
      5014.18      0.98193212     0.048445849
      5019.19      0.97592384     0.048647373
      5024.21      0.97248855     0.048838962
      5029.23      0.99181666     0.048864137
      5034.26       1.0128916     0.048843214
      5039.30       1.0352758     0.048950917
      5044.34       1.0443911     0.049042168
      5049.39       1.0460560     0.049451391
      5054.43       1.0339273     0.049514846
      5059.49       1.0188936     0.049427225
      5064.55       1.0243604     0.049237670
      5069.61       1.0242264     0.049172815
      5074.68       1.0190753     0.049114533
      5079.76      0.99739123     0.049061002
      5084.84      0.99250259     0.049010627
      5089.92      0.99426223     0.048859858
      5095.01      0.99269808     0.048814574
      5100.11      0.98856173     0.048768569
      5105.21      0.99307982     0.048720944
      5110.31       1.0031083     0.048670881
      5115.42       1.0176925     0.048617672
      5120.54       1.0279998     0.048560656
      5125.66       1.0479084     0.048287918
      5130.79       1.0473092     0.048222276
      5135.92       1.0588104     0.048151019
      5141.05       1.0500249     0.048073771
      5146.20       1.0492215     0.047990201
      5151.34       1.0530800     0.047900026
      5156.49       1.0594980     0.047803041
      5161.65       1.0592117     0.047615156
      5166.81       1.0562134     0.047505278
      5171.98       1.0592291     0.047261847
      5177.15       1.0681384     0.047136260
      5182.33       1.0560112     0.047003506
      5187.51       1.0747658     0.046863712
      5192.70       1.0903544     0.046717002
      5197.89       1.0801903     0.046563552
      5203.09       1.0709617     0.046403584
      5208.29       1.0622001     0.046168107
      5213.50       1.0855208     0.045862293
      5218.72       1.0643593     0.045685326
      5223.93       1.0717380     0.045503217
      5229.16       1.0838900     0.045316427
      5234.39       1.0761275     0.045125267
      5239.62       1.0779891     0.045349502
      5244.86       1.0774443     0.045578900
      5250.11       1.0661201     0.045128514
      5255.36       1.0612976     0.044638038
      5260.61       1.0612913     0.044285327
      5265.87       1.0732052     0.043966330
      5271.14       1.0739502     0.043676237
      5276.41       1.0810584     0.043660633
      5281.69       1.0836721     0.043642603
      5286.97       1.0927401     0.043251686
      5292.26       1.1148769     0.042915777
      5297.55       1.1298938     0.042625591
      5302.85       1.1269061     0.042231047
      5308.15       1.1341284     0.042022828
      5313.46       1.1463333     0.041841507
      5318.77       1.1581809     0.041683806
      5324.09       1.1636760     0.041547067
      5329.42       1.1980782     0.041333648
      5334.75       1.2054443     0.041236337
      5340.08       1.2163466     0.041154150
      5345.42       1.2312881     0.041085967
      5350.77       1.2342152     0.040948254
      5356.12       1.2396572     0.040907838
      5361.48       1.2351468     0.040878898
      5366.83       1.2362260     0.040861008
      5372.20       1.2236965     0.040853928
      5377.58       1.2083995     0.040781411
      5382.95       1.1994661     0.040796185
      5388.34       1.2034289     0.040821384
      5393.72       1.1976043     0.040857087
      5399.12       1.2049792     0.040837122
      5404.52       1.2013996     0.040894751
      5409.92       1.2043445     0.040963584
      5415.33       1.2036306     0.041110147
      5420.75       1.1989179     0.041422262
      5426.17       1.2035507     0.041543849
      5431.60       1.2122580     0.041581684
      5437.03       1.2137997     0.041550441
      5442.47       1.2180462     0.041644120
      5447.91       1.2022479     0.041763805
      5453.36       1.1720120     0.041821165
      5458.81       1.1463452     0.042057276
      5464.27       1.1173886     0.042271202
      5469.73       1.1040963     0.042081092
      5475.20       1.0899575     0.041944066
      5480.68       1.0886721     0.042074773
      5486.16       1.0708159     0.042214386
      5491.65       1.0740078     0.042288344
      5497.14       1.0684678     0.042555734
      5502.64       1.0715988     0.042719912
      5508.14       1.0577787     0.042854357
      5513.65       1.0462295     0.043036223
      5519.16       1.0361430     0.043226457
      5524.68       1.0180114     0.043391286
      5530.20       1.0081739     0.043600079
      5535.73      0.99465811     0.043817795
      5541.27      0.96776042     0.044019488
      5546.81      0.94461899     0.044257082
      5552.36      0.91855155     0.044504714
      5557.91      0.90367061     0.044736514
      5563.47      0.87871947     0.045142922
      5569.04      0.87038042     0.045426802
      5574.60      0.84546285     0.045700000
      5580.18      0.83415835     0.046011043
      5585.76      0.82334121     0.046336662
      5591.35      0.81775885     0.046675411
      5596.94      0.80646714     0.047034927
      5602.53      0.79318030     0.047393637
      5608.14      0.76857865     0.047792924
      5613.75      0.77055693     0.048398423
      5619.36      0.74343052     0.048834559
      5624.98      0.72008706     0.049589780
      5630.60      0.70628493     0.050161829
      5636.23      0.69797794     0.050718595
      5641.87      0.69916325     0.051320090
      5647.51      0.65451379     0.051959844
      5653.16      0.67155556     0.053015359
      5658.82      0.65487448     0.053820275
      5664.47      0.62709448     0.054746142
      5670.14      0.64493827     0.055804327
      5675.81      0.64927332     0.055665546
      5681.48      0.64868900     0.055565121
      5687.17      0.65517574     0.055988501
      5692.85      0.67889837     0.056972650
      5698.55      0.69391567     0.057759435
      5704.25      0.68480096     0.058574581
      5709.95      0.69119956     0.059446079
      5715.66      0.68624550     0.059628366
      5721.38      0.70704823     0.059746625
      5727.10      0.72503670     0.060328952
      5732.83      0.72759506     0.060915206
      5738.56      0.74719423     0.061461090
      5744.30      0.77679362     0.062033994
      5750.04      0.82965113     0.062802218
      5755.79      0.84038339     0.063355859
      5761.55      0.85547883     0.063868786
      5767.31      0.88612005     0.064400804
      5773.08      0.87362933     0.064877264
      5778.85      0.88978886     0.065624527
      5784.63      0.88675384     0.066073169
      5790.41      0.86188755     0.066563894
      5796.21      0.87234141     0.067105032
      5802.00      0.86259410     0.068007580
      5807.81      0.83368489     0.068298996
      5813.61      0.82050815     0.068994727
      5819.43      0.84707691     0.069556030
      5825.25      0.85889333     0.069817279
      5831.07      0.89940467     0.070227187
      5836.90      0.91262185     0.070593154
      5842.74      0.94607780     0.070870934
      5848.58      0.90556949     0.071327202
      5854.43      0.90137242     0.071998005
      5860.29      0.92108996     0.072575846
      5866.15      0.95027483     0.072771350
      5872.01      0.95408361     0.072484918
      5877.89      0.96519882     0.072452363
      5883.76      0.95289519     0.072714169
      5889.65      0.96331649     0.072825068
      5895.54      0.97514896     0.073100842
      5901.43      0.99969222     0.073304351
      5907.34       1.0216266     0.073369044
      5913.24       1.0514276     0.073679379
      5919.16       1.0341431     0.073687589
      5925.08       1.0163113     0.073799376
      5931.00       1.0119005     0.073737629
      5936.93       1.0623785     0.073799563
      5942.87       1.0385434     0.073841345
      5948.81       1.0128158     0.073709616
      5954.76      0.99853664     0.073837430
      5960.72      0.98824964     0.073653036
      5966.68       1.0009889     0.073449715
      5972.64       1.0072816     0.073502560
      5978.62      0.98057912     0.073263155
      5984.60      0.99684711     0.073172329
      5990.58      0.99518415     0.073002757
      5996.57      0.98586580     0.072702601
      6002.57      0.97558196     0.072572438
      6008.57      0.97480205     0.072358489
      6014.58      0.96291729     0.072211211
      6020.60      0.98104364     0.071915312
      6026.62      0.97836634     0.071677853
      6032.65      0.92374714     0.071521052
      6038.68      0.91880836     0.070851337
      6044.72      0.91165227     0.070165472
      6050.76      0.87369575     0.069953585
      6056.81      0.82463022     0.069723596
      6062.87      0.79554683     0.069441397
      6068.93      0.79456826     0.069255445
      6075.00      0.78377141     0.069069057
      6081.08      0.74660744     0.068772923
      6087.16      0.73156799     0.068769144
      6093.25      0.69606083     0.068527206
      6099.34      0.68836067     0.068373854
      6105.44      0.69360648     0.068394889
      6111.54      0.68372874     0.068306075
      6117.66      0.68599911     0.068362180
      6123.78      0.67989542     0.068393509
      6129.90      0.67545741     0.068412477
      6136.03      0.66052740     0.068642096
      6142.17      0.66696919     0.068777995
      6148.31      0.65658881     0.069165924
      6154.46      0.66703882     0.069411236
      6160.61      0.66938866     0.069772837
      6166.77      0.68021128     0.070308980
      6172.94      0.67157850     0.070828459
      6179.11      0.69203517     0.071608788
      6185.29      0.70635037     0.072185297
      6191.48      0.72728306     0.073163016
      6197.67      0.73072103     0.073889381
      6203.87      0.74409023     0.075070524
      6210.07      0.72993883     0.075608897
      6216.28      0.70786188     0.076409382
      6222.50      0.70360401     0.077827498
      6228.72      0.66187793     0.079158906
      6234.95      0.64826406     0.080883041
      6241.19      0.65185025     0.082255760
      6247.42      0.63952931     0.084297576
      6253.67      0.62063034     0.085934093
      6259.93      0.59807195     0.088365333
      6266.19      0.56672277     0.090341279
      6272.46      0.58249989     0.093299103
      6278.73      0.57839112     0.095155458
      6285.01      0.58431677     0.095650000
      6291.29      0.61878456     0.098120862
      6297.58      0.64440781     0.099171266
      6303.88      0.64613842     0.099744830
      6310.19      0.68511303      0.10232476
      6316.50      0.69212590      0.10436036
      6322.81      0.68057796      0.10710693
      6329.14      0.66393535      0.10949003
      6335.47      0.75345085      0.11218091
      6341.80      0.81662452      0.11468041
      6348.14      0.86659395      0.11775073
      6354.49      0.86993638      0.12091074
      6360.85      0.91171996      0.12336545
      6367.21      0.94153751      0.12667255
      6373.57      0.98821292      0.12923092
      6379.95      0.97068672      0.13266388
      6386.33      0.95377379      0.13548061
      6392.72      0.91866563      0.13900929
      6399.11      0.93398654      0.14169741
      6405.51      0.87592336      0.14529065
      6411.92      0.95705207      0.14890576
      6418.32       1.0769369      0.15164644
      6424.74       1.1690863      0.15525667
      6431.17       1.0800528      0.15802738
      6437.60       1.2268925      0.16155255
      6444.04       1.3108449      0.16409309
      6450.48       1.2936213      0.16746939
      6456.94       1.3068355      0.17109036
      6463.39       1.2880666      0.17329508
      6469.85       1.1724675      0.17633629
      6476.33       1.1959133      0.17827897
      6482.80       1.2553335      0.18090078
      6489.28       1.3094220      0.18332515
      6495.77       1.3050992      0.18479300
      6502.27       1.3015562      0.18681193
      6508.77       1.3290297      0.18859645
      6515.28       1.3723832      0.18941782
      6521.80       1.2459742      0.19074739
      6528.32       1.1491207      0.19128692
      6534.85       1.2497063      0.19217936
      6541.38       1.2519827      0.19284126
      6547.92       1.1751052      0.19271338
      6554.47       1.1700132      0.19297673
      6561.03       1.1633020      0.19304405
      6567.59       1.1056280      0.19263103
      6574.16       1.1382010      0.19270392
      6580.73       1.1364261      0.19401280
      6587.31       1.1726186      0.19340636
      6593.90       1.2044350      0.19254026
      6600.50       1.2344564      0.19160449
      6607.10       1.2212652      0.19051901
      6613.70       1.2316914      0.18951276
      6620.32       1.2189301      0.18847702
      6626.94       1.2023000      0.18797075
      6633.57       1.1794823      0.18864428
      6640.20       1.2005796      0.18933907
      6646.84       1.2434024      0.19007094
      6653.49       1.2381665      0.19095943
      6660.14       1.2288578      0.19185369
      6666.80       1.1619943      0.19285053
      6673.47       1.1403393      0.19365519
      6680.14       1.0417318      0.19493929
      6686.82       1.0830996      0.19643159
      6693.51       1.0654014      0.19818509
      6700.20       1.0305566      0.20056633
      6706.90      0.97855325      0.20307669
      6713.61      0.92102958      0.20610156
      6720.32      0.80005964      0.20910320
      6727.05      0.76442982      0.21277455
      6733.77      0.70942246      0.21770521
      6740.51      0.71340173      0.22215721
      6747.25      0.67258431      0.22725701
      6754.00      0.62468694      0.23237863
      6760.75      0.58861036      0.23897972
      6767.51      0.53629208      0.24653289
      6774.28      0.52947826      0.25515959
      6781.05      0.49134490      0.26703861
      6787.84      0.41536043      0.27848456
      6794.62      0.37114105      0.29147760
      6801.42      0.32282462      0.30621536
      6808.22      0.25501485      0.32289154
      6815.03      0.21521252      0.33945588
      6821.85      0.18349184      0.36037814
      6828.67      0.18346627      0.38391341
      6835.50      0.19760255      0.41038870
      6842.33      0.19403377      0.44012157
      6849.17      0.13870382      0.47796021
      6856.02     0.018178233      0.51561707
      6862.88    -0.069049416      0.55779936
      6869.74     0.071248159      0.60505454
      6876.61      0.20970561      0.65801390
      6883.49      0.49134558      0.71737220
