# starting wavelength =        2837.7803
# ending wavelength =        9164.5328
# O2 telluric scale =        0
# O2 telluric shift =        0
# H2O telluric scale =        0
# H2O telluric shift =        0
      2839.21      0.64084202      0.29175031
      2842.05      0.62664801      0.28515578
      2844.90      0.68630785      0.27919845
      2847.74      0.72473313      0.27329291
      2850.59      0.71369782      0.26779749
      2853.44      0.80100689      0.26293539
      2856.29      0.81124756      0.25556940
      2859.15      0.81094733      0.25013078
      2862.01      0.78032137      0.24488982
      2864.87      0.74547175      0.23931205
      2867.74      0.76661541      0.23395293
      2870.60      0.79787943      0.22905799
      2873.47      0.81754994      0.22410716
      2876.35      0.76525218      0.21960775
      2879.22      0.72510815      0.21388712
      2882.10      0.60620903      0.20990575
      2884.99      0.55708021      0.20617908
      2887.87      0.56188581      0.20260697
      2890.76      0.56798381      0.19867771
      2893.65      0.51933338      0.19481151
      2896.54      0.49293752      0.19163134
      2899.44      0.56231782      0.18716057
      2902.34      0.64497690      0.18501171
      2905.24      0.58359320      0.18257094
      2908.15      0.53107198      0.18010033
      2911.06      0.53841453      0.17802296
      2913.97      0.54296890      0.17541902
      2916.88      0.53933322      0.17285946
      2919.80      0.56944643      0.16957169
      2922.72      0.53111509      0.16713907
      2925.64      0.58143541      0.16523878
      2928.57      0.62211472      0.16292140
      2931.50      0.62784357      0.16054053
      2934.43      0.65303281      0.15852232
      2937.36      0.68019380      0.15478097
      2940.30      0.73174447      0.15266183
      2943.24      0.69042654      0.15002794
      2946.18      0.66623848      0.14725738
      2949.13      0.63746638      0.14475371
      2952.08      0.61844100      0.14228651
      2955.03      0.62548435      0.13904553
      2957.99      0.59737166      0.13615171
      2960.94      0.60282258      0.13300081
      2963.90      0.60470577      0.12993121
      2966.87      0.56680860      0.12705690
      2969.84      0.55090641      0.12477772
      2972.81      0.52480057      0.12162793
      2975.78      0.52168778      0.12017060
      2978.76      0.53977710      0.11865009
      2981.73      0.50505724      0.11730864
      2984.72      0.48776661      0.11654647
      2987.70      0.53628393      0.11482328
      2990.69      0.57882328      0.11452557
      2993.68      0.56717838      0.11375046
      2996.67      0.57281038      0.11338083
      2999.67      0.59862183      0.11243469
      3002.67      0.60901300      0.11125588
      3005.67      0.57325421      0.10942557
      3008.68      0.57733812      0.10786512
      3011.69      0.62948209      0.10650333
      3014.70      0.69111264      0.10482773
      3017.71      0.70652023      0.10249744
      3020.73      0.71852885      0.10062671
      3023.75      0.73925438     0.099112898
      3026.78      0.76793847     0.097534230
      3029.80      0.75883749     0.096335913
      3032.83      0.74978687     0.094459831
      3035.87      0.74917793     0.093261687
      3038.90      0.75191393     0.092644475
      3041.94      0.77599061     0.091806045
      3044.98      0.76865591     0.091265291
      3048.03      0.77127663     0.089970033
      3051.08      0.80319512     0.089664519
      3054.13      0.79069225     0.089280641
      3057.18      0.74294665     0.089342087
      3060.24      0.71782637     0.088334688
      3063.30      0.73627761     0.088064938
      3066.36      0.69887861     0.087336670
      3069.43      0.70431131     0.087012308
      3072.50      0.74249828     0.085825202
      3075.57      0.72170600     0.085686146
      3078.65      0.72061256     0.085260942
      3081.73      0.69661009     0.085380578
      3084.81      0.65536928     0.084546507
      3087.89      0.61910445     0.084563478
      3090.98      0.59751904     0.084095931
      3094.07      0.64006786     0.083944316
      3097.17      0.61947911     0.082795397
      3100.26      0.60006958     0.082508160
      3103.36      0.60897298     0.081794647
      3106.47      0.59318696     0.081427056
      3109.58      0.58327360     0.080692268
      3112.68      0.58663207     0.080225474
      3115.80      0.58415950     0.079921824
      3118.91      0.58346038     0.079023540
      3122.03      0.59512301     0.077708580
      3125.15      0.63162613     0.076805894
      3128.28      0.60322494     0.076257774
      3131.41      0.61222680     0.075715904
      3134.54      0.54692783     0.075501641
      3137.67      0.51897778     0.075536591
      3140.81      0.52432419     0.076007783
      3143.95      0.48890461     0.075898918
      3147.10      0.49958029     0.076532501
      3150.24      0.47792294     0.077335411
      3153.39      0.48948891     0.077562998
      3156.55      0.52549230     0.077745379
      3159.70      0.52494953     0.077756002
      3162.86      0.51944141     0.078021823
      3166.03      0.51419856     0.076791885
      3169.19      0.51704609     0.076274214
      3172.36      0.56211845     0.075380126
      3175.54      0.58457918     0.073438589
      3178.71      0.61667616     0.072343103
      3181.89      0.62157114     0.071158234
      3185.07      0.63884535     0.070305668
      3188.26      0.66955040     0.068969256
      3191.45      0.67823917     0.068142136
      3194.64      0.68987441     0.067675133
      3197.83      0.68963304     0.066725101
      3201.03      0.72193213     0.066709963
      3204.23      0.71270956     0.066778982
      3207.44      0.72656856     0.066277257
      3210.64      0.72736564     0.066633620
      3213.85      0.72758452     0.066761353
      3217.07      0.73035498     0.067060203
      3220.28      0.73208539     0.067831168
      3223.51      0.72152520     0.068069167
      3226.73      0.77148845     0.068281400
      3229.96      0.77081798     0.068817441
      3233.19      0.75379469     0.068826193
      3236.42      0.72920606     0.068579495
      3239.66      0.72043060     0.068206298
      3242.90      0.72115303     0.068093958
      3246.14      0.70891364     0.067334342
      3249.39      0.67904441     0.066701453
      3252.64      0.64055153     0.066475505
      3255.89      0.63234427     0.065601019
      3259.14      0.62910947     0.064919573
      3262.40      0.60247305     0.064466656
      3265.67      0.58941397     0.063487117
      3268.93      0.59114730     0.062807919
      3272.20      0.62456465     0.062070183
      3275.47      0.63378786     0.061880634
      3278.75      0.66811720     0.061516214
      3282.03      0.66958199     0.061285774
      3285.31      0.71108709     0.061673435
      3288.60      0.69524101     0.061724869
      3291.88      0.71753657     0.061777863
      3295.18      0.74965133     0.062079768
      3298.47      0.73533673     0.061338498
      3301.77      0.74447731     0.061359889
      3305.07      0.73096166     0.061353726
      3308.38      0.74242440     0.060652908
      3311.69      0.75720875     0.060815936
      3315.00      0.73892211     0.061022313
      3318.31      0.71774246     0.060930388
      3321.63      0.73552462     0.060934304
      3324.95      0.74474830     0.060991030
      3328.28      0.75208519     0.060878622
      3331.61      0.75657040     0.060368927
      3334.94      0.77438256     0.059279017
      3338.27      0.79400312     0.058953248
      3341.61      0.79675409     0.057690566
      3344.95      0.78387659     0.057317638
      3348.30      0.76806283     0.056459660
      3351.65      0.79887788     0.055505284
      3355.00      0.77945139     0.055475337
      3358.35      0.76036309     0.054793023
      3361.71      0.75599836     0.054891192
      3365.07      0.74067388     0.054172195
      3368.44      0.71123482     0.053711643
      3371.81      0.72444552     0.053388137
      3375.18      0.70202749     0.053136754
      3378.56      0.68404439     0.053266668
      3381.94      0.68427802     0.052573698
      3385.32      0.71499108     0.052329410
      3388.70      0.74272435     0.052292852
      3392.09      0.74397534     0.052396416
      3395.48      0.73158747     0.052099752
      3398.88      0.74276020     0.052572980
      3402.28      0.77136681     0.052698392
      3405.68      0.78598728     0.052405103
      3409.09      0.81091823     0.052772169
      3412.49      0.80012396     0.052128816
      3415.91      0.80799504     0.052177645
      3419.32      0.79265399     0.051672695
      3422.74      0.79379910     0.050728331
      3426.17      0.76344686     0.050435014
      3429.59      0.75608582     0.049427665
      3433.02      0.73072466     0.048646511
      3436.45      0.71568880     0.048273190
      3439.89      0.72636887     0.047436896
      3443.33      0.69833066     0.046985592
      3446.78      0.70393312     0.046588030
      3450.22      0.72129967     0.046055200
      3453.67      0.72987929     0.045679196
      3457.13      0.71542377     0.045506761
      3460.58      0.73183380     0.045421388
      3464.04      0.76115461     0.045496872
      3467.51      0.78932336     0.045371908
      3470.98      0.81693376     0.045870874
      3474.45      0.83108768     0.045759027
      3477.92      0.81548334     0.045705037
      3481.40      0.82766644     0.045851203
      3484.88      0.84497812     0.045129195
      3488.37      0.83856520     0.044611974
      3491.86      0.82961527     0.044447836
      3495.35      0.82480697     0.043675126
      3498.84      0.80739929     0.043275909
      3502.34      0.80933440     0.043043228
      3505.84      0.81844733     0.042943485
      3509.35      0.79858831     0.042874854
      3512.86      0.82522474     0.042703628
      3516.37      0.82866757     0.042158913
      3519.89      0.81362051     0.042166650
      3523.41      0.79084367     0.041859773
      3526.93      0.80443163     0.041396347
      3530.46      0.79348162     0.041463088
      3533.99      0.80118267     0.041399612
      3537.53      0.80246240     0.041524269
      3541.06      0.78087595     0.041451482
      3544.60      0.76338785     0.041978949
      3548.15      0.74804165     0.042271810
      3551.70      0.73271067     0.042223380
      3555.25      0.69361458     0.042477557
      3558.80      0.68612141     0.042683623
      3562.36      0.66839811     0.042783329
      3565.92      0.67763935     0.042827784
      3569.49      0.68553252     0.042888918
      3573.06      0.70842208     0.042914500
      3576.64      0.72726422     0.042877156
      3580.21      0.76848608     0.042832535
      3583.79      0.77119637     0.042778870
      3587.38      0.77144772     0.042384505
      3590.96      0.78508949     0.042269686
      3594.55      0.82361684     0.042520749
      3598.15      0.83275723     0.042531684
      3601.75      0.84718238     0.042317892
      3605.35      0.84812952     0.042392731
      3608.96      0.88026897     0.042397524
      3612.56      0.86578259     0.042636154
      3616.18      0.87053343     0.042262084
      3619.79      0.87485947     0.042135395
      3623.41      0.85939278     0.041947828
      3627.04      0.85737448     0.041734358
      3630.66      0.83401421     0.041516332
      3634.29      0.81915918     0.041174947
      3637.93      0.81422037     0.040762675
      3641.57      0.81635441     0.040297082
      3645.21      0.80788924     0.039901969
      3648.86      0.79312969     0.039387147
      3652.50      0.77773969     0.039423090
      3656.16      0.77727854     0.039235761
      3659.81      0.76458921     0.039137668
      3663.47      0.76345423     0.039155596
      3667.14      0.76016758     0.038913074
      3670.80      0.75394362     0.038931159
      3674.48      0.75479524     0.038928711
      3678.15      0.76591804     0.039142344
      3681.83      0.75335638     0.039087056
      3685.51      0.76403810     0.038825412
      3689.20      0.76428071     0.038865810
      3692.88      0.76336886     0.038972639
      3696.58      0.75454741     0.039085842
      3700.27      0.75583324     0.039156123
      3703.98      0.75858539     0.038956783
      3707.68      0.79637298     0.038992956
      3711.39      0.80800140     0.039171481
      3715.10      0.83602297     0.038964725
      3718.81      0.84793374     0.038641248
      3722.53      0.87299402     0.038211887
      3726.26      0.89115836     0.037547011
      3729.98      0.90227454     0.037139914
      3733.71      0.91666145     0.036778640
      3737.45      0.92331215     0.036447545
      3741.18      0.91565021     0.036193579
      3744.93      0.90431516     0.035968027
      3748.67      0.89486012     0.035732387
      3752.42      0.89052825     0.035536957
      3756.17      0.89766021     0.035325702
      3759.93      0.91485463     0.035188240
      3763.69      0.91368189     0.035106157
      3767.45      0.89353713     0.035052818
      3771.22      0.88290374     0.035039201
      3774.99      0.88055348     0.035074630
      3778.77      0.88153191     0.035137708
      3782.54      0.88670149     0.035182005
      3786.33      0.91031702     0.034968574
      3790.11      0.91534373     0.034933612
      3793.90      0.94813179     0.034858862
      3797.70      0.97589420     0.034773219
      3801.50      0.98129238     0.034683768
      3805.30       1.0005127     0.034559667
      3809.10      0.99047795     0.034353136
      3812.91      0.97316824     0.034177169
      3816.73      0.95914578     0.034102651
      3820.54      0.95856051     0.034065843
      3824.36      0.98240135     0.034016410
      3828.19      0.98951659     0.033799441
      3832.02      0.99941324     0.033846732
      3835.85      0.99124340     0.033867350
      3839.68      0.96806108     0.033882892
      3843.52      0.97479768     0.033915940
      3847.37      0.97487685     0.033898061
      3851.22      0.94385983     0.033857380
      3855.07      0.93917468     0.033832621
      3858.92      0.94375663     0.033824652
      3862.78      0.94455591     0.033755158
      3866.64      0.94586627     0.033715485
      3870.51      0.93827930     0.033757273
      3874.38      0.92492137     0.033821674
      3878.26      0.92287066     0.033885535
      3882.13      0.89901500     0.033891484
      3886.02      0.90756651     0.033875592
      3889.90      0.93265394     0.033890582
      3893.79      0.95156041     0.033894204
      3897.69      0.99132382     0.033898814
      3901.59       1.0189954     0.033984417
      3905.49       1.0432123     0.034145631
      3909.39       1.0597171     0.034161346
      3913.30       1.0820457     0.034423431
      3917.22       1.1220244     0.034692305
      3921.13       1.1420325     0.034906163
      3925.06       1.1703585     0.035076231
      3928.98       1.1911740     0.035201048
      3932.91       1.1928360     0.035280543
      3936.84       1.2094969     0.035249191
      3940.78       1.2038901     0.035132940
      3944.72       1.1987715     0.034991515
      3948.67       1.1923711     0.034785160
      3952.61       1.1715025     0.034333024
      3956.57       1.1832496     0.034149055
      3960.52       1.2003618     0.033986045
      3964.48       1.2157312     0.033817458
      3968.45       1.2221432     0.033669343
      3972.42       1.2375250     0.033554012
      3976.39       1.2417293     0.033450046
      3980.37       1.2492385     0.033366677
      3984.35       1.2782234     0.033129808
      3988.33       1.3054033     0.033136163
      3992.32       1.3249614     0.033363020
      3996.31       1.3520043     0.033396290
      4000.31       1.3662805     0.033416457
      4004.31       1.3650882     0.033451904
      4008.31       1.3599709     0.033524806
      4012.32       1.4046142     0.033426825
      4016.33       1.4200635     0.033535420
      4020.35       1.4161326     0.033662509
      4024.37       1.4385995     0.033770110
      4028.40       1.4546026     0.033874212
      4032.42       1.4857194     0.034169194
      4036.46       1.5075164     0.034005597
      4040.50       1.5171541     0.033988629
      4044.54       1.5274794     0.033932380
      4048.58       1.5336012     0.033842934
      4052.63       1.5372593     0.033730189
      4056.68       1.5463691     0.033400867
      4060.74       1.5273735     0.033314209
      4064.80       1.4681215     0.033426106
      4068.86       1.4516934     0.033350700
      4072.93       1.4159995     0.033098175
      4077.01       1.3768714     0.033042041
      4081.08       1.3179837     0.032985736
      4085.17       1.2846200     0.032921019
      4089.25       1.2528849     0.032854855
      4093.34       1.2223756     0.032794843
      4097.43       1.1841407     0.032732995
      4101.53       1.1907188     0.032683803
      4105.63       1.1807939     0.032662141
      4109.74       1.1826729     0.032435831
      4113.85       1.1829298     0.032389398
      4117.96       1.1767838     0.032545289
      4122.08       1.1769007     0.032512318
      4126.20       1.1798677     0.032284636
      4130.33       1.1956136     0.032253741
      4134.46       1.2179153     0.032237964
      4138.59       1.2268286     0.032243000
      4142.73       1.2267966     0.032246585
      4146.88       1.2477158     0.032257494
      4151.02       1.2303780     0.032279826
      4155.18       1.2386348     0.032099688
      4159.33       1.2159132     0.032281275
      4163.49       1.2140678     0.032244869
      4167.65       1.2144765     0.031993681
      4171.82       1.2232229     0.031947452
      4175.99       1.2220900     0.032092201
      4180.17       1.2470971     0.031889219
      4184.35       1.2573062     0.031884607
      4188.54       1.2599996     0.031858848
      4192.72       1.2705014     0.031812595
      4196.92       1.2782478     0.031789355
      4201.11       1.2738336     0.031764557
      4205.31       1.2728216     0.031555737
      4209.52       1.2844070     0.031700571
      4213.73       1.2562569     0.031646948
      4217.94       1.2409729     0.031415012
      4222.16       1.2225967     0.031542411
      4226.38       1.1969707     0.031510529
      4230.61       1.1846316     0.031312416
      4234.84       1.1836551     0.031310091
      4239.08       1.1425273     0.031311449
      4243.32       1.1230385     0.031334144
      4247.56       1.1211631     0.031369659
      4251.81       1.1172375     0.031412123
      4256.06       1.1164119     0.031456229
      4260.32       1.1247096     0.031347569
      4264.58       1.1462106     0.031607527
      4268.84       1.1581739     0.031682387
      4273.11       1.1834236     0.031597574
      4277.38       1.2087202     0.031880620
      4281.66       1.2163722     0.031815604
      4285.94       1.2352564     0.031930733
      4290.23       1.2515430     0.032223162
      4294.52       1.2511764     0.032104046
      4298.81       1.2696303     0.032145449
      4303.11       1.2865993     0.032159901
      4307.42       1.2936925     0.032102815
      4311.72       1.2885792     0.031831516
      4316.04       1.2670554     0.031903732
      4320.35       1.2387873     0.031623005
      4324.67       1.2232692     0.031735436
      4329.00       1.2156384     0.031694372
      4333.33       1.2029420     0.031506127
      4337.66       1.1811679     0.031688498
      4342.00       1.1742991     0.031562138
      4346.34       1.1723283     0.031601987
      4350.69       1.1704479     0.031622590
      4355.04       1.1766857     0.031613759
      4359.39       1.1844639     0.031558050
      4363.75       1.1805493     0.031487773
      4368.12       1.2055047     0.031367225
      4372.48       1.2092500     0.031255752
      4376.86       1.2079582     0.030975932
      4381.23       1.2105231     0.031065636
      4385.61       1.2273862     0.030834877
      4390.00       1.2315687     0.030949362
      4394.39       1.2193528     0.030758994
      4398.79       1.2080471     0.030792937
      4403.18       1.2176492     0.030799812
      4407.59       1.2091816     0.030822501
      4412.00       1.2134274     0.030824669
      4416.41       1.2047987     0.030666614
      4420.82       1.2061060     0.030825913
      4425.25       1.2134614     0.030684236
      4429.67       1.1987076     0.030870396
      4434.10       1.1907609     0.030734605
      4438.54       1.1963325     0.030766417
      4442.97       1.2136299     0.030789322
      4447.42       1.2094175     0.030832670
      4451.86       1.2120219     0.030843975
      4456.32       1.2005984     0.030857834
      4460.77       1.2088413     0.030697760
      4465.24       1.2235141     0.030839830
      4469.70       1.2420717     0.030710597
      4474.17       1.2243811     0.030804931
      4478.65       1.2115196     0.030531753
      4483.12       1.2043707     0.030543510
      4487.61       1.2272841     0.030562185
      4492.09       1.2283921     0.030601140
      4496.59       1.2352081     0.030818127
      4501.08       1.2495897     0.030694753
      4505.58       1.2542966     0.030744325
      4510.09       1.2677349     0.030772543
      4514.60       1.2611588     0.030780129
      4519.12       1.2684629     0.030608946
      4523.63       1.3014160     0.030761572
      4528.16       1.3498883     0.030715166
      4532.69       1.3681975     0.030501593
      4537.22       1.3859201     0.030601108
      4541.76       1.4212718     0.030413202
      4546.30       1.4679883     0.030419269
      4550.85       1.4925318     0.030466851
      4555.40       1.5068119     0.030590276
      4559.95       1.5072747     0.030652293
      4564.51       1.5174611     0.030544433
      4569.08       1.5308399     0.030796262
      4573.65       1.5395065     0.030907009
      4578.22       1.5341102     0.030778151
      4582.80       1.5233840     0.030981745
      4587.38       1.5061631     0.030777943
      4591.97       1.4765700     0.030725118
      4596.56       1.4681259     0.030725944
      4601.16       1.4436169     0.030722104
      4605.76       1.4256693     0.030735499
      4610.37       1.4388396     0.030781517
      4614.98       1.4609886     0.030692073
      4619.59       1.4497157     0.030915659
      4624.21       1.4474737     0.030988688
      4628.84       1.4441063     0.030902274
      4633.47       1.4298674     0.030985866
      4638.10       1.4083866     0.031160614
      4642.74       1.3800754     0.030989559
      4647.38       1.3614996     0.031031270
      4652.03       1.3242894     0.031075085
      4656.68       1.2935333     0.030893916
      4661.34       1.2786284     0.031098581
      4666.00       1.2673360     0.031117509
      4670.67       1.2412648     0.031147206
      4675.33       1.2140850     0.030965102
      4680.01       1.1979634     0.030939575
      4684.69       1.1899272     0.030983237
      4689.38       1.1905906     0.031197057
      4694.07       1.1869424     0.031085511
      4698.76       1.2041075     0.031174775
      4703.46       1.2114192     0.031318711
      4708.16       1.2163678     0.031453430
      4712.87       1.1984744     0.031406954
      4717.58       1.1800173     0.031720269
      4722.30       1.1674832     0.031872827
      4727.03       1.1551744     0.031947697
      4731.75       1.1318189     0.031853887
      4736.48       1.1222865     0.031954099
      4741.22       1.0996353     0.032024948
      4745.96       1.1194327     0.032042834
      4750.71       1.1314071     0.032068603
      4755.46       1.1329221     0.031912178
      4760.22       1.1385335     0.032094034
      4764.97       1.1497183     0.032110484
      4769.74       1.1577587     0.032127135
      4774.51       1.1816213     0.032141753
      4779.29       1.1918524     0.031974685
      4784.07       1.2019554     0.031960106
      4788.85       1.1999209     0.031957010
      4793.64       1.2063739     0.031959816
      4798.43       1.2194158     0.031950727
      4803.23       1.1990348     0.031966409
      4808.03       1.2026192     0.031993272
      4812.84       1.1700146     0.031876875
      4817.66       1.1530479     0.032246303
      4822.48       1.1412482     0.032445284
      4827.30       1.1372860     0.032112635
      4832.12       1.1290343     0.032215188
      4836.96       1.1300994     0.032549546
      4841.79       1.1250417     0.033004692
      4846.63       1.1233353     0.033495077
      4851.48       1.1291712     0.033988664
      4856.33       1.1395828     0.034207449
      4861.19       1.1466539     0.034580729
      4866.05       1.1477071     0.034853954
      4870.92       1.1589902     0.034928071
      4875.79       1.1933828     0.034877349
      4880.66       1.2084678     0.034744830
      4885.55       1.2378455     0.034577158
      4890.43       1.2609616     0.034365439
      4895.32       1.2546148     0.034207604
      4900.22       1.2482110     0.034214411
      4905.12       1.2173851     0.034510943
      4910.02       1.2236436     0.035353014
      4914.94       1.2417869     0.036434957
      4919.85       1.2234820     0.035989605
      4924.77       1.2095102     0.036209796
      4929.70       1.2026357     0.037018309
      4934.62       1.2008524     0.038195415
      4939.56       1.1816079     0.039595803
      4944.50       1.1778762     0.041094697
      4949.44       1.1728292     0.042649770
      4954.39       1.1448397     0.044094326
      4959.35       1.1510070     0.045685512
      4964.31       1.2151329     0.046723263
      4969.27       1.2604093     0.046434575
      4974.24       1.2856514     0.046339854
      4979.22       1.3196827     0.046210783
      4984.20       1.3491069     0.045925827
      4989.18       1.3566903     0.045585967
      4994.17       1.3881203     0.045264466
      4999.16       1.4167130     0.045111725
      5004.16       1.4383409     0.045369844
      5009.17       1.4945005     0.047125480
      5014.18       1.4895943     0.046006026
      5019.19       1.4826567     0.044984739
      5024.21       1.4707341     0.044407995
      5029.23       1.4587318     0.043767933
      5034.26       1.4337302     0.043000253
      5039.30       1.4150387     0.042421811
      5044.34       1.3605533     0.041935438
      5049.39       1.3230207     0.041673224
      5054.43       1.3028757     0.041803040
      5059.49       1.2976020     0.041623757
      5064.55       1.2391787     0.040693318
      5069.61       1.1799097     0.040295244
      5074.68       1.1463820     0.039870303
      5079.76       1.1037118     0.039415960
      5084.84       1.0633725     0.038982647
      5089.92       1.0487319     0.038527127
      5095.01       1.0210335     0.038058105
      5100.11      0.99961302     0.037697124
      5105.21       1.0056462     0.037432101
      5110.31      0.99283744     0.036931290
      5115.42       1.0307318     0.036507149
      5120.54       1.0463117     0.036225195
      5125.66       1.0772897     0.036020319
      5130.79       1.1129890     0.035885723
      5135.92       1.1527673     0.035604045
      5141.05       1.1689789     0.035511379
      5146.20       1.2174932     0.035355529
      5151.34       1.2579378     0.035172130
      5156.49       1.2784802     0.034929262
      5161.65       1.2938867     0.034641004
      5166.81       1.3069754     0.034338917
      5171.98       1.3272667     0.034121438
      5177.15       1.3220556     0.033741394
      5182.33       1.3134435     0.033341367
      5187.51       1.3316069     0.033133309
      5192.70       1.3450310     0.033253684
      5197.89       1.3519186     0.033310958
      5203.09       1.3603082     0.033083330
      5208.29       1.3756999     0.033129131
      5213.50       1.4084292     0.033624828
      5218.72       1.3968226     0.034241521
      5223.93       1.4103541     0.034941526
      5229.16       1.4090446     0.035673578
      5234.39       1.4011943     0.036031841
      5239.62       1.3832081     0.036628648
      5244.86       1.3953362     0.036753499
      5250.11       1.3648294     0.036627329
      5255.36       1.3475145     0.036121251
      5260.61       1.3355632     0.035549252
      5265.87       1.3180078     0.034762049
      5271.14       1.3201230     0.034170770
      5276.41       1.2976225     0.033477089
      5281.69       1.2866934     0.032934633
      5286.97       1.2997097     0.032704939
      5292.26       1.2905065     0.033018754
      5297.55       1.2872703     0.032625480
      5302.85       1.2806011     0.032320917
      5308.15       1.2966859     0.032036434
      5313.46       1.3065877     0.031995170
      5318.77       1.3042321     0.031864788
      5324.09       1.3108768     0.031673359
      5329.42       1.2925651     0.031818521
      5334.75       1.2872687     0.031936623
      5340.08       1.2862942     0.032370331
      5345.42       1.2778968     0.032775629
      5350.77       1.2496185     0.033237169
      5356.12       1.2585896     0.033549734
      5361.48       1.2577288     0.033689656
      5366.83       1.2539413     0.033504985
      5372.20       1.2479655     0.033518655
      5377.58       1.2173979     0.033370541
      5382.95       1.2214420     0.032988333
      5388.34       1.2192391     0.032402460
      5393.72       1.2194800     0.031933277
      5399.12       1.2078875     0.031661750
      5404.52       1.1973650     0.031824213
      5409.92       1.1950539     0.031731035
      5415.33       1.1997203     0.031952776
      5420.75       1.1854434     0.031930476
      5426.17       1.1694976     0.031741647
      5431.60       1.1594787     0.031714354
      5437.03       1.1689254     0.031454152
      5442.47       1.1670000     0.031164418
      5447.91       1.1642712     0.030626718
      5453.36       1.1339594     0.030310932
      5458.81       1.1357677     0.030324855
      5464.27       1.1149912     0.029809638
      5469.73       1.0899645     0.029504830
      5475.20       1.0660699     0.029371693
      5480.68       1.0690892     0.029209911
      5486.16       1.1102665     0.029287880
      5491.65       1.1151821     0.029395690
      5497.14       1.1232665     0.029663335
      5502.64       1.1259109     0.029706777
      5508.14       1.1433853     0.029587316
      5513.65       1.1768040     0.029775709
      5519.16       1.2065268     0.030148485
      5524.68       1.2362048     0.029929142
      5530.20       1.2557068     0.029858091
      5535.73       1.2921364     0.029814580
      5541.27       1.3360977     0.029791658
      5546.81       1.3425407     0.029669134
      5552.36       1.3544531     0.029689364
      5557.91       1.3345887     0.029792633
      5563.47       1.3267840     0.030706589
      5569.04       1.3018188     0.029662303
      5574.60       1.2704348     0.029829574
      5580.18       1.2397386     0.030178940
      5585.76       1.2328618     0.030592625
      5591.35       1.2253226     0.031477882
      5596.94       1.1741378     0.032021776
      5602.53       1.1351537     0.032793517
      5608.14       1.1011270     0.033159291
      5613.75       1.0724358     0.032768332
      5619.36       1.0387145     0.031528459
      5624.98      0.99504488     0.031014857
      5630.60      0.99436925     0.029865325
      5636.23      0.98030606     0.029013314
      5641.87      0.97033822     0.028003522
      5647.51      0.95931243     0.027313770
      5653.16      0.94082220     0.026820531
      5658.82      0.92917608     0.026814383
      5664.47      0.90487954     0.026778268
      5670.14      0.90217423     0.026429008
      5675.81      0.88458560     0.025565059
      5681.48      0.88878855     0.025102290
      5687.17      0.87170332     0.024827589
      5692.85      0.87779324     0.024399521
      5698.55      0.88731230     0.024061829
      5704.25      0.87617366     0.023908920
      5709.95      0.88656668     0.023749268
      5715.66      0.88952438     0.023748212
      5721.38      0.87608318     0.023748213
      5727.10      0.86888276     0.023835702
      5732.83      0.86450683     0.024068563
      5738.56      0.86967196     0.024140627
      5744.30      0.86017238     0.024214113
      5750.04      0.84689376     0.024372875
      5755.79      0.83411200     0.024590783
      5761.55      0.81702106     0.024643646
      5767.31      0.79726176     0.024687134
      5773.08      0.78350425     0.024711004
      5778.85      0.78607559     0.024730659
      5784.63      0.77656537     0.024663752
      5790.41      0.79321550     0.024617915
      5796.21      0.79019830     0.024678229
      5802.00      0.81973005     0.024660310
      5807.81      0.83531539     0.024896855
      5813.61      0.85360809     0.024922434
      5819.43      0.87250096     0.025050086
      5825.25      0.88271337     0.025027954
      5831.07      0.88448535     0.024862161
      5836.90      0.90719119     0.025052807
      5842.74      0.92357642     0.024826406
      5848.58      0.93321507     0.024480055
      5854.43      0.94695513     0.024164152
      5860.29      0.96849716     0.023815142
      5866.15      0.98851370     0.023407986
      5872.01      0.99444975     0.023245102
      5877.89       1.0025943     0.022820851
      5883.76       1.0123229     0.022574661
      5889.65       1.0201508     0.022516535
      5895.54       1.0207123     0.022208394
      5901.43       1.0310709     0.022073241
      5907.34       1.0385471     0.022074312
      5913.24       1.0522128     0.021933076
      5919.16       1.0531603     0.021685652
      5925.08       1.0460903     0.021650261
      5931.00       1.0309279     0.021734804
      5936.93       1.0358159     0.021618230
      5942.87       1.0261171     0.021706874
      5948.81       1.0144994     0.021815180
      5954.76      0.99588388     0.021844689
      5960.72      0.99001434     0.021952501
      5966.68      0.98246333     0.022073093
      5972.64      0.98257829     0.021943714
      5978.62      0.96692103     0.021859314
      5984.60      0.93622947     0.021612172
      5990.58      0.94262167     0.021490689
      5996.57      0.94638684     0.021199124
      6002.57      0.93878373     0.020848656
      6008.57      0.92925578     0.020579390
      6014.58      0.92954414     0.020503537
      6020.60      0.93650987     0.020622921
      6026.62      0.94185825     0.020402723
      6032.65      0.94113746     0.020041146
      6038.68      0.94385889     0.019981385
      6044.72      0.95123157     0.020122321
      6050.76      0.96018773     0.020500534
      6056.81      0.95705284     0.020846468
      6062.87      0.96377083     0.020848828
      6068.93      0.96649251     0.021166993
      6075.00      0.97844214     0.021679220
      6081.08      0.97935764     0.022189664
      6087.16      0.98799004     0.022593602
      6093.25      0.99048158     0.023208549
      6099.34       1.0100179     0.023761051
      6105.44       1.0462102     0.024260487
      6111.54       1.0549497     0.024365645
      6117.66       1.0589114     0.024742987
      6123.78       1.0568355     0.024871763
      6129.90       1.0599137     0.024997341
      6136.03       1.0735339     0.024991297
      6142.17       1.0631818     0.024871670
      6148.31       1.0572818     0.024534686
      6154.46       1.0452049     0.024106656
      6160.61       1.0482873     0.023614803
      6166.77       1.0445622     0.023558200
      6172.94       1.0404994     0.023273324
      6179.11       1.0621613     0.022716379
      6185.29       1.0884557     0.022176094
      6191.48       1.1390926     0.021670211
      6197.67       1.2213587     0.021119138
      6203.87       1.2892097     0.021182093
      6210.07       1.3770661     0.020589012
      6216.28       1.4579645     0.020849622
      6222.50       1.5386258     0.019878142
      6228.72       1.6104130     0.019588444
      6234.95       1.6822486     0.019680979
      6241.19       1.7601636     0.020383061
      6247.42       1.8337128     0.020055153
      6253.67       1.9187488     0.020049549
      6259.93       1.9996398     0.020389532
      6266.19       2.0796463     0.020851412
      6272.46       2.1429224     0.021473496
      6278.73       2.1826079     0.021664054
      6285.01       2.1900813     0.021643940
      6291.29       2.1739753     0.021326341
      6297.58       2.1750026     0.020650800
      6303.88       2.1583633     0.020000701
      6310.19       2.1431492     0.019377338
      6316.50       2.1404577     0.018975117
      6322.81       2.1088529     0.018920307
      6329.14       2.0717186     0.018544683
      6335.47       2.0151497     0.018467745
      6341.80       1.9657844     0.017973415
      6348.14       1.8988989     0.018040158
      6354.49       1.8378971     0.018316297
      6360.85       1.7939626     0.018845363
      6367.21       1.7451261     0.018400920
      6373.57       1.7098121     0.018506100
      6379.95       1.6865053     0.018711128
      6386.33       1.6495411     0.018910880
      6392.72       1.5981567     0.018693179
      6399.11       1.5341732     0.018407280
      6405.51       1.4713556     0.018375642
      6411.92       1.4117070     0.018728731
      6418.32       1.3694366     0.019112857
      6424.74       1.3229231     0.019400582
      6431.17       1.2910450     0.019855138
      6437.60       1.2773854     0.020616961
      6444.04       1.2483090     0.021408524
      6450.48       1.2160939     0.022342804
      6456.94       1.1810032     0.022758019
      6463.39       1.1621859     0.023176177
      6469.85       1.1412792     0.023685410
      6476.33       1.1408381     0.023553891
      6482.80       1.1371948     0.023388356
      6489.28       1.1136314     0.023404806
      6495.77       1.1025345     0.023519469
      6502.27       1.1055369     0.023528736
      6508.77       1.1051821     0.023492011
      6515.28       1.0973025     0.023334917
      6521.80       1.0793073     0.023128529
      6528.32       1.0598383     0.022714915
      6534.85       1.0362982     0.022664939
      6541.38       1.0202491     0.022361890
      6547.92      0.99930756     0.022002453
      6554.47      0.98794458     0.021633973
      6561.03      0.97929303     0.021034328
      6567.59      0.96102263     0.020447677
      6574.16      0.92942602     0.020142832
      6580.73      0.91459452     0.019719192
      6587.31      0.90181777     0.019527111
      6593.90      0.89475172     0.019303307
      6600.50      0.88727494     0.018852144
      6607.10      0.87470160     0.018440904
      6613.70      0.86667671     0.018225355
      6620.32      0.87023076     0.018244780
      6626.94      0.86992723     0.018350808
      6633.57      0.86809427     0.018517532
      6640.20      0.85454142     0.018710580
      6646.84      0.85543834     0.018765989
      6653.49      0.85026444     0.018714952
      6660.14      0.86040323     0.018740255
      6666.80      0.85388138     0.018784095
      6673.47      0.86461034     0.018954740
      6680.14      0.87270593     0.018797318
      6686.82      0.88359540     0.018616884
      6693.51      0.86648529     0.018514445
      6700.20      0.85619164     0.018691596
      6706.90      0.85104229     0.018868363
      6713.61      0.85535311     0.018622592
      6720.32      0.85528167     0.018979761
      6727.05      0.85748918     0.019325098
      6733.77      0.85731896     0.019716871
      6740.51      0.85823448     0.020418596
      6747.25      0.86306585     0.021739477
      6754.00      0.86639335     0.023508071
      6760.75      0.86407382     0.025751876
      6767.51      0.88110519     0.026796176
      6774.28      0.89902831     0.027570771
      6781.05      0.88933923     0.027846143
      6787.84      0.93727004     0.027641488
      6794.62      0.92212933     0.027027476
      6801.42      0.93702535     0.026474550
      6808.22      0.88617326     0.024632469
      6815.03      0.85128200     0.022051143
      6821.85      0.82984003     0.020668211
      6828.67      0.80267258     0.020137119
      6835.50      0.78831690     0.019959316
      6842.33      0.77570971     0.019550978
      6849.17      0.75827097     0.019869543
      6856.02      0.74664266     0.020293694
      6862.88      0.73399792     0.020446600
      6869.74      0.73150549     0.021062507
      6876.61      0.73921167     0.021144976
      6883.49      0.74793299     0.021453829
      6890.37      0.76329228     0.021622576
      6897.27      0.77701412     0.021722106
      6904.16      0.77061837     0.021631969
      6911.07      0.77093034     0.021724928
      6917.98      0.78752997     0.022101364
      6924.89      0.78212328     0.022453982
      6931.82      0.77551338     0.022786336
      6938.75      0.77031072     0.022463572
      6945.69      0.77183657     0.022169881
      6952.64      0.76961465     0.022344255
      6959.59      0.75714553     0.022574644
      6966.55      0.75457617     0.023263631
      6973.52      0.75253052     0.023724900
      6980.49      0.74971829     0.024192940
      6987.47      0.74715881     0.024506636
      6994.46      0.75081153     0.024421527
      7001.46      0.75760249     0.024457369
      7008.46      0.77016711     0.024669959
      7015.46      0.75889452     0.024191347
      7022.48      0.76524198     0.024435093
      7029.51      0.76718625     0.024049980
      7036.53      0.77951322     0.023516119
      7043.57      0.78118115     0.023600990
      7050.62      0.79446431     0.023882392
      7057.66      0.79369162     0.023578872
      7064.72      0.79780104     0.023564057
      7071.79      0.78500255     0.023552322
      7078.86      0.77914258     0.023044815
      7085.94      0.78087275     0.022383448
      7093.03      0.78676330     0.021748658
      7100.12      0.78355527     0.021238792
      7107.22      0.78438661     0.021283963
      7114.33      0.79377883     0.020901272
      7121.44      0.79925339     0.020204400
      7128.56      0.79941314     0.019732444
      7135.69      0.80599680     0.019358037
      7142.83      0.81449861     0.019196717
      7149.97      0.81081498     0.018995219
      7157.12      0.81611038     0.018623451
      7164.28      0.82890367     0.018134791
      7171.44      0.84309541     0.017657912
      7178.62      0.86838142     0.017437536
      7185.80      0.89442660     0.017414613
      7192.98      0.93618721     0.017415952
      7200.17      0.98855667     0.017569522
      7207.38       1.0447220     0.017772703
      7214.58       1.1382404     0.017868836
      7221.80       1.2405403     0.017705925
      7229.02       1.3380212     0.017615136
      7236.25       1.4387699     0.017816938
      7243.49       1.5403540     0.018217260
      7250.73       1.6510830     0.017720088
      7257.98       1.7671749     0.016595636
      7265.24       1.8506023     0.016368528
      7272.51       1.9231011     0.016394161
      7279.78       1.9849614     0.016708863
      7287.06       2.0223752     0.017180009
      7294.35       2.0486300     0.017567502
      7301.64       2.0530354     0.018313655
      7308.94       2.0229634     0.018423153
      7316.25       1.9749613     0.018144650
      7323.57       1.8823203     0.017753455
      7330.89       1.7854922     0.017531704
      7338.22       1.6965455     0.017404056
      7345.56       1.5980846     0.017508029
      7352.91       1.5118682     0.017704594
      7360.26       1.4195589     0.018041066
      7367.62       1.3037623     0.018239007
      7374.99       1.2023110     0.018889852
      7382.37       1.0975017     0.019910155
      7389.75       1.0241878     0.019687702
      7397.14      0.96452139     0.019375172
      7404.53      0.91335930     0.019909990
      7411.94      0.88543569     0.019298102
      7419.35      0.86863465     0.019366393
      7426.77      0.85557466     0.019248952
      7434.20      0.86432513     0.019564181
      7441.63      0.86351493     0.020111494
      7449.07      0.85284184     0.020664600
      7456.52      0.85123366     0.020764090
      7463.98      0.83705419     0.020738896
      7471.45      0.82395383     0.019969551
      7478.92      0.81753944     0.019542650
      7486.40      0.80271307     0.019421496
      7493.88      0.78541936     0.019780519
      7501.38      0.78073698     0.019762759
      7508.88      0.76225137     0.018776648
      7516.39      0.74616307     0.018207158
      7523.91      0.73383384     0.017777407
      7531.43      0.71051736     0.017667323
      7538.96      0.70142279     0.017283899
      7546.50      0.69903901     0.016885676
      7554.05      0.69245619     0.016213732
      7561.60      0.69554680     0.015976793
      7569.16      0.68308342     0.015520840
      7576.73      0.67378625     0.015479022
      7584.31      0.67486771     0.015041661
      7591.89      0.67882851     0.015178941
      7599.49      0.68470904     0.015465018
      7607.09      0.68317557     0.015648630
      7614.70      0.68958284     0.015292944
      7622.31      0.69521700     0.015224238
      7629.93      0.69538371     0.015749813
      7637.56      0.70594342     0.016213362
      7645.20      0.73155913     0.016608626
      7652.85      0.74891578     0.016955963
      7660.50      0.76766605     0.017894682
      7668.16      0.79504262     0.019015500
      7675.83      0.81482331     0.020436981
      7683.50      0.83324119     0.021657890
      7691.19      0.86043574     0.021865786
      7698.88      0.90046148     0.022083219
      7706.58      0.93850110     0.022666099
      7714.29       1.0111639     0.021264314
      7722.00       1.0859066     0.021039695
      7729.73       1.1595770     0.020574996
      7737.45       1.2383589     0.019788304
      7745.19       1.3056235     0.019298264
      7752.94       1.3887415     0.017772221
      7760.69       1.4231219     0.017688302
      7768.45       1.4345869     0.017606043
      7776.22       1.4553094     0.018446940
      7784.00       1.4605856     0.019934923
      7791.78       1.4163506     0.020194160
      7799.57       1.3501521     0.020354885
      7807.37       1.2600479     0.020324716
      7815.18       1.1793249     0.020824835
      7822.99       1.0790620     0.020587525
      7830.82      0.98904507     0.020903654
      7838.65      0.91713915     0.020575902
      7846.49      0.87069649     0.020459602
      7854.34      0.84086496     0.019476698
      7862.19      0.80997773     0.019492665
      7870.05      0.82020717     0.019127662
      7877.93      0.83827659     0.019318502
      7885.80      0.83910144     0.019767240
      7893.69      0.83707242     0.020229983
      7901.58      0.83578416     0.020010059
      7909.49      0.82231438     0.019613827
      7917.40      0.81925153     0.019857055
      7925.31      0.80329463     0.020500871
      7933.24      0.78308617     0.021726488
      7941.17      0.77572401     0.020117105
      7949.11      0.77617533     0.019560653
      7957.06      0.77012725     0.019194321
      7965.02      0.77051511     0.018871048
      7972.98      0.77081454     0.018459612
      7980.96      0.76676572     0.018584017
      7988.94      0.76989987     0.017737558
      7996.93      0.76168644     0.017326348
      8004.93      0.73902329     0.016483401
      8012.93      0.72035859     0.016507129
      8020.95      0.71662848     0.015674158
      8028.97      0.69609477     0.014964852
      8036.99      0.67528883     0.014859407
      8045.03      0.66087122     0.014503880
      8053.08      0.65449898     0.014310240
      8061.13      0.63657412     0.013893067
      8069.20      0.61961547     0.013945332
      8077.26      0.60253649     0.014041347
      8085.34      0.59679808     0.013650982
      8093.43      0.59529939     0.013095856
      8101.52      0.59040777     0.012882833
      8109.62      0.58236745     0.012745109
      8117.73      0.58092273     0.012687846
      8125.85      0.57631203     0.012726468
      8133.98      0.57112892     0.012607920
      8142.11      0.57449135     0.012223776
      8150.25      0.57405395     0.012190476
      8158.41      0.58350042     0.012042356
      8166.56      0.59318154     0.012070588
      8174.73      0.60906385     0.012011522
      8182.91      0.61572850     0.011896841
      8191.09      0.61847532     0.011825630
      8199.28      0.62749164     0.011792180
      8207.48      0.63437979     0.012047467
      8215.69      0.63313034     0.012304349
      8223.91      0.63782247     0.012717620
      8232.13      0.64504036     0.012756710
      8240.36      0.64755780     0.012700207
      8248.60      0.65085241     0.013183118
      8256.85      0.64682506     0.013891949
      8265.11      0.64153483     0.014908334
      8273.37      0.63414293     0.016209490
      8281.65      0.62336390     0.017882301
      8289.93      0.61667237     0.019780545
      8298.22      0.62712057     0.021548189
      8306.52      0.63624392     0.024248664
      8314.83      0.65756509     0.026898053
      8323.14      0.63510644     0.028577896
      8331.46      0.65735152     0.027920197
      8339.80      0.66400251     0.028675786
      8348.13      0.66014044     0.029666413
      8356.48      0.66244441     0.028939790
      8364.84      0.62397239     0.029741450
      8373.21      0.65215863     0.031158202
      8381.58      0.67350618     0.038776715
      8389.96      0.73575527     0.042456945
      8398.35      0.80400390     0.048372648
      8406.75      0.87752877     0.047086464
      8415.16      0.92714602     0.047107362
      8423.57      0.99771508     0.048784430
      8432.00       1.0527075     0.043968802
      8440.43       1.1488960     0.042390707
      8448.87       1.3033211     0.038037029
      8457.32       1.4531107     0.035037116
      8465.78       1.6408340     0.033250964
      8474.25       1.8215582     0.036938400
      8482.72       1.9674206     0.038246331
      8491.20       2.0505342     0.038923739
      8499.69       2.1206249     0.038045658
      8508.19       2.1287731     0.036335276
      8516.70       2.1053397     0.034847582
      8525.22       2.0137680     0.037609506
      8533.75       1.9255330     0.034171810
      8542.28       1.7870723     0.035963511
      8550.82       1.6943231     0.038808858
      8559.37       1.6431171     0.037868406
      8567.93       1.7113964     0.037558857
      8576.50       1.7457825     0.035549282
      8585.08       1.7796267     0.029016829
      8593.66       1.8346675     0.029726428
      8602.26       1.9095156     0.027436013
      8610.86       1.9642221     0.028616879
      8619.47       2.0407778     0.027674462
      8628.09       2.1031224     0.028680713
      8636.72       2.1239865     0.027221670
      8645.36       2.1480327     0.026419912
      8654.00       2.1308877     0.025870179
      8662.66       2.0847125     0.025260241
      8671.32       1.9830425     0.022663098
      8679.99       1.8624617     0.020520215
      8688.67       1.7421695     0.020096418
      8697.36       1.6168549     0.020955451
      8706.06       1.4850781     0.021855441
      8714.76       1.3480397     0.022590274
      8723.48       1.2293257     0.024107909
      8732.21       1.1377727     0.025096557
      8740.93       1.0551333     0.023781637
      8749.68       1.0117093     0.023323329
      8758.43      0.97061966     0.022448058
      8767.19      0.91859162     0.023859604
      8775.96      0.88974213     0.024695382
      8784.73      0.88935494     0.025808007
      8793.52      0.86889224     0.027663101
      8802.31      0.86020129     0.028272442
      8811.11      0.84552183     0.028446394
      8819.92      0.80409716     0.029856894
      8828.75      0.72383306     0.019778239
      8837.57      0.71859638     0.020925206
      8846.41      0.69948213     0.021868911
      8855.26      0.68267072     0.021768152
      8864.12      0.67648653     0.021835769
      8872.98      0.66753178     0.021993087
      8881.85      0.65059487     0.022140224
      8890.73      0.63420158     0.022400396
      8899.63      0.61331813     0.022917440
      8908.52      0.60535977     0.023144663
      8917.43      0.59423315     0.023416777
      8926.35      0.57032585     0.024403332
      8935.28      0.55719127     0.024309322
      8944.22      0.55259148     0.024351189
      8953.16      0.55552932     0.024771680
      8962.11      0.56074104     0.024765834
      8971.08      0.57973449     0.025694167
      8980.05      0.57705439     0.025950168
      8989.03      0.58299152     0.026608167
      8998.02      0.57519215     0.028102815
      9007.02      0.57333679     0.029443710
      9016.02      0.58318979     0.029745274
      9025.04      0.58404261     0.030166194
      9034.07      0.59097581     0.030719305
      9043.10      0.59584360     0.031428920
      9052.14      0.61024063     0.032607557
      9061.20      0.61946303     0.035023037
      9070.26      0.62130039     0.037981579
      9079.33      0.62943024     0.040984097
      9088.41      0.65793992     0.043615247
      9097.50      0.68173525     0.046630852
      9106.60      0.69947033     0.051775713
      9115.70      0.71797239     0.057581155
      9124.82      0.74212018     0.068621241
      9133.94      0.76273892     0.081170776
      9143.08      0.78377779     0.096924037
      9152.22      0.81829814      0.11850350
      9161.37      0.84972315      0.13773284
