# starting wavelength =        2884.7378
# ending wavelength =        9359.7143
# O2 telluric scale =        0
# O2 telluric shift =        0
# H2O telluric scale =        0
# H2O telluric shift =        0
      2884.99      0.52943500      0.28572346
      2887.87      0.63675450      0.27449317
      2890.76      0.66437040      0.26677174
      2893.65      0.58877338      0.25935333
      2896.54      0.59274108      0.25235206
      2899.44      0.58107115      0.24385514
      2902.34      0.56306261      0.23764818
      2905.24      0.59735087      0.23197096
      2908.15      0.58964746      0.22680192
      2911.06      0.66604636      0.22046868
      2913.97      0.69633429      0.21581004
      2916.88      0.71057618      0.21108975
      2919.80      0.70849949      0.20643700
      2922.72      0.73137459      0.20009185
      2925.64      0.69257873      0.19554716
      2928.57      0.71191556      0.19123330
      2931.50      0.70440368      0.18716347
      2934.43      0.66509627      0.18224937
      2937.36      0.65608387      0.17876851
      2940.30      0.65116530      0.17553782
      2943.24      0.67153886      0.17245644
      2946.18      0.61616423      0.16795059
      2949.13      0.60642528      0.16456186
      2952.08      0.60261864      0.16139477
      2955.03      0.57699922      0.15821518
      2957.99      0.61086313      0.15422991
      2960.94      0.59931831      0.15162941
      2963.90      0.60133388      0.14921873
      2966.87      0.57235897      0.14602006
      2969.84      0.56417598      0.14359675
      2972.81      0.53839957      0.14123130
      2975.78      0.50499848      0.13906409
      2978.76      0.49528974      0.13650265
      2981.73      0.50142579      0.13462733
      2984.72      0.50992285      0.13276573
      2987.70      0.49404836      0.13007384
      2990.69      0.49559604      0.12827169
      2993.68      0.52192653      0.12674600
      2996.67      0.51153367      0.12414730
      2999.67      0.50303470      0.12237415
      3002.67      0.53979883      0.12057847
      3005.67      0.51967769      0.11903619
      3008.68      0.51706826      0.11690951
      3011.69      0.55700564      0.11543591
      3014.70      0.57115100      0.11365539
      3017.71      0.58610340      0.11085043
      3020.73      0.61860711      0.10916848
      3023.75      0.60558814      0.10729796
      3026.78      0.58271438      0.10430430
      3029.80      0.57445292      0.10237764
      3032.83      0.58016943      0.10076800
      3035.87      0.57259675     0.098581361
      3038.90      0.56334035     0.097192239
      3041.94      0.53981137     0.095918484
      3044.98      0.54253906     0.094421936
      3048.03      0.53993688     0.093437376
      3051.08      0.53519470     0.092597927
      3054.13      0.53520110     0.091350105
      3057.18      0.51486209     0.090796047
      3060.24      0.49996574     0.089997452
      3063.30      0.50751644     0.088598120
      3066.36      0.50205621     0.087888189
      3069.43      0.49901343     0.086502306
      3072.50      0.49932233     0.085576476
      3075.57      0.53142139     0.084618610
      3078.65      0.53919745     0.083360615
      3081.73      0.54151487     0.082513508
      3084.81      0.54942934     0.081670092
      3087.89      0.57204843     0.080392095
      3090.98      0.57676858     0.079394675
      3094.07      0.62182366     0.078348535
      3097.17      0.64731666     0.076856091
      3100.26      0.64675423     0.076059735
      3103.36      0.66795906     0.074757022
      3106.47      0.67407561     0.074046743
      3109.58      0.67942446     0.073617759
      3112.68      0.67230387     0.072676351
      3115.80      0.67416826     0.072020402
      3118.91      0.67369962     0.071006920
      3122.03      0.69437366     0.070598068
      3125.15      0.69878229     0.070148550
      3128.28      0.70498204     0.069438267
      3131.41      0.72645279     0.069275766
      3134.54      0.72283266     0.068548968
      3137.67      0.72038395     0.068193546
      3140.81      0.70545030     0.068038902
      3143.95      0.66490320     0.067283993
      3147.10      0.66208987     0.066807000
      3150.24      0.66238255     0.066235084
      3153.39      0.64646749     0.065830269
      3156.55      0.64283549     0.065428975
      3159.70      0.64160437     0.064894073
      3162.86      0.65114175     0.064602499
      3166.03      0.66061942     0.064082697
      3169.19      0.66463109     0.063943049
      3172.36      0.66003328     0.063233708
      3175.54      0.66021498     0.062819895
      3178.71      0.65293411     0.062543349
      3181.89      0.63643168     0.061711604
      3185.07      0.62130546     0.061227245
      3188.26      0.60614312     0.060653644
      3191.45      0.60640944     0.060291116
      3194.64      0.59425865     0.059720037
      3197.83      0.60538555     0.059635493
      3201.03      0.60551240     0.059212046
      3204.23      0.60475264     0.059313043
      3207.44      0.60707694     0.059220344
      3210.64      0.60662211     0.058885544
      3213.85      0.61743155     0.058963816
      3217.07      0.62232400     0.058568734
      3220.28      0.61125045     0.058417973
      3223.51      0.61369128     0.058207592
      3226.73      0.63265138     0.058122582
      3229.96      0.61618751     0.058077509
      3233.19      0.63036779     0.057945978
      3236.42      0.64207546     0.057359284
      3239.66      0.65331786     0.057361709
      3242.90      0.66535743     0.056541104
      3246.14      0.67268760     0.056081714
      3249.39      0.67559031     0.055434906
      3252.64      0.68808951     0.054928197
      3255.89      0.69762818     0.054233068
      3259.14      0.69256102     0.053753870
      3262.40      0.68639140     0.053038305
      3265.67      0.69337386     0.052773354
      3268.93      0.69239661     0.052207980
      3272.20      0.70195455     0.052031427
      3275.47      0.70514580     0.051546744
      3278.75      0.71265116     0.051472784
      3282.03      0.74166198     0.051138742
      3285.31      0.75982648     0.051059214
      3288.60      0.76331328     0.051059579
      3291.88      0.75017607     0.051064104
      3295.18      0.72915644     0.051004300
      3298.47      0.72339284     0.050961032
      3301.77      0.70977301     0.050904618
      3305.07      0.68774064     0.050865484
      3308.38      0.65659488     0.050495475
      3311.69      0.65321322     0.050422947
      3315.00      0.66082993     0.049907052
      3318.31      0.65396524     0.049740596
      3321.63      0.65168575     0.049140293
      3324.95      0.66491161     0.048668742
      3328.28      0.66080737     0.048368728
      3331.61      0.65801213     0.047855627
      3334.94      0.65339852     0.047698466
      3338.27      0.64756753     0.047190205
      3341.61      0.65620347     0.047018814
      3344.95      0.66788459     0.046441951
      3348.30      0.68400433     0.046218753
      3351.65      0.69515508     0.045715913
      3355.00      0.69609692     0.045448429
      3358.35      0.69898793     0.045251710
      3361.71      0.71174818     0.045021746
      3365.07      0.71533980     0.044877523
      3368.44      0.72736040     0.044798703
      3371.81      0.73248037     0.044595842
      3375.18      0.74073472     0.044480463
      3378.56      0.75192495     0.044191652
      3381.94      0.75756701     0.044161383
      3385.32      0.75523602     0.043842425
      3388.70      0.75930632     0.043832365
      3392.09      0.76473012     0.043481485
      3395.48      0.77205108     0.043259906
      3398.88      0.77299001     0.043072849
      3402.28      0.78842643     0.042796728
      3405.68      0.79862170     0.042578223
      3409.09      0.80888318     0.042274820
      3412.49      0.81808761     0.041821438
      3415.91      0.81052102     0.041635575
      3419.32      0.80750580     0.041227889
      3422.74      0.79962571     0.040956706
      3426.17      0.80099717     0.040707655
      3429.59      0.80628833     0.040361130
      3433.02      0.79513655     0.040134559
      3436.45      0.78729571     0.039822799
      3439.89      0.78733821     0.039380776
      3443.33      0.79649324     0.039214016
      3446.78      0.79498960     0.038801090
      3450.22      0.78922793     0.038547587
      3453.67      0.78006283     0.038377457
      3457.13      0.77099199     0.038186163
      3460.58      0.76305805     0.038071983
      3464.04      0.75483781     0.037976193
      3467.51      0.75803103     0.037841215
      3470.98      0.75899274     0.037578149
      3474.45      0.77225992     0.037587787
      3477.92      0.77650401     0.037298061
      3481.40      0.77590853     0.037117705
      3484.88      0.77238836     0.036990556
      3488.37      0.77803005     0.036814627
      3491.86      0.78260635     0.036602978
      3495.35      0.78819734     0.036411915
      3498.84      0.79902607     0.036105394
      3502.34      0.80428355     0.035666670
      3505.84      0.80322451     0.035488088
      3509.35      0.80275064     0.035041734
      3512.86      0.80757607     0.034744046
      3516.37      0.80679096     0.034646211
      3519.89      0.80694512     0.034377751
      3523.41      0.80651185     0.034181873
      3526.93      0.79899879     0.034004545
      3530.46      0.79596801     0.033767086
      3533.99      0.80596844     0.033527238
      3537.53      0.79594159     0.033199499
      3541.06      0.79125450     0.033096753
      3544.60      0.80186834     0.032783427
      3548.15      0.80061377     0.032635713
      3551.70      0.80337045     0.032676003
      3555.25      0.80622408     0.032520942
      3558.80      0.80122386     0.032432818
      3562.36      0.80220773     0.032205351
      3565.92      0.80138244     0.032190499
      3569.49      0.79889746     0.032059509
      3573.06      0.79484478     0.031832283
      3576.64      0.78648925     0.031695851
      3580.21      0.78704662     0.031697048
      3583.79      0.78142162     0.031496369
      3587.38      0.76603449     0.031378484
      3590.96      0.75726455     0.031252203
      3594.55      0.75679387     0.031155768
      3598.15      0.75577522     0.031060529
      3601.75      0.75319771     0.030892527
      3605.35      0.76076492     0.030847388
      3608.96      0.75836990     0.030951483
      3612.56      0.75857521     0.030877526
      3616.18      0.76222955     0.030927407
      3619.79      0.76109940     0.030981365
      3623.41      0.76084747     0.031032197
      3627.04      0.76609848     0.031116989
      3630.66      0.75746827     0.031182051
      3634.29      0.75279856     0.031096322
      3637.93      0.75319636     0.031070199
      3641.57      0.75488808     0.031144785
      3645.21      0.75161819     0.031020063
      3648.86      0.75384655     0.031024200
      3652.50      0.75365779     0.031276458
      3656.16      0.75101315     0.031804009
      3659.81      0.74484601     0.032287032
      3663.47      0.75088043     0.031671762
      3667.14      0.75128432     0.031195553
      3670.80      0.76281562     0.030902511
      3674.48      0.77858884     0.030822844
      3678.15      0.78342988     0.030823418
      3681.83      0.79541173     0.030908416
      3685.51      0.81362029     0.031023372
      3689.20      0.81868035     0.031184390
      3692.88      0.84257802     0.031364561
      3696.58      0.85290431     0.031429823
      3700.27      0.87114352     0.031547442
      3703.98      0.88034801     0.031752560
      3707.68      0.89752143     0.031850348
      3711.39      0.89575197     0.031861777
      3715.10      0.90304723     0.031948055
      3718.81      0.91360097     0.032005769
      3722.53      0.92846728     0.031903295
      3726.26      0.93880971     0.031825556
      3729.98      0.94845641     0.031739599
      3733.71      0.95367164     0.031526394
      3737.45      0.95354980     0.031199638
      3741.18      0.95817641     0.030950107
      3744.93      0.97009729     0.030699892
      3748.67      0.96929138     0.030442908
      3752.42      0.97656640     0.030184662
      3756.17      0.98078748     0.029831979
      3759.93      0.98604940     0.029691482
      3763.69      0.99335877     0.029424522
      3767.45      0.99299161     0.029183164
      3771.22      0.99007873     0.028875489
      3774.99      0.98256648     0.028670675
      3778.77      0.97411941     0.028493217
      3782.54      0.96678275     0.028351059
      3786.33      0.95233133     0.028276459
      3790.11      0.93324441     0.028149000
      3793.90      0.91921088     0.028232742
      3797.70      0.90586182     0.028471185
      3801.50      0.90277061     0.028398444
      3805.30      0.89849277     0.027995256
      3809.10      0.89467425     0.027529954
      3812.91      0.89917667     0.027320069
      3816.73      0.89886284     0.027167718
      3820.54      0.89184069     0.027026512
      3824.36      0.88658585     0.026887200
      3828.19      0.88374758     0.026678976
      3832.02      0.87833750     0.026551294
      3835.85      0.86820705     0.026430869
      3839.68      0.86585402     0.026310852
      3843.52      0.84586670     0.026197878
      3847.37      0.84397207     0.026110826
      3851.22      0.83481295     0.025989202
      3855.07      0.83432795     0.025961851
      3858.92      0.84070406     0.025925518
      3862.78      0.85063657     0.025873100
      3866.64      0.85493271     0.025833891
      3870.51      0.85309494     0.025841304
      3874.38      0.85782222     0.025740137
      3878.26      0.86505693     0.025591636
      3882.13      0.87123011     0.025538003
      3886.02      0.89375309     0.025487417
      3889.90      0.92478380     0.025455605
      3893.79      0.96013645     0.025435485
      3897.69      0.98546603     0.025408467
      3901.59      0.92697730     0.035626142
      3905.49      0.95031770     0.035542442
      3909.39      0.97366180     0.035565768
      3913.30       1.0132841     0.035448114
      3917.22       1.0546506     0.035482912
      3921.13       1.1076423     0.035613745
      3925.06       1.1637925     0.035744396
      3928.98       1.2061615     0.035914942
      3932.91       1.2566945     0.036081902
      3936.84       1.2967803     0.036173701
      3940.78       1.2868206     0.036196761
      3944.72       1.2786342     0.036178828
      3948.67       1.2756045     0.036117083
      3952.61       1.2971502     0.035953662
      3956.57       1.3082429     0.035622083
      3960.52       1.3409796     0.035536102
      3964.48       1.3541652     0.035254725
      3968.45       1.3880219     0.035215522
      3972.42       1.3950482     0.035142936
      3976.39       1.3883447     0.035111545
      3980.37       1.3828065     0.035186754
      3984.35       1.3787880     0.035364050
      3988.33       1.3824367     0.035171708
      3992.32       1.3896594     0.035270349
      3996.31       1.4112008     0.035411830
      4000.31       1.4311658     0.035600870
      4004.31       1.4451762     0.035840072
      4008.31       1.4457747     0.036069045
      4012.32       1.4267519     0.036257711
      4016.33       1.3987480     0.036424963
      4020.35       1.4205015     0.036533616
      4024.37       1.4498878     0.036587986
      4028.40       1.4849183     0.036271555
      4032.42       1.5377091     0.036140880
      4036.46       1.5821645     0.035976677
      4040.50       1.6096306     0.035767864
      4044.54       1.6356800     0.035578042
      4048.58       1.6765486     0.035622484
      4052.63       1.7060887     0.035481505
      4056.68       1.7349177     0.035335903
      4060.74       1.7421391     0.035213838
      4064.80       1.7229378     0.034978614
      4068.86       1.6958651     0.034940765
      4072.93       1.6732729     0.034889204
      4077.01       1.6309229     0.034862387
      4081.08       1.5874617     0.034836561
      4085.17       1.5420854     0.034798137
      4089.25       1.4863875     0.035003467
      4093.34       1.4360523     0.034849275
      4097.43       1.4139420     0.034573089
      4101.53       1.3734730     0.034626129
      4105.63       1.3329226     0.034747105
      4109.74       1.3139972     0.034912903
      4113.85       1.2921892     0.035329422
      4117.96       1.2821748     0.035511998
      4122.08       1.2833839     0.035495278
      4126.20       1.3011348     0.035617741
      4130.33       1.2978308     0.035673046
      4134.46       1.2969259     0.035632591
      4138.59       1.2924337     0.035524940
      4142.73       1.2776685     0.035221623
      4146.88       1.2683815     0.035099620
      4151.02       1.2607075     0.035133020
      4155.18       1.2552873     0.035009562
      4159.33       1.2542969     0.034901604
      4163.49       1.2409151     0.034656710
      4167.65       1.2090025     0.034703138
      4171.82       1.2058734     0.034581205
      4175.99       1.1938619     0.034530861
      4180.17       1.1607605     0.034680392
      4184.35       1.1327367     0.034425002
      4188.54       1.1280350     0.034371080
      4192.72       1.1314995     0.034322750
      4196.92       1.1374121     0.034287574
      4201.11       1.1231314     0.034081270
      4205.31       1.1148610     0.034246882
      4209.52       1.1182420     0.034204560
      4213.73       1.1192207     0.034178104
      4217.94       1.1445505     0.033948011
      4222.16       1.1476120     0.033918211
      4226.38       1.1540418     0.033897810
      4230.61       1.1513762     0.034082730
      4234.84       1.1451217     0.033896650
      4239.08       1.1561842     0.033893928
      4243.32       1.1656947     0.033907060
      4247.56       1.1590477     0.033736027
      4251.81       1.1815559     0.033944010
      4256.06       1.1726557     0.033928411
      4260.32       1.1635361     0.033894038
      4264.58       1.1593452     0.033623784
      4268.84       1.1640098     0.033753673
      4273.11       1.1681220     0.033703469
      4277.38       1.1496655     0.033468108
      4281.66       1.1353038     0.033435778
      4285.94       1.1264452     0.033557698
      4290.23       1.1423238     0.033290680
      4294.52       1.1392889     0.033243560
      4298.81       1.1522552     0.033195673
      4303.11       1.1417426     0.033156322
      4307.42       1.1197729     0.033110926
      4311.72       1.1046200     0.033053714
      4316.04       1.0978553     0.032812077
      4320.35       1.1021193     0.032945236
      4324.67       1.1195642     0.032914106
      4329.00       1.1285644     0.032700032
      4333.33       1.1525134     0.032681973
      4337.66       1.1451165     0.032853224
      4342.00       1.1559395     0.032677578
      4346.34       1.1671687     0.032683856
      4350.69       1.1737014     0.032691524
      4355.04       1.1771071     0.032716710
      4359.39       1.1708336     0.032761739
      4363.75       1.1758742     0.032830236
      4368.12       1.1742837     0.032883471
      4372.48       1.1930726     0.032788230
      4376.86       1.1823168     0.033065408
      4381.23       1.1834626     0.033165764
      4385.61       1.1776118     0.033100342
      4390.00       1.1616004     0.033365134
      4394.39       1.1709806     0.033203862
      4398.79       1.1869412     0.033212739
      4403.18       1.2025853     0.033186982
      4407.59       1.2222713     0.033091454
      4412.00       1.2259708     0.032965085
      4416.41       1.2212171     0.032799720
      4420.82       1.2264470     0.032664947
      4425.25       1.2405540     0.032378750
      4429.67       1.2425319     0.032472613
      4434.10       1.2254627     0.032230944
      4438.54       1.2048021     0.032395605
      4442.97       1.2071213     0.032280251
      4447.42       1.2150184     0.032279497
      4451.86       1.2140577     0.032291067
      4456.32       1.2179844     0.032322049
      4460.77       1.2018633     0.032372115
      4465.24       1.2084042     0.032414498
      4469.70       1.2098607     0.032264494
      4474.17       1.2192427     0.032449228
      4478.65       1.2365406     0.032290336
      4483.12       1.2369018     0.032514935
      4487.61       1.2133215     0.032361804
      4492.09       1.2231802     0.032362183
      4496.59       1.2128308     0.032403322
      4501.08       1.2128796     0.032441878
      4505.58       1.2051148     0.032479049
      4510.09       1.2006547     0.032489135
      4514.60       1.1800668     0.032509507
      4519.12       1.1644230     0.032509853
      4523.63       1.1832461     0.032539238
      4528.16       1.2215454     0.032601924
      4532.69       1.2569230     0.032590963
      4537.22       1.2655421     0.032419068
      4541.76       1.2831319     0.032606685
      4546.30       1.3136444     0.032424261
      4550.85       1.3356416     0.032439721
      4555.40       1.3564166     0.032424703
      4559.95       1.3759734     0.032413362
      4564.51       1.3920946     0.032396058
      4569.08       1.3862025     0.032178346
      4573.65       1.3806008     0.032312962
      4578.22       1.3991769     0.032257674
      4582.80       1.3913157     0.032232847
      4587.38       1.3877748     0.032234915
      4591.97       1.3707849     0.032058242
      4596.56       1.3568540     0.032212329
      4601.16       1.3566752     0.032031378
      4605.76       1.3543966     0.032020243
      4610.37       1.3676141     0.032006870
      4614.98       1.3667902     0.032017015
      4619.59       1.3546581     0.032008157
      4624.21       1.3308982     0.032011172
      4628.84       1.3163960     0.031857360
      4633.47       1.2988949     0.032021051
      4638.10       1.2778340     0.032036682
      4642.74       1.2553288     0.031871735
      4647.38       1.2422568     0.032062171
      4652.03       1.2264515     0.031920970
      4656.68       1.1941758     0.031938745
      4661.34       1.1867087     0.032140877
      4666.00       1.1649104     0.032030087
      4670.67       1.1487089     0.032115253
      4675.33       1.1301788     0.032004839
      4680.01       1.1181918     0.032245370
      4684.69       1.1163070     0.032255043
      4689.38       1.1134052     0.032085584
      4694.07       1.1104047     0.032229874
      4698.76       1.1165607     0.032004990
      4703.46       1.1205486     0.031997947
      4708.16       1.1166704     0.032023915
      4712.87       1.1141667     0.032045536
      4717.58       1.1084758     0.032129667
      4722.30       1.1090517     0.032256979
      4727.03       1.1204280     0.032186109
      4731.75       1.1144091     0.032457523
      4736.48       1.1116973     0.032580766
      4741.22       1.1247368     0.032525685
      4745.96       1.1373348     0.032578388
      4750.71       1.1526445     0.032766338
      4755.46       1.1375042     0.032666160
      4760.22       1.1399951     0.032726903
      4764.97       1.1547080     0.032715987
      4769.74       1.1691003     0.032759265
      4774.51       1.1684387     0.032767749
      4779.29       1.1795434     0.032796286
      4784.07       1.1900744     0.032792411
      4788.85       1.1987426     0.032627683
      4793.64       1.2124768     0.032682949
      4798.43       1.2114365     0.032770934
      4803.23       1.2131469     0.033052396
      4808.03       1.2124174     0.032972556
      4812.84       1.2066078     0.033119899
      4817.66       1.1921998     0.033283295
      4822.48       1.1636644     0.033440590
      4827.30       1.1569353     0.033424435
      4832.12       1.1601175     0.033616754
      4836.96       1.1539841     0.033895301
      4841.79       1.1545773     0.034011102
      4846.63       1.1472242     0.033965441
      4851.48       1.1442688     0.034065700
      4856.33       1.1253602     0.034096243
      4861.19       1.1209378     0.034127766
      4866.05       1.1105990     0.034145295
      4870.92       1.1307287     0.033971578
      4875.79       1.1360968     0.033977515
      4880.66       1.1390641     0.034002723
      4885.55       1.1413702     0.034205945
      4890.43       1.1338889     0.034239591
      4895.32       1.1382161     0.034313731
      4900.22       1.1276025     0.034164358
      4905.12       1.1124890     0.034181461
      4910.02       1.1081284     0.034220325
      4914.94       1.0992992     0.034282318
      4919.85       1.0996585     0.034356301
      4924.77       1.1120976     0.034442875
      4929.70       1.1325961     0.034345677
      4934.62       1.1547095     0.034446200
      4939.56       1.1582096     0.034574278
      4944.50       1.1454110     0.034714197
      4949.44       1.1611576     0.034834474
      4954.39       1.1947622     0.034957474
      4959.35       1.2099945     0.035108611
      4964.31       1.2243889     0.035227252
      4969.27       1.2373079     0.035327538
      4974.24       1.2443443     0.035436433
      4979.22       1.2481967     0.035338706
      4984.20       1.2437428     0.035418309
      4989.18       1.2513871     0.035515107
      4994.17       1.2614592     0.035643937
      4999.16       1.2775438     0.035811990
      5004.16       1.2821523     0.035951974
      5009.17       1.2975788     0.036114669
      5014.18       1.3289655     0.036360570
      5019.19       1.3634073     0.036684279
      5024.21       1.3682861     0.037126206
      5029.23       1.3658777     0.038075382
      5034.26       1.3570239     0.038339046
      5039.30       1.3411357     0.038351463
      5044.34       1.3227517     0.039020916
      5049.39       1.2838854     0.040087151
      5054.43       1.2365184     0.041439279
      5059.49       1.1946019     0.042811886
      5064.55       1.1542489     0.044135836
      5069.61       1.1155057     0.045317709
      5074.68       1.0801703     0.046176953
      5079.76       1.0706337     0.046612900
      5084.84       1.0490850     0.046634497
      5089.92       1.0285418     0.046319204
      5095.01       1.0330256     0.045703359
      5100.11       1.0149522     0.044813693
      5105.21       1.0174282     0.043875794
      5110.31       1.0376604     0.043111076
      5115.42       1.0590663     0.042658434
      5120.54       1.0518426     0.042736228
      5125.66       1.0730585     0.043667517
      5130.79       1.1061857     0.043109977
      5135.92       1.1302434     0.042725884
      5141.05       1.1592751     0.042605534
      5146.20       1.1758560     0.042503648
      5151.34       1.1987425     0.042419519
      5156.49       1.2301368     0.042282980
      5161.65       1.2581386     0.042113022
      5166.81       1.2987770     0.041898461
      5171.98       1.3255748     0.041606754
      5177.15       1.3359648     0.041261824
      5182.33       1.3395945     0.040913620
      5187.51       1.3217372     0.040757491
      5192.70       1.2992520     0.040456650
      5197.89       1.2864021     0.040026169
      5203.09       1.2700754     0.039367782
      5208.29       1.2645099     0.038917309
      5213.50       1.2628552     0.038749345
      5218.72       1.2295974     0.038769682
      5223.93       1.2702472     0.038880474
      5229.16       1.2997695     0.038786923
      5234.39       1.3023679     0.038821623
      5239.62       1.3128803     0.038739331
      5244.86       1.3235086     0.038513321
      5250.11       1.3408303     0.038158759
      5255.36       1.3453396     0.037667363
      5260.61       1.3527878     0.037045443
      5265.87       1.3623686     0.036376564
      5271.14       1.3621031     0.035681744
      5276.41       1.3648645     0.035044564
      5281.69       1.3603908     0.034524081
      5286.97       1.3240558     0.034275797
      5292.26       1.3089484     0.034046010
      5297.55       1.3161939     0.033738074
      5302.85       1.2977644     0.033477078
      5308.15       1.3028231     0.033486347
      5313.46       1.3059134     0.033673938
      5318.77       1.2953784     0.033858026
      5324.09       1.3092531     0.033539416
      5329.42       1.3024632     0.033778565
      5334.75       1.2962848     0.034365920
      5340.08       1.3041265     0.034969528
      5345.42       1.3145152     0.035696802
      5350.77       1.3096156     0.036530980
      5356.12       1.3093558     0.037157458
      5361.48       1.3061887     0.037609430
      5366.83       1.2985719     0.037636442
      5372.20       1.2989407     0.037419608
      5377.58       1.3027648     0.037020496
      5382.95       1.2798831     0.036935849
      5388.34       1.2581222     0.036986039
      5393.72       1.2363524     0.036935205
      5399.12       1.2403336     0.036499483
      5404.52       1.2429858     0.036059240
      5409.92       1.2367888     0.036562407
      5415.33       1.2169303     0.036979543
      5420.75       1.1922485     0.036087966
      5426.17       1.1775686     0.035373143
      5431.60       1.1673410     0.035084302
      5437.03       1.1607355     0.034812081
      5442.47       1.1443553     0.034627654
      5447.91       1.1517051     0.034442077
      5453.36       1.1462980     0.034339076
      5458.81       1.1552438     0.034048068
      5464.27       1.1472755     0.033964745
      5469.73       1.1495591     0.033564038
      5475.20       1.1680246     0.033099992
      5480.68       1.1675459     0.032420921
      5486.16       1.1433555     0.032196546
      5491.65       1.1266283     0.031913305
      5497.14       1.1093135     0.031506320
      5502.64       1.1298163     0.030866865
      5508.14       1.1235439     0.030623047
      5513.65       1.1228625     0.030639165
      5519.16       1.1116451     0.030512054
      5524.68       1.1125275     0.029999378
      5530.20       1.1235052     0.029785366
      5535.73       1.1362151     0.029750429
      5541.27       1.1362354     0.029783745
      5546.81       1.1734887     0.029774046
      5552.36       1.2048729     0.029709584
      5557.91       1.2212972     0.029719101
      5563.47       1.2347882     0.029553987
      5569.04       1.2466805     0.029746076
      5574.60       1.2646819     0.029734151
      5580.18       1.2620947     0.029631600
      5585.76       1.2555462     0.029777487
      5591.35       1.2311898     0.030007319
      5596.94       1.2205182     0.030245303
      5602.53       1.1990219     0.030342749
      5608.14       1.1948942     0.030407157
      5613.75       1.1517294     0.030238153
      5619.36       1.1329997     0.030274703
      5624.98       1.1101601     0.030250837
      5630.60       1.1050037     0.029674115
      5636.23       1.1147797     0.029298577
      5641.87       1.1211228     0.029178678
      5647.51       1.1120784     0.028947423
      5653.16       1.1224469     0.028783462
      5658.82       1.1181158     0.028846223
      5664.47       1.1128053     0.029133627
      5670.14       1.0938588     0.029485092
      5675.81       1.0902672     0.029658636
      5681.48       1.0893922     0.029832974
      5687.17       1.0531423     0.029910052
      5692.85       1.0383420     0.029723791
      5698.55      0.99941951     0.029770372
      5704.25      0.96923392     0.029834069
      5709.95      0.93008381     0.030101277
      5715.66      0.92001216     0.029947724
      5721.38      0.89342452     0.030086406
      5727.10      0.87037269     0.030355652
      5732.83      0.86407810     0.030240492
      5738.56      0.86115579     0.029936987
      5744.30      0.87025253     0.029512566
      5750.04      0.85617551     0.029386861
      5755.79      0.85299785     0.029090051
      5761.55      0.84793343     0.028793819
      5767.31      0.83783715     0.028127031
      5773.08      0.82851686     0.027749682
      5778.85      0.81791206     0.027370550
      5784.63      0.82099459     0.026983378
      5790.41      0.83233971     0.026827045
      5796.21      0.83091467     0.026178314
      5802.00      0.82731179     0.025561695
      5807.81      0.82980413     0.024967527
      5813.61      0.83220981     0.024634904
      5819.43      0.83719787     0.024308445
      5825.25      0.86645467     0.023980697
      5831.07      0.88777080     0.023859074
      5836.90      0.91630249     0.023685179
      5842.74      0.94771064     0.023405203
      5848.58      0.96430922     0.023279918
      5854.43      0.98491872     0.023283332
      5860.29       1.0038573     0.023575205
      5866.15       1.0168462     0.023751578
      5872.01       1.0148696     0.023821080
      5877.89       1.0042265     0.023873555
      5883.76       1.0038841     0.024074001
      5889.65       1.0126465     0.024272169
      5895.54       1.0176603     0.024297270
      5901.43       1.0207707     0.024346656
      5907.34       1.0164434     0.024349158
      5913.24       1.0072981     0.024338637
      5919.16       1.0070986     0.024312208
      5925.08      0.99656738     0.024211673
      5931.00      0.99274690     0.024329567
      5936.93      0.99539496     0.024449560
      5942.87       1.0036697     0.024590826
      5948.81       1.0141939     0.024879074
      5954.76       1.0095563     0.024912314
      5960.72      0.99470023     0.024941010
      5966.68      0.98730069     0.025087877
      5972.64      0.98451825     0.025100234
      5978.62      0.96071803     0.024980967
      5984.60      0.96208555     0.024589391
      5990.58      0.95195737     0.024318004
      5996.57      0.95543097     0.024154158
      6002.57      0.94427329     0.023951762
      6008.57      0.94128898     0.023653277
      6014.58      0.93793524     0.023550975
      6020.60      0.93972089     0.023252712
      6026.62      0.94077765     0.023003018
      6032.65      0.93981077     0.022788361
      6038.68      0.94559388     0.022477148
      6044.72      0.95240438     0.022151648
      6050.76      0.95523679     0.021905464
      6056.81      0.96500072     0.021885361
      6062.87      0.96431005     0.022069764
      6068.93      0.96695691     0.022481805
      6075.00      0.96663452     0.022730052
      6081.08      0.97437087     0.022717368
      6087.16       1.0017742     0.022969734
      6093.25       1.0108490     0.023248897
      6099.34       1.0353898     0.023224790
      6105.44       1.0658474     0.023096576
      6111.54       1.0922639     0.022834921
      6117.66       1.1086385     0.022518816
      6123.78       1.1427617     0.022059254
      6129.90       1.1666965     0.021587884
      6136.03       1.1859534     0.021041925
      6142.17       1.2027211     0.020694390
      6148.31       1.2068633     0.020266862
      6154.46       1.2067660     0.020008540
      6160.61       1.2062677     0.019849963
      6166.77       1.1953181     0.019526391
      6172.94       1.1863106     0.019109100
      6179.11       1.1645766     0.019060710
      6185.29       1.1520166     0.019443605
      6191.48       1.1357304     0.019718802
      6197.67       1.1213222     0.019966902
      6203.87       1.1251001     0.020231011
      6210.07       1.1083786     0.020647600
      6216.28       1.1086357     0.021025413
      6222.50       1.1269184     0.021568107
      6228.72       1.1165734     0.022017510
      6234.95       1.1221132     0.022431762
      6241.19       1.1282965     0.022812097
      6247.42       1.1404089     0.023012926
      6253.67       1.1539805     0.023012523
      6259.93       1.1719027     0.023032622
      6266.19       1.1792041     0.023211897
      6272.46       1.1987316     0.023365914
      6278.73       1.2309059     0.023399046
      6285.01       1.2432599     0.023172078
      6291.29       1.2624486     0.022820903
      6297.58       1.2799378     0.022408954
      6303.88       1.2906423     0.022141650
      6310.19       1.3032861     0.022393449
      6316.50       1.3272984     0.021737828
      6322.81       1.3265962     0.021356094
      6329.14       1.2991234     0.021039074
      6335.47       1.2802957     0.021006260
      6341.80       1.2618000     0.020890253
      6348.14       1.2350380     0.020768329
      6354.49       1.2066471     0.020666420
      6360.85       1.1804943     0.020443908
      6367.21       1.1500752     0.020041413
      6373.57       1.1232792     0.019508070
      6379.95       1.0933702     0.019276583
      6386.33       1.0621032     0.018967526
      6392.72       1.0567881     0.018537923
      6399.11       1.0650558     0.018075292
      6405.51       1.0712104     0.017915033
      6411.92       1.0916473     0.017851979
      6418.32       1.0993193     0.017797019
      6424.74       1.1135567     0.017751816
      6431.17       1.1547297     0.017968351
      6437.60       1.1873312     0.017584633
      6444.04       1.2005623     0.017525996
      6450.48       1.2076589     0.017288683
      6456.94       1.2319134     0.017023354
      6463.39       1.2557724     0.016903149
      6469.85       1.2670389     0.016829542
      6476.33       1.2671754     0.016837300
      6482.80       1.2733938     0.016808751
      6489.28       1.2758020     0.016767106
      6495.77       1.2611233     0.016851392
      6502.27       1.2482241     0.016945595
      6508.77       1.2432650     0.017029870
      6515.28       1.2357567     0.017111245
      6521.80       1.2222621     0.017125312
      6528.32       1.2162926     0.017301807
      6534.85       1.2101194     0.017432977
      6541.38       1.1930694     0.017174207
      6547.92       1.2064327     0.016930388
      6554.47       1.2146884     0.017052743
      6561.03       1.2076083     0.017458379
      6567.59       1.1942734     0.017912295
      6574.16       1.1817089     0.018252982
      6580.73       1.1842715     0.018790365
      6587.31       1.1734051     0.019561440
      6593.90       1.1506829     0.020321567
      6600.50       1.1331863     0.021185019
      6607.10       1.1099360     0.021703303
      6613.70       1.0876999     0.022171554
      6620.32       1.0524517     0.022731091
      6626.94       1.0192819     0.022672896
      6633.57      0.98863792     0.022585254
      6640.20      0.95477669     0.022655228
      6646.84      0.93607257     0.022916598
      6653.49      0.91596968     0.023079808
      6660.14      0.90746941     0.023123940
      6666.80      0.90420976     0.022997604
      6673.47      0.90980963     0.022729638
      6680.14      0.91574553     0.022338014
      6686.82      0.93586005     0.022148153
      6693.51      0.95178594     0.021770683
      6700.20      0.94752557     0.021410669
      6706.90      0.96290479     0.020964325
      6713.61      0.96240895     0.020383295
      6720.32      0.95962174     0.019756979
      6727.05      0.95329630     0.019508451
      6733.77      0.94650507     0.019062202
      6740.51      0.94691222     0.018942819
      6747.25      0.93221202     0.018742708
      6754.00      0.91121507     0.018111250
      6760.75      0.89090543     0.017674932
      6767.51      0.87138423     0.017687182
      6774.28      0.85356510     0.017813006
      6781.05      0.83194105     0.017730262
      6787.84      0.82681361     0.017907644
      6794.62      0.82263295     0.018018453
      6801.42      0.81442435     0.017915229
      6808.22      0.81709412     0.017803575
      6815.03      0.81316963     0.017747886
      6821.85      0.80731969     0.017684856
      6828.67      0.80232982     0.017883909
      6835.50      0.79832658     0.017759296
      6842.33      0.79856054     0.017757099
      6849.17      0.79253330     0.017709849
      6856.02      0.79386966     0.017982727
      6862.88      0.79369674     0.018393282
      6869.74      0.78625730     0.018527389
      6876.61      0.77277627     0.018735446
      6883.49      0.77034471     0.018906306
      6890.37      0.77123571     0.019219103
      6897.27      0.77129175     0.019845876
      6904.16      0.76795167     0.020679938
      6911.07      0.77846868     0.021966344
      6917.98      0.78918180     0.023553170
      6924.89      0.80677203     0.023648789
      6931.82      0.81845078     0.023957427
      6938.75      0.83455401     0.023932600
      6945.69      0.83458946     0.023774558
      6952.64      0.84454238     0.022993012
      6959.59      0.85544178     0.022686768
      6966.55      0.85585118     0.021068670
      6973.52      0.85961141     0.019585921
      6980.49      0.86433425     0.018800607
      6987.47      0.87087593     0.018856900
      6994.46      0.87309414     0.018801782
      7001.46      0.86274871     0.018623706
      7008.46      0.86414493     0.018953699
      7015.46      0.86678644     0.019470536
      7022.48      0.86959737     0.019786460
      7029.51      0.86425070     0.020391223
      7036.53      0.85971115     0.020596072
      7043.57      0.86635397     0.021044152
      7050.62      0.86506887     0.021067319
      7057.66      0.88563695     0.021188482
      7064.72      0.88818812     0.020948033
      7071.79      0.88205138     0.021059566
      7078.86      0.87207512     0.021243497
      7085.94      0.89035791     0.021604546
      7093.03      0.89363605     0.022084202
      7100.12      0.90222672     0.021792579
      7107.22      0.91223813     0.021423540
      7114.33      0.93550933     0.021498905
      7121.44      0.95229617     0.021726662
      7128.56      0.97067206     0.022516179
      7135.69      0.98341192     0.023002059
      7142.83       1.0085043     0.023329766
      7149.97       1.0167625     0.023761149
      7157.12       1.0375958     0.023973813
      7164.28       1.0246565     0.024445987
      7171.44       1.0422368     0.024857095
      7178.62       1.0364093     0.025406483
      7185.80       1.0700823     0.026082707
      7192.98       1.1124286     0.025725165
      7200.17       1.1585536     0.024565141
      7207.38       1.2188022     0.024463575
      7214.58       1.3014913     0.023936446
      7221.80       1.4099879     0.023432702
      7229.02       1.5057596     0.023202279
      7236.25       1.6151519     0.023083518
      7243.49       1.7318198     0.023232460
      7250.73       1.9224098     0.022024015
      7257.98       2.0713477     0.021185983
      7265.24       2.2066291     0.021072689
      7272.51       2.3619782     0.022132136
      7279.78       2.4784146     0.021961409
      7287.06       2.5934315     0.021367881
      7294.35       2.6643116     0.022081243
      7301.64       2.6942458     0.022082589
      7308.94       2.7263997     0.022688785
      7316.25       2.7184807     0.024331230
      7323.57       2.7232637     0.027942807
      7330.89       2.6187388     0.024671363
      7338.22       2.5333747     0.021976052
      7345.56       2.4519117     0.023081100
      7352.91       2.3145795     0.022807475
      7360.26       2.1712766     0.022643829
      7367.62       1.9925623     0.023153010
      7374.99       1.8280853     0.023598980
      7382.37       1.6802112     0.023993352
      7389.75       1.5750626     0.021608086
      7397.14       1.4534500     0.019916235
      7404.53       1.3382629     0.019249618
      7411.94       1.2442859     0.018422590
      7419.35       1.1674590     0.017374637
      7426.77       1.0990277     0.016237390
      7434.20       1.0366800     0.016325078
      7441.63      0.98121060     0.016136022
      7449.07      0.94384217     0.015810110
      7456.52      0.90538966     0.015852413
      7463.98      0.87503721     0.015125643
      7471.45      0.84759753     0.014705575
      7478.92      0.83090707     0.014488164
      7486.40      0.81234683     0.014624381
      7493.88      0.79845235     0.014155811
      7501.38      0.78377703     0.014168367
      7508.88      0.78481112     0.014554665
      7516.39      0.78120557     0.015062441
      7523.91      0.78868029     0.016070545
      7531.43      0.79281378     0.016906231
      7538.96      0.79151722     0.017107772
      7546.50      0.80207866     0.017534113
      7554.05      0.79633310     0.017795428
      7561.60      0.80413225     0.018401518
      7569.16      0.79724485     0.018454582
      7576.73      0.79118911     0.018799034
      7584.31      0.78590084     0.018436902
      7591.89      0.78766788     0.018387946
      7599.49      0.78619516     0.018127758
      7607.09      0.78933382     0.018373465
      7614.70      0.78471505     0.019133518
      7622.31      0.79931969     0.019648134
      7629.93      0.79824206     0.019768263
      7637.56      0.79744892     0.019581751
      7645.20      0.80969709     0.019135142
      7652.85      0.83186451     0.018890815
      7660.50      0.84122515     0.019097592
      7668.16      0.85415275     0.019860642
      7675.83      0.88279781     0.019232935
      7683.50      0.90303459     0.018363251
      7691.19      0.92924874     0.017828635
      7698.88      0.95365472     0.017471028
      7706.58      0.97649267     0.017326975
      7714.29      0.99155094     0.016652477
      7722.00      0.99291784     0.016107505
      7729.73       1.0138643     0.015486797
      7737.45       1.0422757     0.015320468
      7745.19       1.0590453     0.015053394
      7752.94       1.0761269     0.014913718
      7760.69       1.0896593     0.014304341
      7768.45       1.0963389     0.014249798
      7776.22       1.0786409     0.014291895
      7784.00       1.0578217     0.014257670
      7791.78       1.0305326     0.013787374
      7799.57       1.0087311     0.013745553
      7807.37      0.97394402     0.014282623
      7815.18      0.94992647     0.014543589
      7822.99      0.92538145     0.014845827
      7830.82      0.89828836     0.015300132
      7838.65      0.87613721     0.016145715
      7846.49      0.84918785     0.017380091
      7854.34      0.81353856     0.018721832
      7862.19      0.78215276     0.019346725
      7870.05      0.76769485     0.019431696
      7877.93      0.78342345     0.019507162
      7885.80      0.79667535     0.019046778
      7893.69      0.79920063     0.018389844
      7901.58      0.79466639     0.018123368
      7909.49      0.79105791     0.017376444
      7917.40      0.78263774     0.016542180
      7925.31      0.77080531     0.014805093
      7933.24      0.75625473     0.013919590
      7941.17      0.74316105     0.013610452
      7949.11      0.73989244     0.013819631
      7957.06      0.72973859     0.014467057
      7965.02      0.72766934     0.015217619
      7972.98      0.72494247     0.015532110
      7980.96      0.71872584     0.015915733
      7988.94      0.71910755     0.015955212
      7996.93      0.72347693     0.016646554
      8004.93      0.71789539     0.016603277
      8012.93      0.71932108     0.017051113
      8020.95      0.72127804     0.017076631
      8028.97      0.71950511     0.017214890
      8036.99      0.71376348     0.016937652
      8045.03      0.70702183     0.017467501
      8053.08      0.69257484     0.017831238
      8061.13      0.68965530     0.018162937
      8069.20      0.68759142     0.018485794
      8077.26      0.68030556     0.018671838
      8085.34      0.65775417     0.018657161
      8093.43      0.65012971     0.018303532
      8101.52      0.66343829     0.018475976
      8109.62      0.66931268     0.018786931
      8117.73      0.66830386     0.019597173
      8125.85      0.67113957     0.018161350
      8133.98      0.66472690     0.017409068
      8142.11      0.65695168     0.016989016
      8150.25      0.65619978     0.016863116
      8158.41      0.65780349     0.016130783
      8166.56      0.66488777     0.016009030
      8174.73      0.65595870     0.015321043
      8182.91      0.65057129     0.014771034
      8191.09      0.64990205     0.014525528
      8199.28      0.64826734     0.014522475
      8207.48      0.65196922     0.014153297
      8215.69      0.66130635     0.013691747
      8223.91      0.66399530     0.013537593
      8232.13      0.66916278     0.013374788
      8240.36      0.66596517     0.013269309
      8248.60      0.67306210     0.012946049
      8256.85      0.68338076     0.012895932
      8265.11      0.67827087     0.012889294
      8273.37      0.67153777     0.012456409
      8281.65      0.66977063     0.012065006
      8289.93      0.66210276     0.011740338
      8298.22      0.65203253     0.011717678
      8306.52      0.65170011     0.011880664
      8314.83      0.64155040     0.012064038
      8323.14      0.62784762     0.012063687
      8331.46      0.62258415     0.011817057
      8339.80      0.62588306     0.011791928
      8348.13      0.63726866     0.011845604
      8356.48      0.65585594     0.011904535
      8364.84      0.68631108     0.011877830
      8373.21      0.72100266     0.011761956
      8381.58      0.76488022     0.011666361
      8389.96      0.82835522     0.011570825
      8398.35      0.88420994     0.011712440
      8406.75      0.95409954     0.011954947
      8415.16       1.0310820     0.011931307
      8423.57       1.1040156     0.012044560
      8432.00       1.1871839     0.012423217
      8440.43       1.2758795     0.011844673
      8448.87       1.3577530     0.012295977
      8457.32       1.4434031     0.013389914
      8465.78       1.5369364     0.015304135
      8474.25       1.6029662     0.016318535
      8482.72       1.6914551     0.017303890
      8491.20       1.7822365     0.018401203
      8499.69       1.8613836     0.021095554
      8508.19       1.9502849     0.024820780
      8516.70       2.0322454     0.028294354
      8525.22       2.1113906     0.024260529
      8533.75       2.1676227     0.024381829
      8542.28       2.2417365     0.021742342
      8550.82       2.2985595     0.021541726
      8559.37       2.3146616     0.022018805
      8567.93       2.3676124     0.022340264
      8576.50       2.3881198     0.021792320
      8585.08       2.4148062     0.022605876
      8593.66       2.4411027     0.023483007
      8602.26       2.4526348     0.024703824
      8610.86       2.4240670     0.025456078
      8619.47       2.4419958     0.022598608
      8628.09       2.4329617     0.022880897
      8636.72       2.4214165     0.022286021
      8645.36       2.4281385     0.022970640
      8654.00       2.4069933     0.023049023
      8662.66       2.3432096     0.033127820
      8671.32       2.3316107     0.031139571
      8679.99       2.2773154     0.030585648
      8688.67       2.2077291     0.025042086
      8697.36       2.1059307     0.022289418
      8706.06       2.0107644     0.019889483
      8714.76       1.9073527     0.018964270
      8723.48       1.8077718     0.017537195
      8732.21       1.7051473     0.016905176
      8740.93       1.5977033     0.017274442
      8749.68       1.4862783     0.016369825
      8758.43       1.3407678     0.020092872
      8767.19       1.2419403     0.019779580
      8775.96       1.1589741     0.019409401
      8784.73       1.0857982     0.019074866
      8793.52       1.0173829     0.018853548
      8802.31      0.95013601     0.019017336
      8811.11      0.89590881     0.019601017
      8819.92      0.84701978     0.019462225
      8828.75      0.82614077     0.019345210
      8837.57      0.79666132     0.018987642
      8846.41      0.77633221     0.018175020
      8855.26      0.77181524     0.017559778
      8864.12      0.75613280     0.017261603
      8872.98      0.74657635     0.016583664
      8881.85      0.72943381     0.016538735
      8890.73      0.71762624     0.016040421
      8899.63      0.70546572     0.015849320
      8908.52      0.69469886     0.015378315
      8917.43      0.68283530     0.015572319
      8926.35      0.67404417     0.015350425
      8935.28      0.66322476     0.015575480
      8944.22      0.65908535     0.015891693
      8953.16      0.64175437     0.016168708
      8962.11      0.64077005     0.016322479
      8971.08      0.62809481     0.016237655
      8980.05      0.61586991     0.016360784
      8989.03      0.61205050     0.016803890
      8998.02      0.60255521     0.017090753
      9007.02      0.59490671     0.017189778
      9016.02      0.59056100     0.017477469
      9025.04      0.58316675     0.017938338
      9034.07      0.57689753     0.018896231
      9043.10      0.57716325     0.020170515
      9052.14      0.56625165     0.021208787
      9061.20      0.56107781     0.021282905
      9070.26      0.55519682     0.021497030
      9079.33      0.55332676     0.021729809
      9088.41      0.54554174     0.021979270
      9097.50      0.54822147     0.022217130
      9106.60      0.55178226     0.022800899
      9115.70      0.55819567     0.022836064
      9124.82      0.57011620     0.023011441
      9133.94      0.58211412     0.024026230
      9143.08      0.58521262     0.023780963
      9152.22      0.59586863     0.023823200
      9161.37      0.61107193     0.024174624
      9170.54      0.62002514     0.024204073
      9179.71      0.62597909     0.025075270
      9188.89      0.63054526     0.025233921
      9198.08      0.63948452     0.025898323
      9207.28      0.64200128     0.027499337
      9216.48      0.64082435     0.028597171
      9225.70      0.64308361     0.029115839
      9234.92      0.64413282     0.029651598
      9244.16      0.64717831     0.030446367
      9253.40      0.65081440     0.031360575
      9262.66      0.65979934     0.033111142
      9271.92      0.68123946     0.037525170
      9281.20      0.69511310     0.040425767
      9290.48      0.69105556     0.045113234
      9299.77      0.71276963     0.048719333
      9309.07      0.72223275     0.053663650
      9318.38      0.73042946     0.062388607
      9327.69      0.73588422     0.071311565
      9337.02      0.74406701     0.092089012
      9346.36      0.74830901      0.11043615
      9355.71      0.77469266      0.13252417
