# starting wavelength =        2816.0001
# ending wavelength =        8499.7779
# O2 telluric scale =        0
# O2 telluric shift =        0
# H2O telluric scale =        0
# H2O telluric shift =        0
      2816.60      0.91821650      0.10312810
      2819.42      0.92496228      0.10142870
      2822.24      0.95430467      0.10034584
      2825.06      0.97171125     0.099495354
      2827.88      0.97924296     0.098130887
      2830.71      0.99888301     0.097338993
      2833.54       1.0145696     0.096162568
      2836.38      0.99254844     0.095261020
      2839.21      0.99669345     0.094357236
      2842.05       1.0101219     0.093215158
      2844.90      0.98545783     0.092472358
      2847.74      0.96116375     0.091282573
      2850.59      0.98289408     0.090789906
      2853.44      0.97207586     0.090048571
      2856.29       1.0040130     0.088860866
      2859.15       1.0079196     0.088118019
      2862.01       1.0533438     0.087126521
      2864.87       1.0439231     0.086333720
      2867.74       1.0318511     0.085557176
      2870.60       1.0273767     0.084540185
      2873.47       1.0363822     0.083761875
      2876.35       1.0407304     0.082641994
      2879.22       1.0765702     0.082190526
      2882.10       1.0881142     0.081582606
      2884.99       1.0714184     0.080546455
      2887.87       1.0591973     0.080076548
      2890.76       1.0404257     0.079074132
      2893.65       1.0303276     0.078449100
      2896.54       1.0201815     0.077675569
      2899.44       1.0286409     0.077144992
      2902.34       1.0167396     0.076916172
      2905.24       1.0032346     0.076190267
      2908.15       1.0185401     0.075880964
      2911.06       1.0209191     0.075238484
      2913.97       1.0041218     0.074941605
      2916.88       1.0154782     0.074343136
      2919.80      0.99871418     0.074309979
      2922.72      0.99827985     0.073691550
      2925.64       1.0165400     0.073377299
      2928.57       1.0187576     0.072929332
      2931.50       1.0394885     0.072578169
      2934.43       1.0428853     0.072447045
      2937.36       1.0248619     0.071786912
      2940.30       1.0392436     0.071514640
      2943.24       1.0507035     0.071039669
      2946.18       1.0473868     0.070579978
      2949.13       1.0516369     0.069749772
      2952.08       1.0457086     0.069461566
      2955.03       1.0539222     0.068660597
      2957.99       1.0538410     0.068395774
      2960.94       1.0871778     0.067598299
      2963.90       1.0930439     0.067146884
      2966.87       1.1047936     0.066586427
      2969.84       1.1061690     0.066197438
      2972.81       1.0931372     0.065754804
      2975.78       1.1057904     0.065445724
      2978.76       1.0880223     0.064885045
      2981.73       1.0705737     0.064797359
      2984.72       1.0434099     0.064294661
      2987.70       1.0341104     0.064304717
      2990.69       1.0063219     0.063874051
      2993.68       1.0133130     0.063980358
      2996.67      0.98909308     0.063531115
      2999.67      0.97479684     0.063342913
      3002.67      0.96785253     0.063093689
      3005.67      0.96231040     0.062907582
      3008.68      0.95558323     0.062618358
      3011.69      0.94695839     0.062355676
      3014.70      0.94053118     0.061941373
      3017.71      0.91973092     0.061626665
      3020.73      0.93246867     0.061014834
      3023.75      0.92837236     0.060544159
      3026.78      0.91999915     0.060204018
      3029.80      0.92918393     0.059837086
      3032.83      0.93622768     0.059573749
      3035.87      0.92578550     0.059207817
      3038.90      0.92391925     0.058929068
      3041.94      0.94302300     0.058545876
      3044.98      0.95806190     0.058207589
      3048.03      0.96663392     0.057628272
      3051.08      0.96402242     0.057507678
      3054.13      0.97773977     0.057013046
      3057.18      0.99971932     0.056675032
      3060.24      0.98730083     0.056424666
      3063.30      0.98286138     0.056102357
      3066.36      0.98237207     0.055902579
      3069.43      0.98301168     0.055649482
      3072.50      0.99846017     0.055447234
      3075.57       1.0022925     0.055142787
      3078.65       1.0070379     0.054655187
      3081.73      0.99026057     0.054556302
      3084.81       1.0027389     0.054063191
      3087.89       1.0059898     0.053958608
      3090.98       1.0120589     0.053470292
      3094.07       1.0180720     0.053122935
      3097.17       1.0097126     0.052850239
      3100.26       1.0096883     0.052491168
      3103.36       1.0033807     0.052206601
      3106.47       1.0191115     0.051816072
      3109.58       1.0131690     0.051291835
      3112.68       1.0182769     0.051177379
      3115.80       1.0176570     0.050725003
      3118.91       1.0275650     0.050585537
      3122.03       1.0375683     0.050096207
      3125.15       1.0389763     0.049769557
      3128.28       1.0382697     0.049518396
      3131.41       1.0421846     0.049150736
      3134.54       1.0265625     0.048664470
      3137.67       1.0271572     0.048539990
      3140.81       1.0235387     0.048121360
      3143.95       1.0138653     0.047839989
      3147.10       1.0097485     0.047650806
      3150.24       1.0064994     0.047458414
      3153.39      0.99846388     0.047433312
      3156.55      0.98650080     0.047064068
      3159.70      0.97606409     0.046843370
      3162.86      0.97348689     0.046669253
      3166.03      0.96848874     0.046416131
      3169.19      0.95903465     0.046045973
      3172.36      0.94968996     0.046000235
      3175.54      0.94124233     0.045634825
      3178.71      0.91858697     0.045371522
      3181.89      0.91525623     0.045284274
      3185.07      0.90927974     0.044847379
      3188.26      0.91710706     0.044525758
      3191.45      0.92006217     0.044284265
      3194.64      0.92670813     0.043957213
      3197.83      0.92360457     0.043537111
      3201.03      0.93202122     0.043304789
      3204.23      0.93076700     0.043270184
      3207.44      0.93635684     0.042956549
      3210.64      0.93608638     0.042738313
      3213.85      0.93960680     0.042570957
      3217.07      0.95443588     0.042341965
      3220.28      0.94740782     0.042095263
      3223.51      0.95896041     0.041892960
      3226.73      0.96084323     0.041643449
      3229.96      0.96294641     0.041351907
      3233.19      0.95701535     0.041212683
      3236.42      0.96443488     0.041243581
      3239.66      0.97407436     0.040955314
      3242.90      0.98290317     0.040756372
      3246.14      0.98258471     0.040607122
      3249.39      0.98594476     0.040412795
      3252.64      0.98781343     0.040215209
      3255.89      0.98029067     0.039908577
      3259.14      0.97521699     0.039895116
      3262.40      0.98269237     0.039739572
      3265.67      0.98508601     0.039475624
      3268.93      0.98181994     0.039329169
      3272.20      0.98405600     0.039229441
      3275.47      0.97506573     0.039131517
      3278.75      0.98799044     0.039051007
      3282.03      0.99360336     0.038891739
      3285.31       1.0008164     0.039023912
      3288.60       1.0041015     0.039051289
      3291.88       1.0084324     0.038948206
      3295.18       1.0034798     0.038982144
      3298.47      0.99585781     0.039034964
      3301.77      0.97936200     0.039086958
      3305.07      0.96964308     0.039111612
      3308.38      0.96505312     0.039090548
      3311.69      0.95853646     0.038919706
      3315.00      0.96348354     0.039002319
      3318.31      0.96345980     0.038950229
      3321.63      0.96029927     0.038769053
      3324.95      0.95922164     0.038726566
      3328.28      0.95963490     0.038703731
      3331.61      0.96131435     0.038666594
      3334.94      0.96278443     0.038586571
      3338.27      0.97593992     0.038490922
      3341.61      0.96775934     0.038387398
      3344.95      0.96722960     0.038155383
      3348.30      0.96106138     0.038019676
      3351.65      0.97555012     0.038025704
      3355.00      0.97359977     0.037812288
      3358.35      0.97258363     0.037723779
      3361.71      0.96861452     0.037626646
      3365.07      0.98036622     0.037394213
      3368.44      0.98215472     0.037256251
      3371.81      0.99168089     0.037267887
      3375.18      0.99688587     0.037140177
      3378.56       1.0029694     0.036930094
      3381.94      0.99659832     0.036836963
      3385.32       1.0057574     0.036754164
      3388.70       1.0137536     0.036659255
      3392.09       1.0165246     0.036427614
      3395.48       1.0180471     0.036428581
      3398.88       1.0120269     0.036300457
      3402.28       1.0209157     0.036177841
      3405.68       1.0173027     0.035965486
      3409.09       1.0232173     0.035871929
      3412.49       1.0160712     0.035794490
      3415.91       1.0100655     0.035718774
      3419.32       1.0053799     0.035552210
      3422.74      0.99952965     0.035610005
      3426.17      0.98585658     0.035535004
      3429.59      0.98130441     0.035472401
      3433.02      0.96256351     0.035298500
      3436.45      0.96646874     0.035200513
      3439.89      0.97028865     0.035114187
      3443.33      0.97201025     0.035013320
      3446.78      0.96612865     0.034907147
      3450.22      0.96417993     0.034698000
      3453.67      0.96487064     0.034574029
      3457.13      0.97182749     0.034438160
      3460.58      0.97438580     0.034413554
      3464.04      0.98416177     0.034255064
      3467.51      0.97541438     0.034023809
      3470.98      0.97662249     0.033878133
      3474.45      0.96235439     0.033737737
      3477.92      0.96825846     0.033605302
      3481.40      0.96599722     0.033476152
      3484.88      0.97066888     0.033265823
      3488.37      0.96824230     0.033163820
      3491.86      0.96229533     0.033034170
      3495.35      0.96438130     0.032909070
      3498.84      0.97365859     0.032800721
      3502.34      0.97167951     0.032711662
      3505.84      0.98334839     0.032568973
      3509.35      0.98382394     0.032539852
      3512.86      0.98831318     0.032498027
      3516.37      0.98993019     0.032442990
      3519.89       1.0000845     0.032400206
      3523.41      0.99096848     0.032334930
      3526.93      0.98694111     0.032254410
      3530.46      0.98335153     0.032100043
      3533.99      0.97756917     0.032045159
      3537.53      0.97345041     0.031982305
      3541.06      0.96668741     0.031936412
      3544.60      0.97307142     0.031890239
      3548.15      0.97322239     0.031837107
      3551.70      0.97152031     0.031788734
      3555.25      0.97044046     0.031751623
      3558.80      0.95934157     0.031615646
      3562.36      0.95472967     0.031558140
      3565.92      0.95313905     0.031515082
      3569.49      0.94407271     0.031482417
      3573.06      0.94787255     0.031462769
      3576.64      0.94659266     0.031457861
      3580.21      0.93714327     0.031453542
      3583.79      0.92943751     0.031459447
      3587.38      0.94447121     0.031463020
      3590.96      0.95370396     0.031454143
      3594.55      0.95807070     0.031346298
      3598.15      0.95198558     0.031336560
      3601.75      0.94503077     0.031320029
      3605.35      0.94256395     0.031314273
      3608.96      0.94544140     0.031313174
      3612.56      0.94555699     0.031320158
      3616.18      0.94866822     0.031248897
      3619.79      0.94317769     0.031267923
      3623.41      0.93817784     0.031289340
      3627.04      0.92881099     0.031316791
      3630.66      0.93361165     0.031324576
      3634.29      0.94622856     0.031354398
      3637.93      0.94885770     0.031409598
      3641.57      0.94798886     0.031467892
      3645.21      0.95410172     0.031534464
      3648.86      0.96674138     0.031581453
      3652.50      0.96390421     0.031521273
      3656.16      0.96253376     0.031543861
      3659.81      0.95552909     0.031560544
      3663.47      0.95395509     0.031559567
      3667.14      0.95369941     0.031554073
      3670.80      0.95129373     0.031558957
      3674.48      0.95573285     0.031554408
      3678.15      0.96056173     0.031540510
      3681.83      0.96105275     0.031433182
      3685.51      0.96419812     0.031418677
      3689.20      0.96287827     0.031390483
      3692.88      0.97096188     0.031355607
      3696.58      0.97568464     0.031314609
      3700.27      0.96248371     0.031273135
      3703.98      0.96755485     0.031233588
      3707.68      0.95989869     0.031114413
      3711.39      0.95282542     0.031101416
      3715.10      0.95329983     0.031095414
      3718.81      0.97171579     0.031093878
      3722.53      0.98357833     0.031104052
      3726.26       1.0068997     0.031011966
      3729.98       1.0177941     0.031007025
      3733.71       1.0241967     0.031193968
      3737.45       1.0343719     0.031421446
      3741.18       1.0340059     0.031190578
      3744.93       1.0424414     0.030928767
      3748.67       1.0631487     0.030869319
      3752.42       1.0746718     0.030848978
      3756.17       1.0818075     0.031162339
      3759.93       1.0952046     0.031264740
      3763.69       1.1196888     0.030982298
      3767.45       1.1326672     0.031031053
      3771.22       1.1471751     0.031073193
      3774.99       1.1595330     0.031161638
      3778.77       1.1560379     0.031187267
      3782.54       1.1643597     0.031341866
      3786.33       1.1761023     0.031513952
      3790.11       1.1855449     0.031691426
      3793.90       1.1886800     0.031784812
      3797.70       1.1960070     0.031957224
      3801.50       1.2213872     0.032103111
      3805.30       1.2427731     0.032306096
      3809.10       1.2771618     0.032312899
      3812.91       1.2908847     0.032452408
      3816.73       1.3060529     0.032476584
      3820.54       1.3176586     0.032466738
      3824.36       1.3207470     0.032320235
      3828.19       1.3266040     0.032260746
      3832.02       1.3269216     0.032079178
      3835.85       1.3315973     0.031939695
      3839.68       1.3314166     0.031769340
      3843.52       1.3315010     0.031580403
      3847.37       1.3281647     0.031268092
      3851.22       1.3374514     0.031077060
      3855.07       1.3458340     0.030883579
      3858.92       1.3692352     0.030686937
      3862.78       1.3603765     0.030519134
      3866.64       1.3685810     0.030375129
      3870.51       1.3544399     0.030191497
      3874.38       1.3512796     0.030119606
      3878.26       1.3441269     0.030109823
      3882.13       1.3426886     0.030249401
      3886.02       1.3491244     0.030119259
      3889.90       1.3590578     0.029799665
      3893.79       1.3645897     0.029706665
      3897.69       1.3729678     0.029734602
      3901.59       1.3626709     0.029945101
      3905.49       1.3463934     0.030031448
      3909.39       1.3364488     0.029800666
      3913.30       1.3195369     0.029615575
      3917.22       1.2908516     0.029601888
      3921.13       1.2750686     0.029585213
      3925.06       1.2642207     0.029482987
      3928.98       1.2594817     0.029471541
      3932.91       1.2553816     0.029463516
      3936.84       1.2515653     0.029454116
      3940.78       1.2535311     0.029439283
      3944.72       1.2651822     0.029337635
      3948.67       1.2836272     0.029332275
      3952.61       1.3084579     0.029336436
      3956.57       1.3276503     0.029341726
      3960.52       1.3404735     0.029350186
      3964.48       1.3497630     0.029375338
      3968.45       1.3587817     0.029400833
      3972.42       1.3667267     0.029338892
      3976.39       1.3779281     0.029364622
      3980.37       1.3948900     0.029400336
      3984.35       1.4003914     0.029420492
      3988.33       1.4158833     0.029436767
      3992.32       1.4448481     0.029435130
      3996.31       1.4649117     0.029428769
      4000.31       1.5111020     0.036020466
      4004.31       1.5451781     0.036181059
      4008.31       1.5603972     0.035995690
      4012.32       1.5853605     0.036090900
      4016.33       1.6044580     0.036005950
      4020.35       1.5975482     0.035741291
      4024.37       1.5942365     0.035796870
      4028.40       1.5725798     0.035584613
      4032.42       1.5609152     0.035533408
      4036.46       1.5612416     0.035487410
      4040.50       1.5633369     0.035467171
      4044.54       1.5487141     0.035323686
      4048.58       1.5404543     0.035483026
      4052.63       1.5313250     0.035359291
      4056.68       1.5176140     0.035541710
      4060.74       1.4924305     0.035442438
      4064.80       1.4764061     0.035490314
      4068.86       1.4759343     0.035541989
      4072.93       1.4694928     0.035568343
      4077.01       1.4487865     0.035591402
      4081.08       1.4335522     0.035641178
      4085.17       1.4126347     0.035542767
      4089.25       1.3915910     0.035589569
      4093.34       1.3794837     0.035630331
      4097.43       1.3702179     0.035691958
      4101.53       1.3622745     0.035726013
      4105.63       1.3477730     0.035779136
      4109.74       1.3591968     0.035822527
      4113.85       1.3513759     0.035870948
      4117.96       1.3611921     0.035893758
      4122.08       1.3880079     0.035749394
      4126.20       1.3975971     0.035760602
      4130.33       1.4064990     0.035767326
      4134.46       1.4313380     0.035788819
      4138.59       1.4485884     0.035798055
      4142.73       1.4614328     0.035792661
      4146.88       1.4743916     0.035643204
      4151.02       1.4851757     0.035788732
      4155.18       1.5007137     0.035642242
      4159.33       1.5147339     0.035783055
      4163.49       1.5044202     0.035645329
      4167.65       1.5074347     0.035672456
      4171.82       1.5046407     0.035669242
      4175.99       1.4898735     0.035672386
      4180.17       1.4889046     0.035524417
      4184.35       1.4690364     0.035687104
      4188.54       1.4610240     0.035574600
      4192.72       1.4513437     0.035730817
      4196.92       1.4479393     0.035600180
      4201.11       1.4493314     0.035741535
      4205.31       1.4582715     0.035835883
      4209.52       1.4578842     0.035660758
      4213.73       1.4433277     0.035674675
      4217.94       1.4444226     0.035708462
      4222.16       1.4360032     0.035772199
      4226.38       1.4475150     0.035670513
      4230.61       1.4635170     0.035727847
      4234.84       1.4486083     0.035822288
      4239.08       1.4479619     0.035902695
      4243.32       1.4618228     0.036007305
      4247.56       1.4591535     0.036080854
      4251.81       1.4695180     0.036239188
      4256.06       1.4640148     0.036081109
      4260.32       1.4544509     0.036000169
      4264.58       1.4385020     0.036123354
      4268.84       1.4349660     0.035991080
      4273.11       1.4108456     0.036054140
      4277.38       1.4037328     0.035958353
      4281.66       1.3739751     0.036165674
      4285.94       1.3610830     0.036282399
      4290.23       1.3526590     0.036226962
      4294.52       1.3296375     0.036345155
      4298.81       1.3049211     0.036614124
      4303.11       1.2715104     0.036587439
      4307.42       1.2761498     0.037338052
      4311.72       1.2677342     0.037219530
      4316.04       1.2570639     0.036972036
      4320.35       1.2599390     0.036932705
      4324.67       1.2457295     0.037024409
      4329.00       1.2658028     0.037067832
      4333.33       1.2762751     0.037264494
      4337.66       1.2812977     0.037580988
      4342.00       1.3006381     0.037661352
      4346.34       1.3060141     0.037902794
      4350.69       1.3268903     0.038121482
      4355.04       1.3525215     0.038192143
      4359.39       1.3618964     0.038434347
      4363.75       1.3727652     0.038850987
      4368.12       1.3753637     0.038732996
      4372.48       1.3806785     0.038497697
      4376.86       1.4116585     0.038444812
      4381.23       1.4139276     0.038352876
      4385.61       1.4274483     0.038216982
      4390.00       1.4314993     0.037902143
      4394.39       1.4265985     0.037784005
      4398.79       1.4350338     0.037822043
      4403.18       1.4315380     0.037745160
      4407.59       1.4362372     0.037610303
      4412.00       1.4250030     0.037783347
      4416.41       1.4317939     0.038141517
      4420.82       1.4351269     0.038555133
      4425.25       1.4488653     0.037813804
      4429.67       1.4590027     0.037905713
      4434.10       1.4605159     0.037966045
      4438.54       1.4705800     0.038046330
      4442.97       1.4911779     0.038124085
      4447.42       1.4934663     0.038180377
      4451.86       1.4926085     0.038253286
      4456.32       1.4900962     0.038335292
      4460.77       1.4910733     0.038422975
      4465.24       1.4982556     0.038510916
      4469.70       1.4850602     0.038604195
      4474.17       1.4762504     0.038544586
      4478.65       1.4769485     0.038639210
      4483.12       1.4891511     0.038729015
      4487.61       1.4933207     0.038843871
      4492.09       1.4792360     0.038961124
      4496.59       1.4472641     0.039081955
      4501.08       1.4316492     0.039032674
      4505.58       1.4164942     0.039152247
      4510.09       1.4209506     0.039273560
      4514.60       1.4101111     0.039400572
      4519.12       1.4046774     0.039513964
      4523.63       1.3936499     0.039633302
      4528.16       1.3804111     0.039770645
      4532.69       1.3871929     0.039931086
      4537.22       1.3899876     0.040115512
      4541.76       1.4008789     0.040305883
      4546.30       1.3876219     0.040331067
      4550.85       1.3891864     0.040564452
      4555.40       1.4016430     0.040793244
      4559.95       1.4103633     0.041357790
      4564.51       1.4061577     0.041924515
      4569.08       1.4055135     0.041765426
      4573.65       1.4138470     0.041852432
      4578.22       1.4298457     0.042214894
      4582.80       1.4401348     0.042787469
      4587.38       1.4465420     0.043488407
      4591.97       1.4591752     0.044270320
      4596.56       1.4715106     0.045103573
      4601.16       1.4621455     0.045960468
      4605.76       1.4590024     0.046791926
      4610.37       1.4426162     0.047558819
      4614.98       1.4394044     0.048223652
      4619.59       1.4223057     0.048762452
      4624.21       1.4339692     0.049272504
      4628.84       1.4421942     0.049478958
      4633.47       1.4325725     0.049581103
      4638.10       1.4444692     0.049405483
      4642.74       1.4523757     0.048863647
      4647.38       1.4607689     0.048278389
      4652.03       1.4687475     0.047780256
      4656.68       1.4692922     0.047325711
      4661.34       1.4528715     0.046920711
      4666.00       1.4390382     0.046628046
      4670.67       1.4441143     0.046477262
      4675.33       1.4472279     0.046555410
      4680.01       1.4233818     0.046808832
      4684.69       1.4098702     0.046085121
      4689.38       1.3781618     0.045234987
      4694.07       1.3602575     0.044537904
      4698.76       1.3520998     0.043948081
      4703.46       1.3175591     0.043239961
      4708.16       1.3178924     0.042476095
      4712.87       1.2955277     0.041697763
      4717.58       1.2903504     0.040934816
      4722.30       1.2917891     0.040179349
      4727.03       1.2842287     0.039445930
      4731.75       1.2852784     0.038761379
      4736.48       1.2836870     0.038124015
      4741.22       1.2939828     0.037549924
      4745.96       1.2809624     0.037031521
      4750.71       1.2869438     0.036641547
      4755.46       1.2935651     0.036232994
      4760.22       1.2973069     0.035784844
      4764.97       1.2950251     0.035331109
      4769.74       1.2795549     0.034963621
      4774.51       1.2830200     0.034429805
      4779.29       1.2814437     0.034088260
      4784.07       1.2753246     0.033777268
      4788.85       1.2933669     0.033487291
      4793.64       1.3063837     0.033217684
      4798.43       1.2871742     0.033101216
      4803.23       1.2809539     0.032910450
      4808.03       1.2773464     0.032605809
      4812.84       1.2488170     0.032356745
      4817.66       1.2402269     0.032475885
      4822.48       1.2377014     0.032657587
      4827.30       1.2366054     0.032062897
      4832.12       1.2343514     0.031776176
      4836.96       1.2331735     0.031763210
      4841.79       1.2425633     0.031909565
      4846.63       1.2534132     0.032125140
      4851.48       1.2577192     0.032445597
      4856.33       1.2649100     0.032810352
      4861.19       1.2660278     0.033110586
      4866.05       1.2678595     0.033342172
      4870.92       1.2667037     0.033691627
      4875.79       1.2637551     0.033879870
      4880.66       1.2577947     0.034038851
      4885.55       1.2468604     0.034113782
      4890.43       1.2396110     0.034113827
      4895.32       1.2472965     0.033726259
      4900.22       1.2634667     0.033442827
      4905.12       1.2818508     0.033141000
      4910.02       1.2761083     0.032827347
      4914.94       1.2909623     0.032474553
      4919.85       1.2755456     0.032124731
      4924.77       1.2649574     0.031717463
      4929.70       1.2604645     0.031462456
      4934.62       1.2590298     0.031235360
      4939.56       1.2431768     0.031223723
      4944.50       1.2345000     0.031324036
      4949.44       1.2306577     0.030811874
      4954.39       1.2326016     0.030345441
      4959.35       1.2365576     0.030096065
      4964.31       1.2429608     0.029934375
      4969.27       1.2583048     0.029620207
      4974.24       1.2670254     0.029522105
      4979.22       1.2866244     0.029364748
      4984.20       1.2854921     0.029193045
      4989.18       1.2910235     0.028966125
      4994.17       1.2925868     0.028894199
      4999.16       1.2829526     0.028833223
      5004.16       1.2793989     0.028821120
      5009.17       1.2900272     0.028608294
      5014.18       1.3066058     0.028509273
      5019.19       1.3133524     0.028474727
      5024.21       1.3135725     0.028443885
      5029.23       1.3016140     0.028314693
      5034.26       1.2950602     0.028272540
      5039.30       1.2671556     0.028349734
      5044.34       1.2408700     0.028192684
      5049.39       1.2247878     0.028174953
      5054.43       1.2107061     0.028106656
      5059.49       1.1931879     0.028040638
      5064.55       1.1758269     0.027878980
      5069.61       1.1373799     0.027910109
      5074.68       1.1056891     0.027860112
      5079.76       1.1077998     0.027642679
      5084.84       1.1016215     0.027535020
      5089.92       1.0966219     0.027568803
      5095.01       1.1008869     0.027329850
      5100.11       1.1027539     0.027333289
      5105.21       1.0988390     0.027292173
      5110.31       1.1022447     0.026989136
      5115.42       1.1038858     0.026941800
      5120.54       1.1097260     0.026914402
      5125.66       1.1209653     0.026876475
      5130.79       1.1381628     0.026848315
      5135.92       1.1603200     0.026887367
      5141.05       1.1747151     0.026892769
      5146.20       1.1704924     0.027056668
      5151.34       1.1671431     0.027448641
      5156.49       1.1722941     0.027938417
      5161.65       1.1619716     0.027586407
      5166.81       1.1678043     0.027383959
      5171.98       1.1722584     0.027670926
      5177.15       1.1764520     0.028180629
      5182.33       1.1858228     0.028279226
      5187.51       1.1928858     0.028318914
      5192.70       1.1834202     0.028595137
      5197.89       1.1776766     0.028865489
      5203.09       1.1890195     0.033549579
      5208.29       1.1947662     0.034078243
      5213.50       1.1869615     0.034482379
      5218.72       1.1786693     0.035196559
      5223.93       1.1786761     0.036117477
      5229.16       1.1743173     0.034811200
      5234.39       1.1770763     0.033791506
      5239.62       1.1784247     0.033250168
      5244.86       1.1952286     0.032327859
      5250.11       1.1906519     0.031892441
      5255.36       1.1914237     0.031286677
      5260.61       1.1667370     0.031081717
      5265.87       1.1716479     0.031134434
      5271.14       1.1965469     0.031254340
      5276.41       1.2056972     0.030002928
      5281.69       1.2039332     0.028884124
      5286.97       1.1953672     0.028297267
      5292.26       1.1896688     0.027879766
      5297.55       1.1802179     0.027367534
      5302.85       1.1695909     0.026480571
      5308.15       1.1545194     0.026109279
      5313.46       1.1436674     0.025651844
      5318.77       1.1275578     0.025675905
      5324.09       1.1317077     0.025724831
      5329.42       1.1285278     0.025362563
      5334.75       1.1326224     0.025478191
      5340.08       1.1358683     0.025606858
      5345.42       1.1391165     0.025657156
      5350.77       1.1191423     0.025785471
      5356.12       1.1287859     0.025979126
      5361.48       1.1239419     0.026190938
      5366.83       1.1238068     0.026435841
      5372.20       1.1201836     0.026385573
      5377.58       1.1174497     0.026479772
      5382.95       1.1040570     0.026430319
      5388.34       1.0995206     0.026390206
      5393.72       1.0951059     0.026460867
      5399.12       1.0850236     0.026836504
      5404.52       1.0769197     0.026569512
      5409.92       1.0619950     0.026817027
      5415.33       1.0601614     0.027089808
      5420.75       1.0654278     0.027546657
      5426.17       1.0758473     0.027488177
      5431.60       1.0656472     0.027638555
      5437.03       1.0639702     0.028107363
      5442.47       1.0704273     0.028268540
      5447.91       1.0573215     0.028349475
      5453.36       1.0500965     0.028667407
      5458.81       1.0719164     0.027879838
      5464.27       1.0634181     0.027330703
      5469.73       1.0545286     0.026803290
      5475.20       1.0551539     0.026232091
      5480.68       1.0556269     0.025978338
      5486.16       1.0516764     0.025539314
      5491.65       1.0592931     0.025229745
      5497.14       1.0544867     0.025298482
      5502.64       1.0579650     0.024924394
      5508.14       1.0629137     0.024102264
      5513.65       1.0625186     0.023882129
      5519.16       1.0839857     0.023876248
      5524.68       1.0988415     0.023767901
      5530.20       1.1024668     0.023367619
      5535.73       1.0956275     0.023194298
      5541.27       1.1007422     0.023026380
      5546.81       1.1042593     0.022998714
      5552.36       1.1120116     0.023136907
      5557.91       1.1170608     0.023157854
      5563.47       1.1251792     0.022772753
      5569.04       1.1260888     0.022463483
      5574.60       1.1156040     0.022232933
      5580.18       1.1019082     0.021922135
      5585.76       1.0897006     0.021611934
      5591.35       1.0819973     0.021301327
      5596.94       1.0758436     0.021252035
      5602.53       1.0781486     0.021342148
      5608.14       1.0717629     0.021296541
      5613.75       1.0620250     0.021056663
      5619.36       1.0597275     0.020945022
      5624.98       1.0663981     0.020793505
      5630.60       1.0647064     0.021085661
      5636.23       1.0667778     0.021577737
      5641.87       1.0598685     0.021709500
      5647.51       1.0715319     0.021996268
      5653.16       1.0725220     0.022546663
      5658.82       1.0850570     0.023058012
      5664.47       1.0853853     0.023471240
      5670.14       1.0824644     0.023922549
      5675.81       1.0772649     0.024379012
      5681.48       1.0610996     0.024866488
      5687.17       1.0406516     0.024801000
      5692.85       1.0416198     0.024746789
      5698.55       1.0279297     0.024797875
      5704.25       1.0252914     0.024974443
      5709.95       1.0174414     0.024738148
      5715.66       1.0095995     0.024805024
      5721.38       1.0014097     0.024545567
      5727.10      0.99980276     0.024393124
      5732.83       1.0035750     0.023879491
      5738.56       1.0058364     0.023646247
      5744.30       1.0289923     0.023735956
      5750.04       1.0351957     0.023334535
      5755.79       1.0535629     0.023016640
      5761.55       1.0559088     0.022502021
      5767.31       1.0583544     0.022135927
      5773.08       1.0628681     0.021798011
      5778.85       1.0493696     0.022003485
      5784.63       1.0478016     0.021780413
      5790.41       1.0414560     0.021372492
      5796.21       1.0316116     0.020664355
      5802.00       1.0301777     0.020413921
      5807.81       1.0183916     0.020514291
      5813.61       1.0130448     0.020681390
      5819.43       1.0012440     0.020707369
      5825.25       1.0150848     0.020759038
      5831.07       1.0075366     0.020971403
      5836.90       1.0165741     0.021060623
      5842.74       1.0316053     0.020882972
      5848.58       1.0395744     0.020582050
      5854.43       1.0551929     0.020323629
      5860.29       1.0533333     0.019999459
      5866.15       1.0440233     0.019614641
      5872.01       1.0409465     0.019078988
      5877.89       1.0419176     0.018713690
      5883.76       1.0315851     0.018551601
      5889.65       1.0224556     0.018890282
      5895.54       1.0184133     0.018676792
      5901.43       1.0055609     0.018514581
      5907.34      0.98986429     0.018399679
      5913.24      0.98162861     0.018370253
      5919.16      0.96926552     0.018401034
      5925.08      0.95824704     0.018440456
      5931.00      0.95303956     0.018570189
      5936.93      0.95872022     0.018666293
      5942.87      0.95490390     0.019011122
      5948.81      0.96142386     0.019104913
      5954.76      0.96272511     0.018863862
      5960.72      0.96431135     0.018700843
      5966.68      0.96966422     0.018903304
      5972.64      0.97038877     0.019396722
      5978.62      0.97260760     0.019821411
      5984.60      0.99470545     0.020029665
      5990.58       1.0048485     0.020514096
      5996.57       1.0030100     0.021172201
      6002.57       1.0133934     0.021965352
      6008.57      0.99704835     0.022697562
      6014.58      0.98791504     0.023428848
      6020.60      0.98681325     0.023920947
      6026.62       1.0005182     0.024407853
      6032.65      0.99261124     0.024003940
      6038.68      0.99009234     0.024158115
      6044.72      0.98825570     0.024275048
      6050.76      0.98477629     0.024802407
      6056.81      0.99925429     0.025354058
      6062.87      0.99366759     0.025095487
      6068.93      0.99452803     0.024860012
      6075.00      0.99723040     0.024741286
      6081.08       1.0058601     0.024488557
      6087.16       1.0164327     0.025017442
      6093.25      0.99995526     0.024832996
      6099.34      0.99143982     0.024564038
      6105.44      0.97769038     0.024477940
      6111.54      0.96063204     0.023912338
      6117.66      0.94303680     0.023233572
      6123.78      0.92507079     0.022743865
      6129.90      0.92601335     0.022169857
      6136.03      0.93266176     0.021710216
      6142.17      0.93475712     0.021227265
      6148.31      0.91838240     0.020076357
      6154.46      0.91775746     0.019651963
      6160.61      0.91938694     0.019509550
      6166.77      0.92927555     0.019555358
      6172.94      0.92821582     0.019668098
      6179.11      0.92365565     0.019969919
      6185.29      0.93474086     0.020069534
      6191.48      0.93511833     0.019810829
      6197.67      0.94663969     0.019536267
      6203.87      0.93907240     0.019540593
      6210.07      0.92244738     0.019426924
      6216.28      0.92045970     0.019667562
      6222.50      0.92423554     0.019437157
      6228.72      0.92460093     0.019111478
      6234.95      0.92369342     0.019131971
      6241.19      0.92232868     0.019429479
      6247.42      0.93074388     0.019587997
      6253.67      0.92344070     0.019749453
      6259.93      0.91381228     0.020004686
      6266.19      0.91283534     0.020034088
      6272.46      0.91548166     0.020409329
      6278.73      0.91631521     0.020881090
      6285.01      0.90821873     0.021632121
      6291.29      0.89956257     0.022836532
      6297.58      0.89292375     0.023801763
      6303.88      0.89518232     0.023910413
      6310.19      0.89471648     0.023966361
      6316.50      0.91465475     0.023916885
      6322.81      0.92302045     0.023388607
      6329.14      0.92649542     0.023195362
      6335.47      0.93696321     0.023071177
      6341.80      0.92645705     0.021483432
      6348.14      0.93630004     0.020436166
      6354.49      0.95369299     0.019951305
      6360.85      0.95494116     0.020286897
      6367.21      0.96237597     0.020245162
      6373.57      0.96395206     0.020343372
      6379.95      0.97557812     0.020869933
      6386.33      0.98264774     0.021389166
      6392.72      0.98002410     0.021797653
      6399.11      0.97077493     0.022609462
      6405.51      0.93781140     0.022807266
      6411.92      0.93808688     0.023127738
      6418.32      0.94108370     0.023265196
      6424.74      0.93509142     0.023380437
      6431.17      0.94393864     0.023335121
      6437.60      0.95167611     0.023712651
      6444.04      0.93910091     0.024004863
      6450.48      0.92179345     0.024612344
      6456.94      0.89201112     0.024905206
      6463.39      0.89622921     0.024257244
      6469.85      0.92039261     0.023904483
      6476.33      0.94505089     0.023955072
      6482.80      0.94766755     0.025112522
      6489.28      0.99790161     0.024701528
      6495.77       1.0129357     0.025211613
      6502.27       1.0162383     0.025602081
      6508.77       1.0355372     0.026223659
      6515.28       1.0492347     0.026412328
      6521.80       1.0456928     0.027771664
      6528.32       1.0503008     0.027397733
      6534.85       1.0728962     0.027889306
      6541.38       1.0679924     0.027606218
      6547.92       1.0703511     0.026973100
      6554.47       1.0574681     0.025423172
      6561.03       1.0387280     0.025266947
      6567.59       1.0125263     0.024160764
      6574.16      0.99083563     0.023667767
      6580.73      0.97055229     0.023214982
      6587.31      0.95479877     0.023218549
      6593.90      0.94017349     0.022551995
      6600.50      0.93658587     0.022637016
      6607.10      0.93399651     0.022453377
      6613.70      0.93828002     0.021916214
      6620.32      0.92139068     0.022488115
      6626.94      0.90608025     0.021977031
      6633.57      0.91497648     0.021882936
      6640.20      0.91129880     0.021805112
      6646.84      0.90028628     0.021847564
      6653.49      0.90977884     0.021343342
      6660.14      0.91793230     0.020729772
      6666.80      0.92401962     0.020450839
      6673.47      0.92761927     0.020131650
      6680.14      0.92006544     0.019819932
      6686.82      0.91073251     0.019626071
      6693.51      0.90718955     0.018796574
      6700.20      0.90790497     0.018213824
      6706.90      0.89512455     0.017917439
      6713.61      0.89662671     0.017600576
      6720.32      0.89288324     0.017177622
      6727.05      0.88947303     0.016894124
      6733.77      0.87937046     0.016569449
      6740.51      0.86587563     0.016207770
      6747.25      0.86405779     0.015901372
      6754.00      0.85335468     0.015648488
      6760.75      0.85544794     0.015517803
      6767.51      0.85097727     0.015465740
      6774.28      0.84410739     0.015608052
      6781.05      0.83962669     0.015296778
      6787.84      0.83214734     0.015162902
      6794.62      0.82927870     0.015453126
      6801.42      0.82260116     0.015833290
      6808.22      0.81517056     0.016229342
      6815.03      0.81798244     0.016424027
      6821.85      0.82251272     0.016758278
      6828.67      0.83113797     0.017310620
      6835.50      0.83188078     0.018120629
      6842.33      0.83690333     0.018872144
      6849.17      0.84547973     0.019870131
      6856.02      0.83582292     0.020841930
      6862.88      0.85296002     0.021160872
      6869.74      0.86510259     0.021401137
      6876.61      0.87994920     0.021840998
      6883.49      0.87838617     0.022302311
      6890.37      0.90380919     0.022407765
      6897.27      0.89291547     0.022405306
      6904.16      0.89661213     0.021847237
      6911.07      0.88563576     0.021347777
      6917.98      0.88935780     0.021486727
      6924.89      0.89065647     0.022432736
      6931.82      0.89171507     0.021205346
      6938.75      0.89797498     0.021436529
      6945.69      0.88911075     0.021493983
      6952.64      0.86777327     0.021354759
      6959.59      0.87024270     0.021133761
      6966.55      0.86649364     0.021480725
      6973.52      0.84781509     0.021653266
      6980.49      0.85882720     0.023058351
      6987.47      0.83559216     0.021928937
      6994.46      0.83673048     0.020987323
      7001.46      0.82005046     0.020335246
      7008.46      0.81252990     0.019892227
      7015.46      0.80685322     0.019334516
      7022.48      0.80332672     0.018249130
      7029.51      0.78782080     0.017612887
      7036.53      0.78314104     0.016992971
      7043.57      0.76684041     0.016805106
      7050.62      0.76602823     0.016934483
      7057.66      0.77116651     0.016353675
      7064.72      0.76185109     0.015657251
      7071.79      0.76502655     0.015773285
      7078.86      0.76147655     0.015656434
      7085.94      0.75585498     0.015541102
      7093.03      0.76423011     0.015123069
      7100.12      0.76928552     0.015313401
      7107.22      0.76645850     0.015715867
      7114.33      0.77270967     0.015965088
      7121.44      0.76599355     0.016255977
      7128.56      0.76669359     0.016918051
      7135.69      0.76628480     0.017904543
      7142.83      0.77216030     0.019368728
      7149.97      0.77082663     0.020552579
      7157.12      0.76976380     0.021153485
      7164.28      0.75570954     0.021495277
      7171.44      0.75040833     0.021259972
      7178.62      0.75305272     0.020623894
      7185.80      0.74859900     0.019932739
      7192.98      0.74504016     0.019478614
      7200.17      0.74759147     0.018528678
      7207.38      0.74027928     0.017171425
      7214.58      0.73455738     0.016587107
      7221.80      0.73953060     0.015551188
      7229.02      0.74947539     0.015487765
      7236.25      0.75516835     0.016065207
      7243.49      0.76013975     0.016634136
      7250.73      0.77014499     0.017702507
      7257.98      0.76599378     0.018576030
      7265.24      0.77106562     0.019492940
      7272.51      0.78364578     0.020762657
      7279.78      0.79096859     0.022828624
      7287.06      0.80990009     0.024090285
      7294.35      0.81302325     0.025943096
      7301.64      0.80187949     0.025542020
      7308.94      0.82068636     0.026001164
      7316.25      0.82791085     0.025856272
      7323.57      0.81931318     0.027356057
      7330.89      0.81470183     0.024231177
      7338.22      0.82963607     0.023940672
      7345.56      0.81214008     0.024131253
      7352.91      0.81314243     0.024881780
      7360.26      0.80460797     0.024034961
      7367.62      0.80338403     0.023873786
      7374.99      0.79687257     0.024417063
      7382.37      0.80325691     0.025812688
      7389.75      0.80153085     0.026634599
      7397.14      0.79925383     0.024055720
      7404.53      0.80181459     0.023273233
      7411.94      0.79342489     0.022136386
      7419.35      0.77808258     0.022336260
      7426.77      0.77562041     0.021061314
      7434.20      0.76297808     0.020151146
      7441.63      0.75127617     0.018909116
      7449.07      0.74884220     0.018172709
      7456.52      0.74631185     0.017328331
      7463.98      0.73715299     0.017125684
      7471.45      0.72967585     0.016115842
      7478.92      0.73021095     0.015467897
      7486.40      0.71346907     0.015733481
      7493.88      0.71043429     0.015249008
      7501.38      0.70544749     0.014710321
      7508.88      0.71364620     0.014429096
      7516.39      0.72402423     0.014555176
      7523.91      0.73040879     0.014363331
      7531.43      0.72533812     0.013870668
      7538.96      0.72102992     0.013387098
      7546.50      0.72019507     0.013210413
      7554.05      0.71413200     0.013133774
      7561.60      0.71524228     0.013202206
      7569.16      0.71469939     0.013235238
      7576.73      0.71716597     0.012976323
      7584.31      0.72466141     0.012726739
      7591.89      0.72789128     0.012724812
      7599.49      0.72292683     0.012669813
      7607.09      0.71447463     0.012891866
      7614.70      0.71130543     0.012839984
      7622.31      0.71441907     0.012712365
      7629.93      0.71208955     0.012656760
      7637.56      0.71454597     0.012948301
      7645.20      0.71639776     0.013414930
      7652.85      0.72704528     0.013857314
      7660.50      0.72545934     0.013771884
      7668.16      0.72369241     0.013722754
      7675.83      0.71653584     0.014176951
      7683.50      0.71323128     0.014685639
      7691.19      0.70709579     0.015445109
      7698.88      0.70011509     0.016668554
      7706.58      0.70532163     0.017781607
      7714.29      0.69437393     0.018974280
      7722.00      0.69218188     0.020040079
      7729.73      0.69147635     0.020781392
      7737.45      0.67049982     0.021330899
      7745.19      0.63648405     0.021509752
      7752.94      0.62120458     0.021812370
      7760.69      0.62238726     0.021470398
      7768.45      0.62687952     0.020148730
      7776.22      0.62460509     0.020068477
      7784.00      0.62443824     0.020855461
      7791.78      0.62771022     0.021232922
      7799.57      0.62479393     0.021236216
      7807.37      0.61845139     0.020657315
      7815.18      0.63233718     0.021002507
      7822.99      0.64449648     0.020902396
      7830.82      0.65272872     0.020820577
      7838.65      0.65495798     0.021314049
      7846.49      0.65597933     0.022311634
      7854.34      0.66103414     0.022026304
      7862.19      0.65872900     0.020849789
      7870.05      0.66594785     0.020341455
      7877.93      0.65590483     0.020026386
      7885.80      0.65039922     0.019895219
      7893.69      0.63706923     0.019498072
      7901.58      0.64136920     0.019708456
      7909.49      0.63282587     0.018372677
      7917.40      0.63000298     0.017867548
      7925.31      0.63752196     0.017325986
      7933.24      0.63150503     0.017516454
      7941.17      0.63269366     0.017003450
      7949.11      0.63497894     0.016675500
      7957.06      0.62044398     0.016822965
      7965.02      0.62821895     0.016538720
      7972.98      0.63369575     0.016794438
      7980.96      0.64227926     0.016839752
      7988.94      0.65391378     0.017114360
      7996.93      0.65283362     0.017653842
      8004.93      0.65304138     0.018734461
      8012.93      0.65981743     0.019406793
      8020.95      0.65936378     0.020279913
      8028.97      0.65229212     0.020145807
      8036.99      0.66949478     0.019965494
      8045.03      0.66233733     0.019734882
      8053.08      0.65121097     0.019560175
      8061.13      0.65429291     0.019864350
      8069.20      0.65393419     0.019112892
      8077.26      0.64784839     0.018982945
      8085.34      0.64532356     0.018655224
      8093.43      0.64716962     0.018449082
      8101.52      0.64954755     0.018357552
      8109.62      0.65522025     0.018603972
      8117.73      0.64675482     0.018596003
      8125.85      0.65056984     0.019039637
      8133.98      0.64615758     0.019818563
      8142.11      0.64581062     0.020345651
      8150.25      0.64953823     0.021026969
      8158.41      0.65570727     0.021025440
      8166.56      0.66087909     0.021761084
      8174.73      0.65799822     0.022242399
      8182.91      0.66542858     0.022758479
      8191.09      0.66582162     0.023213792
      8199.28      0.66090425     0.023211170
      8207.48      0.65598132     0.023403285
      8215.69      0.65295590     0.023886740
      8223.91      0.65857271     0.024676317
      8232.13      0.65243025     0.026053874
      8240.36      0.65794133     0.027239004
      8248.60      0.65386904     0.027138844
      8256.85      0.65151457     0.027124859
      8265.11      0.63785003     0.027273499
      8273.37      0.62703488     0.027368704
      8281.65      0.61652942     0.027791594
      8289.93      0.61926687     0.028089250
      8298.22      0.60353800     0.028360861
      8306.52      0.59552550     0.028311399
      8314.83      0.58599618     0.029175652
      8323.14      0.57469038     0.029783850
      8331.46      0.57762862     0.029832286
      8339.80      0.56416143     0.030873300
      8348.13      0.56521368     0.031181109
      8356.48      0.55739824     0.031884659
      8364.84      0.54977344     0.032284064
      8373.21      0.55130759     0.032910344
      8381.58      0.53998153     0.034863933
      8389.96      0.53484868     0.037991609
      8398.35      0.53971933     0.039115965
      8406.75      0.54296198     0.040459878
      8415.16      0.54235236     0.042035332
      8423.57      0.53765234     0.044211039
      8432.00      0.53215140     0.046148896
      8440.43      0.52523554     0.051319962
      8448.87      0.52631573     0.058075282
      8457.32      0.53882771     0.066718954
      8465.78      0.54302053     0.073149444
      8474.25      0.54983636     0.081406730
      8482.72      0.55023044     0.093053615
      8491.20      0.53890189      0.11030531
      8499.69      0.50806526      0.13259114
