# starting wavelength =        2265.7720
# ending wavelength =        6836.9042
# O2 telluric scale =        0
# O2 telluric shift =        0
# H2O telluric scale =        0
# H2O telluric shift =        0
      2267.39     0.026920246      0.20152619
      2269.66     0.073396374      0.19984445
      2271.93     0.073404058      0.19784658
      2274.20     0.065245238      0.19637351
      2276.47     0.057377304      0.19499367
      2278.75     0.021896523      0.19281123
      2281.03     0.029278585      0.19120730
      2283.31    0.0098257159      0.18892773
      2285.59     0.046516925      0.18726330
      2287.88     0.024798173      0.18479228
      2290.17    0.0073199312      0.18309136
      2292.46     0.064407449      0.18085038
      2294.75     0.069605417      0.17940513
      2297.04     0.085996999      0.17785625
      2299.34     0.088387897      0.17572698
      2301.64     0.068953293      0.17444165
      2303.94     0.096823292      0.17254776
      2306.25     0.075853874      0.17127544
      2308.55     0.091703547      0.16950181
      2310.86     0.045726179      0.16833911
      2313.17     0.077432918      0.16664379
      2315.49      0.11694226      0.16558128
      2317.80     0.097421339      0.16432317
      2320.12      0.10650594      0.16341560
      2322.44     0.061538471      0.16211890
      2324.76     0.031448253      0.16126361
      2327.09   -0.0050334559      0.16018012
      2329.41    -0.019513490      0.15941235
      2331.74   -0.0021172105      0.15820808
      2334.08    -0.050948754      0.15757952
      2336.41    -0.019579429      0.15625344
      2338.75    -0.023890684      0.15532620
      2341.08    -0.021866266      0.15407515
      2343.43    -0.026656013      0.15321078
      2345.77     0.027415674      0.15195289
      2348.12     0.054317959      0.15123764
      2350.46     0.086022845      0.14995235
      2352.81     0.094185232      0.14910408
      2355.17      0.12106751      0.14799197
      2357.52      0.10532539      0.14717621
      2359.88      0.10856130      0.14596478
      2362.24      0.11310358      0.14537736
      2364.60      0.12834070      0.14430952
      2366.97      0.13870263      0.14368347
      2369.33      0.15094953      0.14291415
      2371.70      0.16418601      0.14238160
      2374.08      0.13939964      0.14143473
      2376.45      0.16463875      0.14094867
      2378.83      0.17998670      0.14031809
      2381.20      0.21585815      0.13961402
      2383.59      0.22927726      0.13858286
      2385.97      0.23584120      0.13784395
      2388.36      0.26666683      0.13685364
      2390.75      0.27507611      0.13608525
      2393.14      0.29261068      0.13551591
      2395.53      0.29590087      0.13476120
      2397.93      0.32016075      0.13418793
      2400.32      0.31909806      0.13315248
      2402.72      0.31487910      0.13262563
      2405.13      0.31141006      0.13167345
      2407.53      0.28798079      0.13072017
      2409.94      0.28963240      0.13022980
      2412.35      0.31375011      0.12926055
      2414.76      0.30150426      0.12876246
      2417.18      0.32246151      0.12783487
      2419.59      0.31450128      0.12726864
      2422.01      0.29163654      0.12654763
      2424.44      0.28356817      0.12569877
      2426.86      0.28058095      0.12525684
      2429.29      0.27082210      0.12439068
      2431.72      0.30588940      0.12383965
      2434.15      0.32216369      0.12307549
      2436.58      0.32159937      0.12222585
      2439.02      0.31956897      0.12183939
      2441.46      0.31592086      0.12103397
      2443.90      0.33656204      0.12055763
      2446.34      0.35961022      0.11992489
      2448.79      0.34034677      0.11912541
      2451.24      0.33415559      0.11880482
      2453.69      0.33598670      0.11809948
      2456.14      0.33547001      0.11771315
      2458.60      0.31611913      0.11702248
      2461.06      0.32345990      0.11614464
      2463.52      0.34422553      0.11570819
      2465.98      0.36602792      0.11483709
      2468.45      0.37382353      0.11402700
      2470.92      0.37271270      0.11340401
      2473.39      0.35670649      0.11245210
      2475.86      0.37234784      0.11165551
      2478.34      0.36437894      0.11108309
      2480.82      0.39332777      0.11028739
      2483.30      0.40440854      0.10971474
      2485.78      0.40300705      0.10895593
      2488.27      0.37984872      0.10813498
      2490.76      0.38604900      0.10774927
      2493.25      0.37100474      0.10697823
      2495.74      0.34231854      0.10631798
      2498.24      0.33921154      0.10582206
      2500.74      0.24373110      0.14933386
      2503.24      0.25604094      0.14788667
      2505.74      0.21492564      0.14677992
      2508.25      0.26012330      0.14590943
      2510.75      0.27507480      0.14491054
      2513.26      0.30060650      0.14420467
      2515.78      0.33380931      0.14318791
      2518.29      0.36467707      0.14180942
      2520.81      0.38810747      0.14150211
      2523.33      0.40306570      0.14034371
      2525.86      0.37728273      0.13920616
      2528.38      0.38922583      0.13857971
      2530.91      0.42371716      0.13795625
      2533.44      0.41255125      0.13693522
      2535.98      0.39512221      0.13686957
      2538.51      0.36502939      0.13627561
      2541.05      0.33692984      0.13523569
      2543.59      0.31117365      0.13500446
      2546.13      0.26470699      0.13383045
      2548.68      0.28630985      0.13298015
      2551.23      0.32730528      0.13232899
      2553.78      0.32673873      0.13170228
      2556.34      0.27553413      0.13077998
      2558.89      0.24560502      0.13050746
      2561.45      0.20137837      0.12936987
      2564.01      0.17581087      0.12796509
      2566.58      0.13003783      0.12754779
      2569.14      0.11273418      0.12628901
      2571.71      0.11708086      0.12565941
      2574.28      0.10310239      0.12572164
      2576.86      0.11757142      0.12505916
      2579.44     0.088775406      0.12462428
      2582.01     0.090555689      0.12428744
      2584.60     0.078687193      0.12377774
      2587.18     0.064772966      0.12314203
      2589.77     0.078830583      0.12199808
      2592.36     0.089466498      0.12174403
      2594.95     0.053419986      0.12079347
      2597.55     0.075894603      0.12042173
      2600.14     0.063829658      0.12010069
      2602.74     0.088663839      0.11974122
      2605.35     0.079827902      0.11910024
      2607.95      0.13520534      0.11806229
      2610.56      0.15027927      0.11784545
      2613.17      0.13793743      0.11708254
      2615.79      0.13731152      0.11596379
      2618.40      0.13646645      0.11521014
      2621.02      0.17091368      0.11498810
      2623.64      0.19146244      0.11398816
      2626.26      0.20302081      0.11333287
      2628.89      0.22830695      0.11271560
      2631.52      0.22493430      0.11234868
      2634.15      0.23652841      0.11193801
      2636.79      0.25128523      0.11139832
      2639.42      0.27324816      0.11136054
      2642.06      0.27418170      0.11141281
      2644.70      0.27817470      0.11149783
      2647.35      0.29846074      0.11167555
      2650.00      0.34123068      0.11217139
      2652.65      0.35520191      0.11192219
      2655.30      0.30866750      0.11277334
      2657.96      0.27524669      0.11300761
      2660.61      0.30942168      0.11255184
      2663.27      0.33231770      0.11247813
      2665.94      0.31315645      0.11257738
      2668.60      0.29114715      0.11306469
      2671.27      0.28386929      0.11282908
      2673.94      0.27364571      0.11312036
      2676.62      0.27607471      0.11339198
      2679.29      0.28575897      0.11304781
      2681.97      0.23703505      0.11338005
      2684.66      0.26360549      0.11324951
      2687.34      0.24098909      0.11268328
      2690.03      0.21525400      0.11233398
      2692.72      0.23446454      0.11194310
      2695.41      0.22324956      0.11161108
      2698.11      0.20057833      0.11142637
      2700.81      0.18784847      0.11115500
      2703.51      0.17264219      0.11074319
      2706.21      0.19259518      0.10991609
      2708.92      0.16689702      0.10940611
      2711.62      0.19196598      0.10891059
      2714.34      0.21317532      0.10883660
      2717.05      0.23966432      0.10816175
      2719.77      0.25391722      0.10780647
      2722.49      0.27761481      0.10746464
      2725.21      0.33018273      0.10703361
      2727.94      0.30938312      0.10624300
      2730.66      0.32579303      0.10580546
      2733.39      0.34398757      0.10540418
      2736.13      0.38945057      0.10544261
      2738.86      0.41868724      0.10488446
      2741.60      0.43037276      0.10473041
      2744.34      0.45755288      0.10461942
      2747.09      0.45590085      0.10451840
      2749.84      0.46184653      0.10412258
      2752.59      0.48964529      0.10419324
      2755.34      0.51986740      0.10427700
      2758.09      0.51660473      0.10395357
      2760.85      0.51271577      0.10419356
      2763.61      0.52414726      0.10374210
      2766.38      0.54634018      0.10356899
      2769.14      0.51725754      0.10334852
      2771.91      0.50313561      0.10308780
      2774.69      0.49496940      0.10274856
      2777.46      0.52327383      0.10207908
      2780.24      0.54232004      0.10162608
      2783.02      0.53786863      0.10111027
      2785.80      0.52291599      0.10064977
      2788.59      0.52095156      0.10017842
      2791.38      0.55556508     0.099422105
      2794.17      0.56869249     0.098993766
      2796.96      0.61012004     0.098507744
      2799.76      0.63255793     0.098023371
      2802.56      0.63112771     0.097936610
      2805.36      0.60662314     0.097275260
      2808.17      0.60120931     0.096876850
      2810.98      0.62490466     0.096498807
      2813.79      0.62147525     0.096161217
      2816.60      0.61086644     0.096181362
      2819.42      0.65516270     0.096005798
      2822.24      0.64869558     0.095853628
      2825.06      0.65065730     0.095346333
      2827.88      0.63244871     0.095166742
      2830.71      0.64007210     0.094980047
      2833.54      0.62798121     0.094702726
      2836.38      0.60627619     0.094459637
      2839.21      0.60547309     0.094273978
      2842.05      0.62574363     0.094073765
      2844.90      0.62476495     0.093618563
      2847.74      0.61962939     0.093458615
      2850.59      0.63556902     0.093271528
      2853.44      0.62611000     0.093077564
      2856.29      0.60308702     0.092894502
      2859.15      0.58730643     0.092774148
      2862.01      0.56810281     0.092645776
      2864.87      0.59027150     0.092464131
      2867.74      0.59490168     0.092333399
      2870.60      0.61199720     0.091953973
      2873.47      0.61233496     0.091935589
      2876.35      0.60950039     0.091655012
      2879.22      0.63154271     0.091652836
      2882.10      0.65041934     0.091659296
      2884.99      0.65948440     0.091649325
      2887.87      0.67507073     0.091632424
      2890.76      0.68964262     0.091582488
      2893.65      0.69993319     0.091526209
      2896.54      0.69566674     0.091491624
      2899.44      0.71698096     0.091447741
      2902.34      0.77356776      0.11131851
      2905.24      0.76361106      0.11142434
      2908.15      0.78570982      0.11129546
      2911.06      0.78016899      0.11100128
      2913.97      0.76821506      0.11106650
      2916.88      0.75097645      0.11108275
      2919.80      0.74565604      0.11127171
      2922.72      0.72080763      0.11156749
      2925.64      0.71712885      0.11182419
      2928.57      0.73458545      0.11207994
      2931.50      0.74494508      0.11242028
      2934.43      0.75660174      0.11277813
      2937.36      0.75567861      0.11312844
      2940.30      0.75940661      0.11348184
      2943.24      0.76121072      0.11314402
      2946.18      0.76306776      0.11315806
      2949.13      0.73797312      0.11311722
      2952.08      0.74862828      0.11293477
      2955.03      0.76203609      0.11264381
      2957.99      0.82691267      0.11227083
      2960.94      0.80025659      0.11197582
      2963.90      0.78046241      0.11168581
      2966.87      0.75183532      0.11139838
      2969.84      0.72268884      0.11110011
      2972.81      0.72017705      0.11098926
      2975.78      0.64830445      0.11089540
      2978.76      0.61510521      0.11083366
      2981.73      0.60555187      0.11087119
      2984.72      0.63129675      0.11090079
      2987.70      0.60131787      0.11094169
      2990.69      0.55615022      0.11046598
      2993.68      0.51517601      0.11054419
      2996.67      0.56370608      0.11062080
      2999.67      0.54093688      0.11068842
      3002.67      0.53848615      0.11073154
      3005.67      0.53897884      0.11072266
      3008.68      0.53727422      0.11028929
      3011.69      0.53213602      0.11037632
      3014.70      0.51976690      0.11094279
      3017.71      0.52866108      0.11096665
      3020.73      0.56571091      0.11091753
      3023.75      0.58293879      0.11035928
      3026.78      0.60291507      0.11031931
      3029.80      0.68214623      0.11025463
      3032.83      0.68840018      0.11018104
      3035.87      0.65656287      0.11008801
      3038.90      0.62001545      0.10946256
      3041.94      0.57893595      0.10981056
      3044.98      0.53804442      0.10960932
      3048.03      0.54818706      0.10943760
      3051.08      0.50348939      0.10876253
      3054.13      0.47226720      0.10860466
      3057.18      0.44679120      0.10850360
      3060.24      0.47835146      0.10844964
      3063.30      0.49096164      0.10791745
      3066.36      0.46043107      0.10823830
      3069.43      0.45055103      0.10806677
      3072.50      0.49477099      0.10795913
      3075.57      0.52737736      0.10737154
      3078.65      0.52303295      0.10727931
      3081.73      0.54152524      0.10722028
      3084.81      0.52306252      0.10762587
      3087.89      0.52642161      0.10709335
      3090.98      0.57444097      0.10701249
      3094.07      0.57574960      0.10698679
      3097.17      0.62388193      0.10647925
      3100.26      0.66794945      0.10690127
      3103.36      0.68392117      0.10685172
      3106.47      0.73450042      0.10632354
      3109.58      0.73752082      0.10623498
      3112.68      0.69368631      0.10613786
      3115.80      0.66691358      0.10652070
      3118.91      0.64420001      0.10595215
      3122.03      0.62300547      0.10583941
      3125.15      0.62614533      0.10567509
      3128.28      0.60448073      0.10548655
      3131.41      0.59375463      0.10530303
      3134.54      0.62154012      0.10515087
      3137.67      0.62747777      0.10459918
      3140.81      0.66947139      0.10453591
      3143.95      0.67802254      0.10439470
      3147.10      0.72324632      0.10446523
      3150.24      0.74515068      0.10550785
      3153.39      0.74440341      0.10427886
      3156.55      0.73012192      0.10396301
      3159.70      0.70553770      0.10379852
      3162.86      0.66882241      0.10352806
      3166.03      0.66531353      0.10444258
      3169.19      0.70129052      0.10461490
      3172.36      0.68326516      0.10523417
      3175.54      0.62779062      0.10591482
      3178.71      0.62554222      0.10667309
      3181.89      0.57953539      0.10723390
      3185.07      0.56468863      0.10725617
      3188.26      0.56262551      0.10802640
      3191.45      0.53193805      0.10816406
      3194.64      0.59049702      0.10771046
      3197.83      0.57627671      0.10811173
      3201.03      0.55447066      0.10724195
      3204.23      0.61451801      0.10678007
      3207.44      0.63421651      0.10620369
      3210.64      0.65689650      0.10562324
      3213.85      0.70534693      0.10497973
      3217.07      0.70187214      0.10432213
      3220.28      0.70097524      0.10389274
      3223.51      0.75258512      0.10313687
      3226.73      0.79517968      0.10386530
      3229.96      0.81370262      0.10373200
      3233.19      0.79658411      0.10387382
      3236.42      0.84968755      0.10235719
      3239.66      0.86407762      0.10221245
      3242.90      0.87020700      0.10170823
      3246.14      0.86627488      0.10208405
      3249.39      0.83864813      0.10170557
      3252.64      0.78676798      0.10216532
      3255.89      0.70097255      0.10181642
      3259.14      0.69257555      0.10183686
      3262.40      0.69838985      0.10190077
      3265.67      0.65128927      0.10195338
      3268.93      0.67662924      0.10200631
      3272.20      0.69526002      0.10198412
      3275.47      0.63943353      0.10154066
      3278.75      0.61488773      0.10201394
      3282.03      0.55198478      0.10159266
      3285.31      0.59011708      0.10196626
      3288.60      0.57251218      0.10157433
      3291.88      0.57305669      0.10202683
      3295.18      0.57066370      0.10149095
      3298.47      0.56364996      0.10114247
      3301.77      0.53100985      0.10173609
      3305.07      0.53778570      0.10144255
      3308.38      0.53869130      0.10201423
      3311.69      0.57175262      0.10175679
      3315.00      0.60100053      0.10165355
      3318.31      0.62141310      0.10110128
      3321.63      0.62208156      0.10097602
      3324.95      0.62142002      0.10089592
      3328.28      0.59248353      0.10073907
      3331.61      0.58724354      0.10062108
      3334.94      0.59152794      0.10050497
      3338.27      0.59806234      0.10003558
      3341.61      0.62271256      0.10040259
      3344.95      0.62788491      0.10000620
      3348.30      0.65328783      0.10009662
      3351.65      0.66970456      0.10013195
      3355.00      0.64888816      0.10022360
      3358.35      0.65560830      0.10004171
      3361.71      0.66435777      0.10042338
      3365.07      0.74257916      0.10010058
      3368.44      0.75201519      0.10062020
      3371.81      0.77521316      0.10032964
      3375.18      0.76685205      0.10049210
      3378.56      0.79224062      0.10056561
      3381.94      0.80847885      0.10064494
      3385.32      0.81148467      0.10049558
      3388.70      0.79882925      0.10070075
      3392.09      0.80953382      0.10127101
      3395.48      0.81471024      0.10093500
      3398.88      0.79753915      0.10097506
      3402.28      0.82149363      0.10110296
      3405.68      0.82391061      0.10123339
      3409.09      0.85735401      0.10130025
      3412.49      0.85327281      0.10134336
      3415.91      0.83503784      0.10133245
      3419.32      0.83055139      0.10084771
      3422.74      0.83211497      0.10063788
      3426.17      0.79574350      0.10088653
      3429.59      0.83691486      0.10070394
      3433.02      0.82775938      0.10044221
      3436.45      0.85782707     0.099907484
      3439.89      0.87763400      0.10035946
      3443.33      0.86694799      0.10070426
      3446.78      0.91132705      0.10029407
      3450.22      0.93169749      0.10057050
      3453.67      0.95071565      0.10091062
      3457.13      0.95050161      0.10123683
      3460.58      0.93678934      0.10161757
      3464.04      0.98449589      0.10201773
      3467.51      0.99215561      0.10204066
      3470.98       1.0295776      0.10242977
      3474.45       1.0654281      0.10309285
      3477.92       1.0807586      0.10284259
      3481.40       1.0352763      0.10291123
      3484.88       1.0305078      0.10283851
      3488.37       1.0206150      0.10239318
      3491.86      0.99771636      0.10273349
      3495.35      0.98664389      0.10261146
      3498.84      0.95084253      0.10258007
      3502.34      0.89318197      0.10220598
      3505.84      0.90576201      0.10232762
      3509.35      0.87314740      0.10244755
      3512.86      0.87214963      0.10218948
      3516.37      0.83550704      0.10293941
      3519.89      0.84709160      0.10347392
      3523.41      0.86831784      0.10342979
      3526.93      0.84238760      0.10329314
      3530.46      0.83650916      0.10367541
      3533.99      0.83504902      0.10408865
      3537.53      0.84692732      0.10440812
      3541.06      0.82529866      0.10472757
      3544.60      0.85407926      0.10457485
      3548.15      0.90283583      0.10474887
      3551.70      0.94256339      0.10490635
      3555.25      0.94946619      0.10554547
      3558.80      0.93930327      0.10538253
      3562.36      0.96628835      0.10557759
      3565.92      0.97224387      0.10575481
      3569.49      0.93004036      0.10595057
      3573.06      0.86949800      0.10610843
      3576.64      0.84865302      0.10631830
      3580.21      0.83642751      0.10605942
      3583.79      0.83859008      0.10620685
      3587.38      0.81845394      0.10634496
      3590.96      0.75071774      0.10651577
      3594.55      0.73809627      0.10667198
      3598.15      0.71640036      0.10688674
      3601.75      0.69860493      0.10663947
      3605.35      0.68494818      0.10688681
      3608.96      0.68615843      0.10714970
      3612.56      0.71368992      0.10739570
      3616.18      0.70729814      0.10767787
      3619.79      0.70012443      0.10790640
      3623.41      0.69653496      0.10815789
      3627.04      0.70781437      0.10838816
      3630.66      0.72908136      0.10815294
      3634.29      0.76223587      0.10832672
      3637.93      0.78236029      0.10848626
      3641.57      0.82300466      0.10867933
      3645.21      0.83373173      0.10890239
      3648.86      0.80822143      0.10912076
      3652.50      0.84727853      0.10935528
      3656.16      0.87078541      0.10967116
      3659.81      0.85285840      0.11003950
      3663.47      0.83517283      0.11097843
      3667.14      0.84299166      0.11254020
      3670.80      0.84665099      0.11295740
      3674.48      0.85921916      0.11243164
      3678.15      0.84225493      0.11267349
      3681.83      0.84270098      0.11368427
      3685.51      0.86568892      0.11513706
      3689.20      0.92509368      0.11697512
      3692.88      0.95352578      0.11918531
      3696.58       1.0223754      0.12169402
      3700.27       1.0663885      0.12406575
      3703.98       1.0881149      0.12579974
      3707.68       1.0746701      0.12721094
      3711.39       1.0979036      0.12844200
      3715.10       1.1113146      0.12951291
      3718.81       1.1685975      0.12930529
      3722.53       1.1507972      0.12840844
      3726.26       1.1355263      0.12700126
      3729.98       1.1560480      0.12504996
      3733.71       1.1223834      0.12262903
      3737.45       1.1186708      0.11987870
      3741.18       1.0750762      0.11686359
      3744.93       1.0617550      0.11371629
      3748.67       1.1118647      0.11068273
      3752.42       1.1012911      0.10789873
      3756.17       1.0669730      0.10549936
      3759.93       1.0140920      0.10372109
      3763.69       1.0451463      0.10191141
      3767.45       1.0291040     0.099430769
      3771.22      0.99015796     0.097064000
      3774.99      0.94648625     0.094698865
      3778.77      0.98968194     0.091586216
      3782.54      0.94414570     0.089367598
      3786.33      0.94155746     0.087944114
      3790.11      0.93142938     0.086979496
      3793.90      0.88878591     0.086164694
      3797.70      0.87498659     0.085234318
      3801.50      0.89284933     0.084207729
      3805.30      0.90026314     0.083346735
      3809.10      0.86798943     0.082442927
      3812.91      0.83818350     0.081478529
      3816.73      0.81423357     0.080047342
      3820.54      0.75913284     0.078809144
      3824.36      0.81971664     0.077501702
      3828.19      0.85026578     0.076157292
      3832.02      0.85522273     0.074771601
      3835.85      0.84908125     0.072836849
      3839.68      0.84267458     0.071503067
      3843.52      0.88397767     0.070228214
      3847.37      0.90243385     0.069097731
      3851.22      0.88081420     0.068061841
      3855.07      0.90321602     0.067256083
      3858.92      0.91461573     0.066750929
      3862.78      0.92904010     0.066467785
      3866.64      0.94979522     0.066109561
      3870.51      0.99256498     0.065818529
      3874.38       1.0023147     0.065723536
      3878.26       1.0648871     0.065026645
      3882.13       1.0864823     0.064308758
      3886.02       1.1109295     0.063812836
      3889.90       1.1397085     0.063730350
      3893.79       1.1643183     0.064134395
      3897.69       1.2279698     0.064447288
      3901.59       1.2375990     0.073584387
      3905.49       1.2838943     0.074475536
      3909.39       1.3700996     0.075511493
      3913.30       1.4479491     0.076617015
      3917.22       1.5072251     0.077524501
      3921.13       1.5208180     0.078117430
      3925.06       1.5264022     0.078418095
      3928.98       1.5279952     0.078095219
      3932.91       1.4861586     0.077885185
      3936.84       1.5275052     0.077056918
      3940.78       1.4907212     0.075485878
      3944.72       1.5087663     0.074462341
      3948.67       1.4956517     0.073812777
      3952.61       1.4604511     0.073702553
      3956.57       1.4315983     0.074219104
      3960.52       1.3989853     0.075701073
      3964.48       1.4149711     0.075675470
      3968.45       1.4672736     0.075203917
      3972.42       1.4591521     0.074151930
      3976.39       1.4782366     0.073530184
      3980.37       1.4782569     0.073074981
      3984.35       1.5066923     0.072016964
      3988.33       1.5339419     0.070414740
      3992.32       1.5506578     0.069508976
      3996.31       1.5479101     0.068652161
      4000.31       1.5377481     0.067841871
      4004.31       1.5084136     0.067242435
      4008.31       1.4987042     0.068586660
      4012.32       1.4857720     0.068826233
      4016.33       1.4168451     0.067823382
      4020.35       1.3621844     0.067535270
      4024.37       1.2961586     0.068091529
      4028.40       1.2521235     0.068845896
      4032.42       1.2484854     0.069983917
      4036.46       1.2633915     0.070472186
      4040.50       1.2538000     0.070886030
      4044.54       1.2463835     0.071052600
      4048.58       1.2177627     0.070579272
      4052.63       1.2148764     0.070342699
      4056.68       1.1933556     0.069616579
      4060.74       1.1745109     0.068737871
      4064.80       1.1762841     0.067636513
      4068.86       1.2072527     0.067316831
      4072.93       1.2384020     0.066803352
      4077.01       1.2238959     0.065944395
      4081.08       1.2151370     0.065678579
      4085.17       1.2013244     0.066057824
      4089.25       1.1663643     0.066416412
      4093.34       1.1275008     0.065293872
      4097.43       1.1239422     0.065052157
      4101.53       1.1592359     0.064756469
      4105.63       1.1617822     0.064511058
      4109.74       1.1841191     0.064217624
      4113.85       1.1800405     0.063814190
      4117.96       1.1549248     0.063772295
      4122.08       1.1373661     0.063062259
      4126.20       1.1156614     0.062934928
      4130.33       1.1050423     0.062925229
      4134.46       1.0792608     0.062772313
      4138.59       1.0683068     0.062661010
      4142.73       1.0722383     0.062691816
      4146.88       1.0932510     0.062778606
      4151.02       1.0717150     0.062778445
      4155.18       1.0732606     0.062873698
      4159.33       1.0476926     0.063207548
      4163.49       1.0442679     0.062651833
      4167.65       1.0325324     0.062140412
      4171.82       1.0221715     0.062656425
      4175.99       1.0222124     0.062796527
      4180.17      0.98588002     0.063022304
      4184.35      0.95608156     0.063262185
      4188.54      0.94765088     0.063408406
      4192.72      0.92463323     0.063208415
      4196.92      0.91663742     0.063348512
      4201.11      0.95897212     0.062947358
      4205.31      0.97644808     0.061256953
      4209.52       1.0014314     0.060689113
      4213.73       1.0161476     0.059544593
      4217.94       1.0502557     0.059000386
      4222.16       1.1008264     0.058197524
      4226.38       1.1225729     0.057861350
      4230.61       1.1471918     0.057703722
      4234.84       1.1643262     0.057925930
      4239.08       1.1466761     0.057780254
      4243.32       1.1459553     0.057109038
      4247.56       1.1145390     0.056287680
      4251.81       1.0983656     0.056331525
      4256.06       1.0779285     0.055987678
      4260.32       1.0153489     0.055394050
      4264.58      0.99812992     0.054531997
      4268.84      0.98947579     0.054650642
      4273.11      0.99947578     0.054617086
      4277.38      0.99812912     0.055144433
      4281.66       1.0358156     0.055863163
      4285.94       1.0368976     0.056006454
      4290.23       1.0755053     0.056679241
      4294.52       1.0990823     0.056638783
      4298.81       1.1348654     0.056976449
      4303.11       1.1755434     0.056793189
      4307.42       1.1850409     0.057042207
      4311.72       1.2252495     0.056746448
      4316.04       1.2257796     0.056191141
      4320.35       1.2385945     0.055773429
      4324.67       1.2437797     0.055397903
      4329.00       1.2193972     0.055344810
      4333.33       1.1961420     0.055317040
      4337.66       1.1583104     0.055494814
      4342.00       1.1244206     0.055279305
      4346.34       1.1087897     0.054879457
      4350.69       1.0957767     0.055236343
      4355.04       1.0516871     0.055043922
      4359.39       1.0014382     0.055004945
      4363.75      0.98631734     0.054885770
      4368.12      0.97929774     0.054893924
      4372.48      0.98269037     0.054616437
      4376.86      0.94853684     0.054065467
      4381.23      0.93359196     0.053383435
      4385.61      0.97343661     0.052850118
      4390.00      0.97577674     0.052289350
      4394.39      0.98371738     0.051650375
      4398.79      0.99358539     0.051703663
      4403.18       1.0114025     0.051071192
      4407.59      0.99533837     0.050428575
      4412.00      0.95796489     0.050250404
      4416.41      0.98807692     0.050427123
      4420.82       1.0397652     0.050782304
      4425.25       1.0892519     0.050857906
      4429.67       1.1123649     0.051515391
      4434.10       1.1168213     0.052215624
      4438.54       1.1496321     0.052337536
      4442.97       1.1541597     0.052884523
      4447.42       1.2149135     0.052948174
      4451.86       1.2418596     0.052596857
      4456.32       1.2780879     0.052269042
      4460.77       1.2841389     0.051786056
      4465.24       1.3281472     0.051008363
      4469.70       1.3800436     0.050155386
      4474.17       1.3831463     0.049189865
      4478.65       1.4055822     0.048864851
      4483.12       1.4225387     0.048727206
      4487.61       1.4369781     0.047854931
      4492.09       1.4467529     0.047170279
      4496.59       1.4812583     0.047170112
      4501.08       1.5314109     0.046938002
      4505.58       1.6160249     0.046621307
      4510.09       1.6534519     0.046112336
      4514.60       1.7022533     0.046119859
      4519.12       1.7215473     0.046486024
      4523.63       1.7465460     0.046953676
      4528.16       1.7736647     0.047992920
      4532.69       1.8350294     0.048691989
      4537.22       1.8561331     0.048800570
      4541.76       1.8518702     0.049148517
      4546.30       1.8733978     0.049900561
      4550.85       1.9082590     0.050114030
      4555.40       1.9195884     0.050919747
      4559.95       1.9043671     0.051242727
      4564.51       1.9280652     0.050805583
      4569.08       1.9314153     0.050722840
      4573.65       1.9394599     0.050817334
      4578.22       1.9337988     0.051251771
      4582.80       1.9718258     0.052273076
      4587.38       1.9733433     0.052346948
      4591.97       1.9862136     0.052053509
      4596.56       1.9631064     0.051652256
      4601.16       1.9440848     0.050767437
      4605.76       1.8874317     0.049879770
      4610.37       1.8927203     0.048774754
      4614.98       1.8596261     0.048499711
      4619.59       1.8505018     0.048076807
      4624.21       1.8337450     0.046723769
      4628.84       1.7780459     0.045705352
      4633.47       1.7869507     0.044796264
      4638.10       1.7565662     0.044297313
      4642.74       1.7244032     0.044173781
      4647.38       1.6869228     0.043968435
      4652.03       1.6658465     0.043117055
      4656.68       1.6590927     0.042859378
      4661.34       1.6164920     0.042340170
      4666.00       1.5559785     0.042024503
      4670.67       1.5241310     0.041897418
      4675.33       1.4734895     0.041766577
      4680.01       1.4151310     0.041492772
      4684.69       1.3667372     0.041402923
      4689.38       1.3109018     0.041370610
      4694.07       1.2719037     0.041285361
      4698.76       1.2535643     0.041055627
      4703.46       1.1978495     0.040918560
      4708.16       1.1693698     0.040580037
      4712.87       1.1323982     0.040427372
      4717.58       1.1157044     0.040170154
      4722.30       1.1167126     0.039885362
      4727.03       1.1030035     0.039728314
      4731.75       1.0992835     0.039589602
      4736.48       1.0901094     0.039459022
      4741.22       1.1015281     0.039362017
      4745.96       1.1143959     0.039188048
      4750.71       1.0873174     0.039172513
      4755.46       1.0712894     0.039151273
      4760.22       1.0927919     0.039166563
      4764.97       1.1101355     0.039212528
      4769.74       1.1095508     0.039215810
      4774.51       1.1312659     0.039283908
      4779.29       1.1251813     0.039501439
      4784.07       1.1190905     0.039142661
      4788.85       1.1303710     0.038850064
      4793.64       1.1388429     0.038965892
      4798.43       1.1210626     0.039521218
      4803.23       1.1212451     0.040105253
      4808.03       1.1555696     0.040485005
      4812.84       1.1563251     0.040976281
      4817.66       1.1781164     0.041676324
      4822.48       1.1916598     0.042656650
      4827.30       1.1898323     0.043706740
      4832.12       1.2167466     0.043655543
      4836.96       1.2213228     0.044021043
      4841.79       1.2079777     0.044692107
      4846.63       1.2185994     0.044481560
      4851.48       1.2325446     0.044549922
      4856.33       1.2530377     0.044801063
      4861.19       1.3027018     0.045321564
      4866.05       1.3304102     0.045524121
      4870.92       1.3041754     0.045684253
      4875.79       1.3004461     0.045593319
      4880.66       1.3080812     0.045343772
      4885.55       1.3272283     0.045383139
      4890.43       1.3158310     0.044442942
      4895.32       1.3727725     0.043690451
      4900.22       1.3651029     0.043105212
      4905.12       1.3423899     0.042641946
      4910.02       1.3166290     0.042308722
      4914.94       1.3203721     0.042039582
      4919.85       1.2959481     0.041976436
      4924.77       1.3048722     0.041178959
      4929.70       1.2700604     0.041052267
      4934.62       1.2445826     0.040426718
      4939.56       1.2508506     0.039724808
      4944.50       1.2356124     0.039196654
      4949.44       1.2474878     0.038930681
      4954.39       1.2767833     0.038548770
      4959.35       1.2444899     0.038229030
      4964.31       1.2229120     0.038149531
      4969.27       1.2258352     0.037941776
      4974.24       1.2170979     0.038290818
      4979.22       1.2446731     0.038865346
      4984.20       1.2555089     0.037924237
      4989.18       1.2405702     0.037672119
      4994.17       1.1983077     0.038102432
      4999.16       1.1692414     0.038171638
      5004.16       1.1329016     0.038407509
      5009.17       1.1133553     0.038725318
      5014.18       1.0746213     0.039757882
      5019.19       1.0601830     0.040410747
      5024.21      0.99749082     0.039829998
      5029.23      0.98065800     0.040259029
      5034.26      0.96125370     0.040911643
      5039.30      0.96215935     0.041258775
      5044.34      0.96432213     0.042069269
      5049.39      0.98003204     0.043226917
      5054.43      0.95001254     0.045082538
      5059.49      0.97711535     0.046964592
      5064.55       1.0075482     0.047750732
      5069.61       1.0176825     0.048957402
      5074.68       1.1004103     0.049710376
      5079.76       1.1124965     0.048820638
      5084.84       1.0933763     0.047402688
      5089.92       1.1203933     0.046436971
      5095.01       1.1115191     0.044100636
      5100.11       1.1109572     0.041404459
      5105.21       1.1120367     0.040266848
      5110.31       1.1176540     0.040048296
      5115.42       1.1198151     0.039512591
      5120.54       1.1226990     0.038699729
      5125.66       1.1342287     0.039097914
      5130.79       1.1525843     0.040338890
      5135.92       1.1990613     0.040926933
      5141.05       1.2039119     0.042015124
      5146.20       1.2140118     0.042341429
      5151.34       1.2161104     0.042754018
      5156.49       1.2597869     0.043065976
      5161.65       1.2718146     0.042995941
      5166.81       1.2604054     0.042349097
      5171.98       1.2757678     0.041777167
      5177.15       1.2756098     0.041304322
      5182.33       1.2798913     0.041212725
      5187.51       1.2799640     0.040823227
      5192.70       1.2534172     0.040360165
      5197.89       1.2625470     0.039865022
      5203.09       1.2212267     0.040447503
      5208.29       1.2152380     0.040518115
      5213.50       1.2182325     0.040736174
      5218.72       1.2315246     0.040922448
      5223.93       1.2444402     0.041207499
      5229.16       1.2768540     0.041219443
      5234.39       1.2853824     0.041203568
      5239.62       1.3131813     0.041041991
      5244.86       1.3188144     0.041256680
      5250.11       1.3490555     0.040951662
      5255.36       1.3961725     0.041174707
      5260.61       1.4045868     0.040785744
      5265.87       1.4255414     0.039897623
      5271.14       1.4740858     0.039414157
      5276.41       1.4873731     0.039192675
      5281.69       1.4954694     0.038705952
      5286.97       1.5005699     0.038400413
      5292.26       1.5005129     0.038966673
      5297.55       1.5057880     0.038170808
      5302.85       1.4818622     0.037435818
      5308.15       1.5093298     0.037268558
      5313.46       1.5298003     0.037258622
      5318.77       1.5215446     0.038014410
      5324.09       1.5090618     0.038039638
      5329.42       1.5031264     0.037663275
      5334.75       1.5020527     0.037233742
      5340.08       1.5275642     0.036868082
      5345.42       1.5224985     0.036724790
      5350.77       1.5413445     0.036170332
      5356.12       1.5670328     0.036051895
      5361.48       1.5551629     0.035328718
      5366.83       1.5424736     0.034905274
      5372.20       1.5527854     0.034541433
      5377.58       1.5262182     0.034024286
      5382.95       1.5217526     0.033216462
      5388.34       1.5246134     0.033059395
      5393.72       1.5264870     0.033022515
      5399.12       1.5282555     0.032346457
      5404.52       1.5352042     0.031900831
      5409.92       1.5718990     0.031582463
      5415.33       1.5814281     0.031359404
      5420.75       1.5647825     0.031226998
      5426.17       1.5685401     0.030965259
      5431.60       1.5651743     0.030702195
      5437.03       1.5730578     0.030529456
      5442.47       1.5826733     0.030431330
      5447.91       1.5815250     0.030300526
      5453.36       1.5898170     0.030703487
      5458.81       1.5597928     0.030351802
      5464.27       1.5463518     0.031078790
      5469.73       1.5155133     0.030547907
      5475.20       1.5197030     0.030537281
      5480.68       1.4893363     0.030420511
      5486.16       1.4583872     0.030965372
      5491.65       1.4285917     0.032015002
      5497.14       1.4052757     0.033255493
      5502.64       1.3887269     0.034840421
      5508.14       1.3695380     0.036863095
      5513.65       1.3578261     0.037224051
      5519.16       1.3295013     0.037387894
      5524.68       1.3181058     0.037270609
      5530.20       1.2942217     0.037480131
      5535.73       1.2753681     0.036929117
      5541.27       1.2677832     0.036839762
      5546.81       1.2480104     0.035819045
      5552.36       1.2355961     0.035527577
      5557.91       1.1999835     0.035904667
      5563.47       1.1774067     0.035759919
      5569.04       1.1863124     0.036906195
      5574.60       1.1718917     0.036016315
      5580.18       1.1955734     0.035740956
      5585.76       1.1892752     0.035408293
      5591.35       1.1558004     0.034683249
      5596.94       1.1161429     0.033981861
      5602.53       1.1012073     0.034160045
      5608.14       1.0965710     0.034827899
      5613.75       1.1005874     0.035325320
      5619.36       1.0572857     0.033777910
      5624.98       1.0517895     0.033440915
      5630.60       1.0622667     0.033294212
      5636.23       1.0430611     0.033482636
      5641.87       1.0376429     0.033238380
      5647.51       1.0171583     0.033047423
      5653.16      0.96612802     0.032172428
      5658.82      0.93925929     0.031951633
      5664.47      0.89990066     0.031424504
      5670.14      0.89787790     0.031137082
      5675.81      0.88881112     0.030103018
      5681.48      0.87379694     0.029689655
      5687.17      0.85381928     0.029395363
      5692.85      0.85257274     0.029225848
      5698.55      0.83778913     0.028388999
      5704.25      0.81841401     0.028079990
      5709.95      0.82310216     0.028763613
      5715.66      0.82357070     0.029238855
      5721.38      0.81390913     0.029551000
      5727.10      0.80322509     0.029897257
      5732.83      0.81389614     0.030939416
      5738.56      0.82606918     0.032195337
      5744.30      0.82261828     0.033600459
      5750.04      0.81356537     0.034868610
      5755.79      0.79194200     0.035193633
      5761.55      0.76606175     0.035463631
      5767.31      0.76171868     0.035774411
      5773.08      0.75713386     0.035370708
      5778.85      0.76331851     0.034825286
      5784.63      0.73735561     0.033852242
      5790.41      0.71811271     0.033102474
      5796.21      0.72538699     0.031041148
      5802.00      0.73143971     0.029892518
      5807.81      0.74531137     0.029569625
      5813.61      0.74696562     0.029857848
      5819.43      0.76864568     0.030780747
      5825.25      0.76953139     0.032221061
      5831.07      0.79705733     0.033016757
      5836.90      0.81032946     0.032841081
      5842.74      0.80029648     0.033039910
      5848.58      0.82815258     0.033412487
      5854.43      0.84486578     0.032711496
      5860.29      0.85604409     0.033101755
      5866.15      0.87873510     0.032305344
      5872.01      0.88417047     0.032217105
      5877.89      0.88477506     0.032180100
      5883.76      0.89618592     0.033569710
      5889.65      0.88045628     0.034028432
      5895.54      0.90282905     0.034637331
      5901.43      0.93541256     0.035212629
      5907.34      0.94970573     0.034914210
      5913.24      0.94528611     0.034620509
      5919.16      0.95828124     0.033594612
      5925.08      0.96042383     0.033265172
      5931.00      0.97136000     0.033137036
      5936.93      0.97079569     0.033955159
      5942.87      0.96170978     0.032150155
      5948.81      0.96414782     0.031114264
      5954.76      0.94833484     0.030714349
      5960.72      0.97281489     0.030661318
      5966.68      0.99180437     0.030042187
      5972.64      0.98888188     0.030124609
      5978.62      0.97898294     0.028834033
      5984.60      0.95027918     0.028203409
      5990.58      0.95047784     0.027866439
      5996.57      0.93790555     0.027973210
      6002.57      0.90761162     0.027467202
      6008.57      0.90345948     0.026761385
      6014.58      0.89148861     0.026602915
      6020.60      0.89020108     0.026233017
      6026.62      0.88313468     0.026109818
      6032.65      0.89934378     0.025636400
      6038.68      0.89935667     0.025615865
      6044.72      0.89995623     0.025462072
      6050.76      0.88614295     0.025018193
      6056.81      0.90665404     0.024467092
      6062.87      0.92292412     0.024029594
      6068.93      0.95429931     0.023847819
      6075.00       1.0017130     0.023728759
      6081.08       1.0310310     0.023711039
      6087.16       1.0435823     0.023809170
      6093.25       1.0566882     0.023274035
      6099.34       1.0736550     0.023171564
      6105.44       1.0970487     0.022990822
      6111.54       1.1064648     0.023085876
      6117.66       1.1044444     0.023060729
      6123.78       1.1143216     0.022961591
      6129.90       1.1182732     0.023123034
      6136.03       1.1186574     0.023188357
      6142.17       1.1208584     0.023938510
      6148.31       1.1202558     0.024278597
      6154.46       1.0971502     0.024869892
      6160.61       1.0799144     0.024534655
      6166.77       1.0543945     0.024404669
      6172.94       1.0500135     0.025549098
      6179.11       1.0364928     0.026673827
      6185.29       1.0337523     0.029038275
      6191.48       1.0096542     0.031267542
      6197.67      0.98039101     0.033300623
      6203.87      0.96196133     0.036501059
      6210.07      0.89912167     0.040375244
      6216.28      0.87436082     0.043878476
      6222.50      0.83977744     0.044559962
      6228.72      0.81847324     0.046307075
      6234.95      0.80499602     0.043255974
      6241.19      0.78989209     0.041607052
      6247.42      0.80309936     0.040199559
      6253.67      0.80556928     0.039747396
      6259.93      0.84932504     0.039967971
      6266.19      0.87092190     0.039473069
      6272.46      0.90786007     0.039186924
      6278.73      0.93781497     0.039417527
      6285.01      0.94676573     0.039213209
      6291.29      0.98439004     0.040063399
      6297.58       1.0166089     0.040412257
      6303.88       1.0561537     0.043098557
      6310.19       1.0832252     0.041654566
      6316.50       1.0897523     0.040046505
      6322.81       1.0837543     0.039175694
      6329.14       1.0887102     0.038100961
      6335.47       1.1074103     0.038885736
      6341.80       1.1415095     0.037272971
      6348.14       1.1723019     0.038361216
      6354.49       1.2206379     0.036119526
      6360.85       1.2392424     0.035531010
      6367.21       1.2458264     0.034207442
      6373.57       1.2733741     0.033446368
      6379.95       1.2870517     0.032821309
      6386.33       1.2972514     0.031701620
      6392.72       1.3492362     0.031622464
      6399.11       1.3554169     0.031125718
      6405.51       1.3462144     0.030545630
      6411.92       1.3463677     0.030478555
      6418.32       1.3309527     0.030091639
      6424.74       1.3175099     0.030384498
      6431.17       1.3102144     0.030907130
      6437.60       1.2766017     0.031824906
      6444.04       1.2628976     0.032501125
      6450.48       1.2398580     0.033123679
      6456.94       1.2103392     0.032352687
      6463.39       1.1920962     0.032092718
      6469.85       1.1943489     0.031730364
      6476.33       1.1788324     0.031830468
      6482.80       1.1624596     0.032118117
      6489.28       1.1452124     0.031917452
      6495.77       1.1328468     0.032285637
      6502.27       1.1082319     0.031214389
      6508.77       1.0686211     0.031084255
      6515.28       1.0493334     0.031261505
      6521.80       1.0482732     0.031392388
      6528.32       1.0461351     0.031538502
      6534.85       1.0586261     0.032679776
      6541.38       1.0620667     0.033295922
      6547.92       1.0660854     0.034011551
      6554.47       1.0247189     0.034226332
      6561.03       1.0065215     0.034753589
      6567.59      0.99950327     0.035474648
      6574.16      0.97351622     0.036374804
      6580.73      0.94021442     0.037323957
      6587.31      0.90875717     0.037567313
      6593.90      0.87653770     0.037935375
      6600.50      0.85208238     0.038674436
      6607.10      0.83694888     0.039597727
      6613.70      0.80319370     0.040962921
      6620.32      0.75167534     0.042855254
      6626.94      0.71956465     0.042963887
      6633.57      0.68818689     0.042829772
      6640.20      0.67984401     0.043422042
      6646.84      0.63435821     0.043604486
      6653.49      0.60422329     0.044229113
      6660.14      0.56668879     0.045031567
      6666.80      0.54456282     0.046632825
      6673.47      0.51220287     0.047586387
      6680.14      0.46352135     0.047662477
      6686.82      0.44031050     0.048786404
      6693.51      0.41481718     0.048430018
      6700.20      0.36733468     0.049508460
      6706.90      0.32433239     0.050312369
      6713.61      0.33122391     0.051751329
      6720.32      0.33209584     0.052636948
      6727.05      0.32514387     0.053103143
      6733.77      0.34902735     0.055345955
      6740.51      0.36211969     0.058741336
      6747.25      0.32083446     0.060215397
      6754.00      0.28880197     0.062148407
      6760.75      0.26962094     0.063839002
      6767.51      0.25234289     0.065873885
      6774.28      0.24757409     0.069345091
      6781.05      0.24934791     0.074378826
      6787.84      0.26628039     0.082366169
      6794.62      0.25606099     0.092286042
      6801.42      0.26418541      0.10068299
      6808.22      0.26237523      0.11257215
      6815.03      0.26887741      0.12712878
      6821.85      0.27698360      0.14847570
      6828.67      0.24722228      0.17333220
      6835.50      0.27544465      0.21121162
