# starting wavelength =        2455.8363
# ending wavelength =        6795.6214
# O2 telluric scale =        0
# O2 telluric shift =        0
# H2O telluric scale =        0
# H2O telluric shift =        0
      2456.14      0.45494864      0.19955844
      2458.60      0.41580715      0.19897454
      2461.06      0.33801684      0.19847557
      2463.52      0.39281465      0.19842868
      2465.98      0.41655429      0.19874695
      2468.45      0.37034115      0.19847788
      2470.92      0.34727946      0.19913675
      2473.39      0.35575896      0.19838354
      2475.86      0.38312054      0.19887753
      2478.34      0.42774648      0.19803196
      2480.82      0.43473075      0.19765730
      2483.30      0.39875137      0.19724791
      2485.78      0.37801323      0.19653225
      2488.27      0.38099723      0.19580832
      2490.76      0.37280160      0.19465945
      2493.25      0.39286224      0.19285575
      2495.74      0.37783831      0.19215602
      2498.24      0.30051679      0.19002527
      2500.74      0.27965827      0.18936403
      2503.24      0.19334758      0.18767640
      2505.74      0.22747258      0.18622467
      2508.25      0.20163771      0.18497223
      2510.75      0.16475629      0.18334315
      2513.26      0.19286415      0.18125087
      2515.78      0.23926283      0.18042357
      2518.29      0.25098600      0.17822039
      2520.81      0.27813986      0.17743481
      2523.33      0.33713763      0.17573192
      2525.86      0.38149987      0.17472141
      2528.38      0.41267879      0.17416315
      2530.91      0.47412863      0.17384730
      2533.44      0.45665376      0.17385990
      2535.98      0.47309069      0.17388366
      2538.51      0.44946298      0.17399272
      2541.05      0.46691779      0.17318202
      2543.59      0.42830632      0.17339784
      2546.13      0.41862446      0.17210192
      2548.68      0.33472097      0.17146310
      2551.23      0.35251098      0.17098555
      2553.78      0.28136192      0.17032720
      2556.34      0.27293951      0.16956421
      2558.89      0.33377625      0.16871550
      2561.45      0.34495890      0.16707045
      2564.01      0.29983904      0.16485102
      2566.58      0.27847111      0.16413602
      2569.14      0.22444306      0.16237840
      2571.71      0.24921564      0.16153666
      2574.28      0.20240694      0.16158614
      2576.86      0.19850805      0.16072991
      2579.44      0.14304961      0.16010980
      2582.01      0.15959124      0.15896097
      2584.60      0.17076558      0.15877968
      2587.18      0.19231399      0.15798818
      2589.77      0.19636348      0.15667626
      2592.36      0.18066628      0.15662008
      2594.95      0.14791594      0.15566011
      2597.55      0.10381340      0.15557612
      2600.14     0.070818570      0.15565850
      2602.74     0.093394376      0.15551365
      2605.35      0.19376341      0.15491299
      2607.95      0.20558013      0.15400846
      2610.56      0.25617739      0.15329808
      2613.17      0.30114131      0.15223662
      2615.79      0.30790595      0.15073332
      2618.40      0.34739937      0.14966775
      2621.02      0.37645695      0.14925787
      2623.64      0.43223641      0.14769187
      2626.26      0.40402606      0.14644126
      2628.89      0.44328280      0.14526678
      2631.52      0.44722790      0.14447588
      2634.15      0.42517603      0.14362956
      2636.79      0.41411191      0.14309234
      2639.42      0.38827775      0.14250802
      2642.06      0.41174420      0.14247484
      2644.70      0.37900397      0.14296819
      2647.35      0.41162184      0.14259449
      2650.00      0.40634962      0.14293934
      2652.65      0.46974045      0.14346374
      2655.30      0.45157307      0.14387005
      2657.96      0.49207962      0.14416769
      2660.61      0.52188678      0.14409901
      2663.27      0.45521098      0.14355948
      2665.94      0.47123004      0.14362336
      2668.60      0.45947275      0.14432521
      2671.27      0.44872347      0.14423509
      2673.94      0.45039071      0.14493729
      2676.62      0.45497600      0.14565285
      2679.29      0.53930439      0.14549687
      2681.97      0.52951290      0.14624381
      2684.66      0.54788087      0.14639670
      2687.34      0.54303616      0.14594520
      2690.03      0.52545968      0.14585785
      2692.72      0.53103645      0.14585883
      2695.41      0.51477566      0.14598536
      2698.11      0.51486950      0.14614750
      2700.81      0.48024531      0.14627543
      2703.51      0.50456001      0.14606225
      2706.21      0.53592790      0.14509010
      2708.92      0.58100671      0.14446408
      2711.62      0.57206214      0.14386892
      2714.34      0.57133715      0.14394452
      2717.05      0.53867357      0.14306134
      2719.77      0.50966776      0.14265656
      2722.49      0.56353399      0.14213323
      2725.21      0.53596836      0.14135341
      2727.94      0.57176545      0.13998793
      2730.66      0.54179471      0.13891274
      2733.39      0.53911693      0.13855095
      2736.13      0.53153853      0.13778820
      2738.86      0.50911352      0.13686273
      2741.60      0.51017320      0.13643067
      2744.34      0.49446231      0.13614880
      2747.09      0.49763377      0.13597584
      2749.84      0.49275120      0.13544580
      2752.59      0.50011010      0.13531215
      2755.34      0.49980226      0.13528685
      2758.09      0.52842054      0.13576780
      2760.85      0.50872223      0.13577145
      2763.61      0.47279510      0.13525926
      2766.38      0.49805573      0.13508298
      2769.14      0.44501938      0.13478659
      2771.91      0.47134802      0.13442606
      2774.69      0.54063099      0.13358084
      2777.46      0.54228784      0.13302690
      2780.24      0.57323454      0.13230786
      2783.02      0.59968331      0.13147400
      2785.80      0.60773810      0.13059186
      2788.59      0.63106091      0.12971466
      2791.38      0.68008658      0.12849121
      2794.17      0.70127855      0.12816214
      2796.96      0.72138826      0.12724937
      2799.76      0.70302169      0.12637028
      2802.56      0.67888139      0.12553921
      2805.36      0.72211781      0.12446672
      2808.17      0.75139532      0.12373127
      2810.98      0.80572998      0.12305584
      2813.79      0.81739570      0.12253880
      2816.60      0.80283765      0.12226283
      2819.42      0.80289873      0.12219177
      2822.24      0.79221570      0.12175652
      2825.06      0.74773037      0.12163344
      2827.88      0.77347234      0.12147405
      2830.71      0.75778049      0.12126243
      2833.54      0.71159390      0.12097709
      2836.38      0.73208678      0.12068574
      2839.21      0.74724031      0.12049427
      2842.05      0.73383887      0.12002173
      2844.90      0.73452211      0.11989953
      2847.74      0.70355538      0.11978325
      2850.59      0.73098855      0.11962916
      2853.44      0.69771878      0.11942439
      2856.29      0.71255893      0.11928167
      2859.15      0.74387756      0.11914226
      2862.01      0.77216271      0.11897315
      2864.87      0.73724641      0.11876673
      2867.74      0.71680482      0.11826911
      2870.60      0.70681837      0.11814679
      2873.47      0.69910321      0.11813507
      2876.35      0.71682427      0.11821926
      2879.22      0.70627962      0.11831654
      2882.10      0.72070495      0.11842525
      2884.99      0.72593766      0.11849440
      2887.87      0.73020151      0.11847195
      2890.76      0.75352926      0.11840336
      2893.65      0.75639217      0.11792396
      2896.54      0.79726476      0.11787254
      2899.44      0.82952197      0.11784714
      2902.34      0.82024448      0.11749685
      2905.24      0.79947601      0.11752127
      2908.15      0.80571182      0.11751511
      2911.06      0.81194817      0.11750153
      2913.97      0.86741246      0.11761042
      2916.88      0.87053585      0.11778755
      2919.80      0.85568754      0.11796694
      2922.72      0.84791418      0.11822092
      2925.64      0.83407336      0.11853771
      2928.57      0.78902709      0.11853296
      2931.50      0.81769376      0.11873084
      2934.43      0.82297777      0.11876509
      2937.36      0.80046847      0.11871797
      2940.30      0.79875042      0.11865181
      2943.24      0.76816054      0.11854888
      2946.18      0.80373921      0.11838144
      2949.13      0.84522989      0.11817637
      2952.08      0.82847836      0.11794548
      2955.03      0.79783102      0.11725800
      2957.99      0.79492248      0.11695439
      2960.94      0.81279242      0.11660275
      2963.90      0.84158233      0.11617941
      2966.87      0.78440714      0.11570854
      2969.84      0.77908940      0.11524937
      2972.81      0.80306555      0.11478651
      2975.78      0.79386213      0.11390435
      2978.76      0.76394286      0.11350702
      2981.73      0.75371782      0.11324822
      2984.72      0.72866383      0.11310188
      2987.70      0.72353418      0.11310866
      2990.69      0.68055183      0.11292454
      2993.68      0.67626545      0.11309080
      2996.67      0.65385402      0.11321758
      2999.67      0.64981656      0.11329698
      3002.67      0.69361776      0.11337131
      3005.67      0.68771744      0.11345044
      3008.68      0.66172605      0.11319936
      3011.69      0.64151627      0.11326945
      3014.70      0.62574160      0.11333648
      3017.71      0.61801922      0.11369872
      3020.73      0.67680964      0.11332443
      3023.75      0.70002324      0.11322605
      3026.78      0.68830088      0.11307019
      3029.80      0.66830841      0.11292882
      3032.83      0.66959897      0.11276777
      3035.87      0.66830528      0.11220185
      3038.90      0.65329871      0.11198781
      3041.94      0.64049227      0.11177153
      3044.98      0.63470974      0.11152575
      3048.03      0.61865949      0.11079742
      3051.08      0.64715364      0.11072807
      3054.13      0.60262445      0.11034425
      3057.18      0.61752612      0.10994118
      3060.24      0.58459838      0.10914724
      3063.30      0.57094620      0.10876299
      3066.36      0.53319584      0.10839167
      3069.43      0.54353150      0.10805662
      3072.50      0.52589720      0.10743463
      3075.57      0.52177434      0.10722655
      3078.65      0.53173120      0.10734236
      3081.73      0.52879349      0.10682397
      3084.81      0.51945956      0.10664318
      3087.89      0.55144322      0.10643178
      3090.98      0.57077458      0.10589148
      3094.07      0.55222159      0.10569929
      3097.17      0.47647568      0.10582736
      3100.26      0.49978957      0.10537011
      3103.36      0.51138633      0.10522993
      3106.47      0.55175849      0.10511716
      3109.58      0.53671314      0.10500114
      3112.68      0.55906439      0.10453199
      3115.80      0.58508822      0.10465327
      3118.91      0.62228483      0.10414027
      3122.03      0.64655882      0.10396284
      3125.15      0.62438939      0.10377400
      3128.28      0.61515253      0.10325587
      3131.41      0.68622773      0.10334278
      3134.54      0.72773341      0.10312901
      3137.67      0.72435284      0.10256691
      3140.81      0.77023637      0.10234509
      3143.95      0.77250708      0.10212067
      3147.10      0.78324920      0.10190693
      3150.24      0.80289882      0.10175713
      3153.39      0.79933297      0.10130829
      3156.55      0.78486111      0.10118717
      3159.70      0.77537897      0.10136944
      3162.86      0.76090423      0.10101404
      3166.03      0.76422127      0.10092093
      3169.19      0.79195354      0.10049138
      3172.36      0.80506210      0.10075680
      3175.54      0.78631415      0.10082607
      3178.71      0.78913285      0.10066422
      3181.89      0.76098143      0.10075531
      3185.07      0.75100306      0.10096913
      3188.26      0.75650472      0.10120126
      3191.45      0.74000624      0.10120847
      3194.64      0.69253567      0.10148211
      3197.83      0.69166133      0.10210887
      3201.03      0.70542322      0.12490873
      3204.23      0.73123394      0.12547893
      3207.44      0.69565993      0.12621957
      3210.64      0.65894598      0.12678136
      3213.85      0.61175945      0.12668162
      3217.07      0.59398226      0.12754879
      3220.28      0.56886082      0.12771111
      3223.51      0.57731315      0.12713302
      3226.73      0.57131625      0.12754530
      3229.96      0.58728589      0.12667176
      3233.19      0.65879829      0.12684503
      3236.42      0.64359281      0.12579465
      3239.66      0.64545575      0.12537423
      3242.90      0.72068203      0.12487220
      3246.14      0.72988642      0.12448743
      3249.39      0.78592174      0.12408698
      3252.64      0.74766929      0.12401762
      3255.89      0.74266352      0.12295862
      3259.14      0.70842542      0.12263115
      3262.40      0.66781155      0.12237466
      3265.67      0.65442979      0.12221739
      3268.93      0.69973138      0.12254271
      3272.20      0.70723015      0.12212357
      3275.47      0.66482492      0.12177750
      3278.75      0.66923963      0.12175713
      3282.03      0.67631786      0.12132609
      3285.31      0.68055087      0.12187402
      3288.60      0.67263828      0.12157896
      3291.88      0.61651103      0.12234932
      3295.18      0.58667728      0.12210326
      3298.47      0.62537385      0.12170036
      3301.77      0.60897778      0.12232119
      3305.07      0.62762182      0.12184907
      3308.38      0.65249970      0.12232434
      3311.69      0.67287860      0.12166168
      3315.00      0.74991938      0.12190742
      3318.31      0.79932158      0.12115922
      3321.63      0.81693038      0.12086655
      3324.95      0.84783518      0.12061826
      3328.28      0.82025827      0.12065494
      3331.61      0.88062516      0.12084012
      3334.94      0.90811178      0.12022368
      3338.27      0.87416335      0.11873613
      3341.61      0.89288766      0.11890123
      3344.95      0.85610363      0.11837276
      3348.30      0.83493139      0.11899345
      3351.65      0.79001239      0.11877323
      3355.00      0.77485231      0.11924705
      3358.35      0.77351320      0.11904953
      3361.71      0.76556703      0.11925102
      3365.07      0.79504360      0.11894753
      3368.44      0.78036934      0.11960361
      3371.81      0.69466872      0.11915474
      3375.18      0.71180341      0.11919603
      3378.56      0.68631451      0.11914968
      3381.94      0.70802997      0.11893610
      3385.32      0.69710990      0.11815423
      3388.70      0.67900607      0.11835857
      3392.09      0.76382518      0.11800263
      3395.48      0.76905236      0.11720912
      3398.88      0.79599854      0.11738219
      3402.28      0.85732875      0.11682294
      3405.68      0.88965214      0.11690042
      3409.09      0.85954075      0.11664913
      3412.49      0.89054546      0.11760454
      3415.91      0.90179351      0.11847695
      3419.32      0.91835005      0.11811260
      3422.74      0.90895507      0.11766780
      3426.17      0.83168539      0.11768044
      3429.59      0.85879849      0.11775028
      3433.02      0.79108322      0.11781662
      3436.45      0.73188109      0.11781385
      3439.89      0.68726412      0.11773330
      3443.33      0.69555306      0.11770370
      3446.78      0.63804997      0.11722073
      3450.22      0.56955698      0.11721791
      3453.67      0.57235123      0.11772555
      3457.13      0.60466679      0.11734059
      3460.58      0.57307574      0.11749402
      3464.04      0.65161810      0.11722971
      3467.51      0.70689213      0.11751665
      3470.98      0.72463453      0.11824523
      3474.45      0.71192759      0.11844401
      3477.92      0.73667421      0.11808852
      3481.40      0.75209657      0.11813049
      3484.88      0.77867556      0.11828040
      3488.37      0.77106777      0.11810036
      3491.86      0.83536946      0.11804772
      3495.35      0.84641385      0.11806152
      3498.84      0.82512579      0.11775372
      3502.34      0.81812809      0.11802754
      3505.84      0.80947612      0.11843233
      3509.35      0.83048703      0.11882089
      3512.86      0.82711211      0.11912475
      3516.37      0.79693471      0.11960277
      3519.89      0.82017206      0.12024538
      3523.41      0.73001363      0.12088976
      3526.93      0.76100536      0.12100529
      3530.46      0.80907850      0.12169650
      3533.99      0.81015161      0.12240378
      3537.53      0.83778717      0.12300648
      3541.06      0.87396537      0.12294130
      3544.60      0.94976766      0.12335389
      3548.15      0.96850077      0.12403779
      3551.70      0.98323601      0.12416746
      3555.25      0.96053968      0.12384660
      3558.80      0.97452204      0.12403161
      3562.36      0.91355613      0.12410820
      3565.92      0.88717630      0.12411390
      3569.49      0.90656139      0.12416300
      3573.06      0.88910030      0.12426663
      3576.64      0.87398210      0.12341519
      3580.21      0.87930565      0.12329226
      3583.79      0.91093507      0.12312998
      3587.38      0.83937530      0.12301429
      3590.96      0.83848362      0.12292834
      3594.55      0.85097817      0.12285501
      3598.15      0.84587613      0.12237204
      3601.75      0.91185194      0.12242573
      3605.35      0.93674511      0.12257389
      3608.96      0.92696896      0.12281755
      3612.56      0.94591152      0.12314237
      3616.18      0.95389402      0.12351063
      3619.79      0.98664103      0.12393062
      3623.41      0.99443740      0.12440889
      3627.04      0.98184019      0.12437618
      3630.66       1.0253580      0.12486581
      3634.29       1.0156595      0.12539279
      3637.93      0.98818613      0.12599367
      3641.57       1.0083405      0.12669033
      3645.21      0.94761013      0.12748254
      3648.86      0.91571340      0.12831143
      3652.50      0.85596092      0.12917674
      3656.16      0.81056546      0.13010934
      3659.81      0.83087889      0.13121614
      3663.47      0.80825777      0.13324506
      3667.14      0.77135169      0.13593787
      3670.80      0.76023561      0.13798588
      3674.48      0.76527636      0.13706635
      3678.15      0.79901183      0.13664839
      3681.83      0.82152970      0.13848887
      3685.51      0.88540140      0.14138141
      3689.20      0.92337889      0.14471681
      3692.88      0.98783985      0.14824181
      3696.58       1.0170967      0.15168472
      3700.27       1.0937500      0.15467161
      3703.98       1.1139938      0.15685958
      3707.68       1.1274155      0.15800615
      3711.39       1.2019167      0.15797877
      3715.10       1.3052158      0.15682224
      3718.81       1.3857532      0.15362769
      3722.53       1.4152782      0.14956678
      3726.26       1.3377579      0.14486207
      3729.98       1.2462433      0.13981994
      3733.71       1.2163437      0.13461879
      3737.45       1.1017229      0.12951597
      3741.18       1.0282800      0.12472504
      3744.93       1.0037814      0.12030597
      3748.67       1.0122303      0.11686059
      3752.42       1.0152123      0.11436046
      3756.17       1.0247720      0.11282889
      3759.93       1.0288442      0.11141286
      3763.69       1.0393052      0.10863271
      3767.45       1.0271804      0.10586508
      3771.22      0.96404517      0.10361242
      3774.99      0.92503943      0.10212748
      3778.77      0.86679979      0.10095484
      3782.54      0.85739362     0.099858343
      3786.33      0.87474874     0.098711655
      3790.11      0.83911641     0.097604736
      3793.90      0.85161563     0.096488092
      3797.70      0.86552860     0.095310793
      3801.50      0.80429670     0.094076948
      3805.30      0.80117383     0.092850005
      3809.10      0.74836393     0.091640595
      3812.91      0.71328772     0.090435098
      3816.73      0.69526915     0.089452430
      3820.54      0.68751401     0.088338417
      3824.36      0.65128332     0.086684811
      3828.19      0.60629049     0.085419725
      3832.02      0.53693972     0.084439959
      3835.85      0.52077793     0.083471959
      3839.68      0.52839500     0.082919037
      3843.52      0.61112073     0.082576156
      3847.37      0.66194106     0.082458317
      3851.22      0.67459812     0.082245245
      3855.07      0.71921653     0.081837828
      3858.92      0.75075795     0.081305483
      3862.78      0.81478461     0.080878237
      3866.64      0.83749290     0.080046160
      3870.51      0.84694085     0.081466783
      3874.38      0.91402020     0.081434521
      3878.26      0.94797715     0.080765404
      3882.13      0.96993584     0.079297471
      3886.02       1.0306371     0.078363646
      3889.90       1.0354794     0.078361316
      3893.79       1.0543766     0.078573747
      3897.69       1.0430133     0.079353494
      3901.59       1.1049528     0.080314440
      3905.49       1.1335333     0.081342921
      3909.39       1.1727019     0.082430409
      3913.30       1.1805089     0.083568336
      3917.22       1.2015713     0.084195650
      3921.13       1.2123006     0.084710183
      3925.06       1.1706068     0.084446461
      3928.98       1.1174695     0.083880594
      3932.91       1.1103884     0.083128649
      3936.84       1.1894083     0.082064021
      3940.78       1.1738174     0.080499959
      3944.72       1.2024564     0.079221992
      3948.67       1.1787341     0.077971184
      3952.61       1.1721854     0.076636878
      3956.57       1.1928509     0.075497604
      3960.52       1.1967406     0.074360329
      3964.48       1.1764053     0.073875700
      3968.45       1.1522575     0.074199720
      3972.42       1.1194781     0.075376044
      3976.39       1.0816767     0.073669472
      3980.37       1.0733510     0.073187770
      3984.35       1.0919189     0.072538134
      3988.33       1.0818111     0.072280260
      3992.32       1.0870267     0.071847697
      3996.31       1.1137479     0.071621482
      4000.31       1.1323589     0.071433260
      4004.31       1.1722359     0.071253658
      4008.31       1.1114628     0.071022361
      4012.32       1.0769511     0.070879230
      4016.33       1.0386406     0.070723142
      4020.35       1.0324755     0.070523929
      4024.37       1.0186012     0.070030957
      4028.40       1.0211875     0.069843891
      4032.42       1.0216932     0.070020739
      4036.46      0.99017993     0.069486789
      4040.50       1.0065190     0.069166636
      4044.54      0.95275293     0.068893815
      4048.58      0.95325844     0.068401821
      4052.63      0.95018353     0.069818169
      4056.68      0.94433835     0.068740697
      4060.74      0.97134105     0.067940220
      4064.80      0.97214673     0.067818944
      4068.86      0.93901714     0.067875481
      4072.93      0.92232292     0.068050742
      4077.01      0.91009608     0.068321340
      4081.08      0.93732351     0.068588934
      4085.17      0.95780019     0.068550525
      4089.25      0.98892316     0.069030883
      4093.34       1.0023333     0.069150909
      4097.43      0.99118643     0.068907568
      4101.53       1.0055103     0.068915346
      4105.63       1.0052973     0.068716778
      4109.74      0.99836727     0.067931940
      4113.85      0.95733044     0.067505381
      4117.96      0.95785444     0.066739441
      4122.08      0.97060223     0.066393124
      4126.20      0.98732897     0.065864708
      4130.33      0.96173045     0.065164749
      4134.46      0.93010371     0.064860777
      4138.59      0.92331354     0.064859910
      4142.73      0.89563801     0.065192297
      4146.88      0.86454750     0.064926038
      4151.02      0.82866013     0.064421545
      4155.18      0.83063233     0.064685085
      4159.33      0.82962445     0.065330896
      4163.49      0.81392939     0.065026075
      4167.65      0.79611851     0.065217596
      4171.82      0.75481752     0.065370415
      4175.99      0.73114393     0.065987815
      4180.17      0.68752935     0.066370779
      4184.35      0.69002652     0.067038407
      4188.54      0.68594136     0.067252607
      4192.72      0.69913397     0.067139454
      4196.92      0.70014291     0.066891485
      4201.11      0.70191332     0.079553191
      4205.31      0.69232052     0.078070400
      4209.52      0.72275867     0.077559824
      4213.73      0.72180815     0.076079875
      4217.94      0.70653099     0.074860096
      4222.16      0.69915328     0.073506586
      4226.38      0.69099765     0.072477022
      4230.61      0.68838668     0.071722197
      4234.84      0.67845890     0.071786992
      4239.08      0.64000533     0.070191099
      4243.32      0.66349132     0.068717096
      4247.56      0.68146620     0.067154330
      4251.81      0.71381446     0.066707666
      4256.06      0.72267601     0.065748692
      4260.32      0.76493554     0.064917477
      4264.58      0.75919001     0.063969640
      4268.84      0.78525834     0.063364419
      4273.11      0.76961156     0.062975587
      4277.38      0.81689232     0.062968345
      4281.66      0.81688372     0.062807834
      4285.94      0.84936916     0.062629900
      4290.23      0.82398731     0.062784615
      4294.52      0.83430455     0.062552499
      4298.81      0.83343946     0.062880638
      4303.11      0.90876787     0.062723795
      4307.42      0.91164932     0.063209942
      4311.72      0.90456864     0.063072350
      4316.04      0.94179305     0.063392364
      4320.35      0.95928877     0.063068794
      4324.67      0.97422267     0.063059156
      4329.00      0.95566800     0.063201011
      4333.33      0.97278998     0.062989622
      4337.66      0.98073231     0.062825685
      4342.00       1.0055854     0.062959596
      4346.34       1.0212962     0.063013912
      4350.69      0.99180850     0.063668397
      4355.04      0.93019845     0.063742962
      4359.39      0.93843201     0.063955209
      4363.75      0.91367786     0.064047223
      4368.12      0.88095845     0.064180328
      4372.48      0.84446816     0.064040961
      4376.86      0.84050268     0.063498295
      4381.23      0.88011164     0.062555240
      4385.61      0.87656105     0.062093734
      4390.00      0.86342457     0.061286439
      4394.39      0.86274456     0.060295916
      4398.79      0.86949003     0.059788555
      4403.18      0.82864723     0.058971241
      4407.59      0.81000407     0.058611048
      4412.00      0.79268284     0.058908624
      4416.41      0.79019126     0.058380744
      4420.82      0.79568276     0.057734741
      4425.25      0.83127127     0.057318138
      4429.67      0.85095036     0.057531951
      4434.10      0.85074230     0.057420392
      4438.54      0.86730177     0.057330723
      4442.97      0.92480212     0.057822433
      4447.42      0.90520398     0.057780068
      4451.86      0.94787814     0.058003696
      4456.32      0.97502656     0.058129602
      4460.77       1.0155491     0.058113728
      4465.24       1.0770972     0.057869318
      4469.70       1.0657241     0.057462775
      4474.17       1.0911503     0.056686985
      4478.65       1.1276785     0.056374316
      4483.12       1.1963911     0.056281681
      4487.61       1.2327325     0.055570672
      4492.09       1.2711575     0.054340087
      4496.59       1.2597943     0.053959816
      4501.08       1.2932970     0.054083179
      4505.58       1.3416511     0.054438038
      4510.09       1.3894714     0.054837122
      4514.60       1.3882725     0.055029043
      4519.12       1.4323077     0.054762208
      4523.63       1.4565543     0.055432569
      4528.16       1.4933596     0.056308465
      4532.69       1.4853915     0.056471277
      4537.22       1.5167739     0.056308118
      4541.76       1.5361790     0.056308648
      4546.30       1.5621499     0.056631060
      4550.85       1.5668699     0.056549631
      4555.40       1.5717354     0.056824964
      4559.95       1.6125110     0.057311908
      4564.51       1.6802574     0.058067849
      4569.08       1.7457976     0.058820024
      4573.65       1.7515034     0.059380578
      4578.22       1.7471281     0.058900447
      4582.80       1.7264450     0.059024895
      4587.38       1.7018561     0.058658988
      4591.97       1.6519286     0.058311508
      4596.56       1.6125726     0.057617089
      4601.16       1.5838074     0.056723677
      4605.76       1.5449628     0.055847268
      4610.37       1.5094682     0.054819534
      4614.98       1.4683946     0.054597244
      4619.59       1.4094997     0.054260075
      4624.21       1.4143999     0.053794006
      4628.84       1.4095957     0.053236398
      4633.47       1.3980689     0.052754921
      4638.10       1.4066748     0.052094959
      4642.74       1.4258378     0.051624526
      4647.38       1.4547907     0.051257314
      4652.03       1.4286897     0.050867359
      4656.68       1.4659876     0.050298662
      4661.34       1.4420487     0.049726797
      4666.00       1.4624456     0.049435785
      4670.67       1.4593938     0.049057339
      4675.33       1.4256485     0.048880432
      4680.01       1.3890989     0.048562341
      4684.69       1.3604757     0.048461167
      4689.38       1.3085069     0.048495158
      4694.07       1.2433515     0.048486593
      4698.76       1.1648437     0.048347464
      4703.46       1.0857157     0.048296897
      4708.16       1.0407407     0.048207858
      4712.87       1.0179878     0.048081323
      4717.58      0.99892862     0.047524761
      4722.30      0.98948100     0.047126563
      4727.03      0.96973431     0.046893754
      4731.75      0.97797398     0.046726011
      4736.48      0.98562251     0.046674658
      4741.22      0.97466245     0.046619550
      4745.96       1.0184562     0.046492562
      4750.71       1.0508149     0.046539932
      4755.46       1.0978919     0.046600966
      4760.22       1.1260376     0.046494684
      4764.97       1.1376480     0.046591890
      4769.74       1.1559263     0.046592621
      4774.51       1.1788423     0.047395228
      4779.29       1.2067699     0.047475779
      4784.07       1.1895576     0.046674135
      4788.85       1.1619697     0.046177547
      4793.64       1.1653221     0.046409568
      4798.43       1.1804080     0.047363550
      4803.23       1.2040880     0.048631546
      4808.03       1.2274808     0.049466905
      4812.84       1.2034936     0.050306378
      4817.66       1.1723799     0.051632276
      4822.48       1.2008283     0.053144617
      4827.30       1.1990864     0.055484770
      4832.12       1.1822252     0.056671357
      4836.96       1.1784292     0.058214085
      4841.79       1.1496153     0.058527754
      4846.63       1.1290151     0.058223657
      4851.48       1.1566574     0.058026496
      4856.33       1.1704734     0.058353947
      4861.19       1.1875706     0.058995859
      4866.05       1.2556432     0.059955459
      4870.92       1.2817003     0.059245152
      4875.79       1.2990650     0.058441681
      4880.66       1.3249793     0.057762425
      4885.55       1.3406443     0.056505454
      4890.43       1.3786790     0.055653365
      4895.32       1.4108032     0.055267545
      4900.22       1.3738634     0.054374884
      4905.12       1.3296020     0.052944404
      4910.02       1.2829020     0.051399996
      4914.94       1.2528796     0.049981311
      4919.85       1.2445033     0.049459718
      4924.77       1.1780171     0.048831193
      4929.70       1.0887626     0.048666781
      4934.62       1.0836643     0.047559230
      4939.56       1.0578849     0.047124175
      4944.50       1.0166634     0.046641690
      4949.44       1.0101422     0.046958103
      4954.39       1.0025730     0.047264757
      4959.35       1.0152655     0.047285743
      4964.31      0.98757418     0.047451739
      4969.27      0.99897855     0.047761860
      4974.24      0.98531526     0.048023963
      4979.22      0.99228085     0.048006638
      4984.20       1.0052523     0.047911143
      4989.18       1.0257884     0.048253107
      4994.17      0.99215971     0.048265845
      4999.16      0.99748423     0.047770754
      5004.16      0.97305552     0.047174130
      5009.17      0.95047364     0.047144655
      5014.18      0.94129961     0.047982978
      5019.19      0.88636546     0.047733900
      5024.21      0.84935910     0.046667109
      5029.23      0.85623845     0.046889364
      5034.26      0.83336196     0.047283131
      5039.30      0.80938750     0.048291330
      5044.34      0.80831628     0.050199883
      5049.39      0.80380227     0.052613624
      5054.43      0.81097329     0.055356545
      5059.49      0.78850238     0.058533195
      5064.55      0.79830220     0.061921056
      5069.61      0.78531831     0.063826876
      5074.68      0.84699851     0.065090703
      5079.76      0.90763918     0.065947203
      5084.84      0.96724462     0.065044662
      5089.92      0.96428770     0.064040961
      5095.01      0.94822107     0.058150574
      5100.11      0.98740297     0.054566737
      5105.21       1.0258821     0.052389783
      5110.31       1.0450419     0.052461165
      5115.42       1.0564958     0.051682222
      5120.54       1.0807709     0.050812304
      5125.66       1.1142516     0.051136096
      5130.79       1.1462340     0.052117260
      5135.92       1.1367262     0.052842637
      5141.05       1.1615678     0.054516950
      5146.20       1.1758264     0.053483427
      5151.34       1.1900975     0.052848395
      5156.49       1.1908106     0.052738893
      5161.65       1.1945759     0.053140726
      5166.81       1.2119004     0.052417018
      5171.98       1.2630309     0.052952518
      5177.15       1.2572430     0.053465221
      5182.33       1.2491798     0.054535195
      5187.51       1.2394096     0.055134695
      5192.70       1.2437600     0.054201039
      5197.89       1.2627544     0.053701967
      5203.09       1.2756761     0.053273668
      5208.29       1.3029138     0.053646765
      5213.50       1.2944712     0.053449518
      5218.72       1.3102241     0.053530177
      5223.93       1.2911286     0.053675292
      5229.16       1.3059691     0.053487260
      5234.39       1.2935573     0.053548857
      5239.62       1.3037655     0.054320934
      5244.86       1.2921614     0.053503471
      5250.11       1.2971087     0.053850574
      5255.36       1.2926907     0.054274745
      5260.61       1.2976050     0.053747664
      5265.87       1.3398219     0.052722516
      5271.14       1.3500047     0.052109149
      5276.41       1.3541987     0.051189114
      5281.69       1.3652439     0.050509413
      5286.97       1.3437704     0.049755290
      5292.26       1.3384897     0.049503412
      5297.55       1.3102494     0.048999391
      5302.85       1.3305910     0.048375071
      5308.15       1.3316303     0.048046837
      5313.46       1.3300177     0.047826293
      5318.77       1.3427987     0.049223250
      5324.09       1.3259268     0.050916477
      5329.42       1.3238190     0.048131426
      5334.75       1.3314505     0.047332053
      5340.08       1.3783455     0.047021126
      5345.42       1.3749335     0.047454682
      5350.77       1.3812922     0.047152923
      5356.12       1.4016465     0.046718824
      5361.48       1.4127005     0.046671002
      5366.83       1.4213539     0.046764919
      5372.20       1.4514839     0.046579040
      5377.58       1.4643563     0.046423672
      5382.95       1.4513686     0.045378981
      5388.34       1.4365865     0.044929980
      5393.72       1.4652353     0.044283839
      5399.12       1.4849471     0.043187432
      5404.52       1.4926028     0.041827998
      5409.92       1.5122629     0.040901183
      5415.33       1.5168292     0.040518823
      5420.75       1.5148229     0.040598683
      5426.17       1.5180284     0.040229615
      5431.60       1.5102338     0.039257378
      5437.03       1.5303595     0.039042084
      5442.47       1.5379414     0.038972970
      5447.91       1.5229597     0.038920943
      5453.36       1.5356175     0.038772076
      5458.81       1.5159361     0.038480027
      5464.27       1.4942292     0.038921408
      5469.73       1.4712490     0.038901049
      5475.20       1.4991027     0.038865407
      5480.68       1.4648039     0.038435618
      5486.16       1.4576040     0.038488102
      5491.65       1.4628221     0.039058541
      5497.14       1.4509767     0.039886502
      5502.64       1.4462549     0.041418527
      5508.14       1.4333125     0.043038830
      5513.65       1.4410320     0.043620118
      5519.16       1.4142939     0.043735505
      5524.68       1.3965500     0.043874770
      5530.20       1.3733736     0.044824370
      5535.73       1.3678739     0.045255351
      5541.27       1.3751012     0.046226017
      5546.81       1.3545398     0.045805703
      5552.36       1.3501229     0.045818583
      5557.91       1.3438088     0.045727098
      5563.47       1.2780657     0.046012212
      5569.04       1.2922254     0.046461403
      5574.60       1.2780122     0.047266392
      5580.18       1.2754390     0.047579437
      5585.76       1.2400621     0.047613133
      5591.35       1.2228371     0.046846060
      5596.94       1.1803060     0.046439566
      5602.53       1.1748665     0.046717688
      5608.14       1.1941506     0.048270835
      5613.75       1.1510061     0.048710845
      5619.36       1.1415118     0.046349503
      5624.98       1.1240366     0.044724751
      5630.60       1.0899617     0.043982851
      5636.23       1.0810200     0.043504993
      5641.87       1.0449704     0.042555493
      5647.51       1.0190737     0.041490773
      5653.16       1.0108443     0.040419449
      5658.82       1.0051738     0.039955166
      5664.47      0.99500453     0.039371272
      5670.14      0.98148707     0.038636705
      5675.81      0.99293602     0.037510966
      5681.48      0.99735004     0.037510745
      5687.17       1.0235029     0.037505849
      5692.85       1.0191778     0.037367868
      5698.55       1.0045125     0.036334236
      5704.25       1.0263370     0.035994421
      5709.95       1.0683265     0.037173876
      5715.66       1.0742875     0.038798681
      5721.38       1.0858738     0.040255416
      5727.10       1.0829997     0.041458441
      5732.83       1.0786809     0.044231721
      5738.56       1.0574524     0.047781749
      5744.30       1.0338216     0.052437661
      5750.04       1.0108999     0.055731805
      5755.79       1.0093238     0.057513888
      5761.55      0.98467357     0.058560180
      5767.31      0.97133476     0.057829969
      5773.08      0.91974733     0.054548099
      5778.85      0.91810523     0.053100841
      5784.63      0.92804350     0.050426530
      5790.41      0.92418695     0.048567105
      5796.21      0.94072019     0.044164245
      5802.00      0.93519849     0.041472766
      5807.81      0.93934608     0.040123250
      5813.61      0.97095671     0.040296897
      5819.43      0.98049827     0.042052667
      5825.25      0.99803543     0.043851669
      5831.07       1.0351423     0.044650984
      5836.90       1.0390916     0.044278137
      5842.74       1.0606352     0.044365365
      5848.58       1.1054361     0.044799096
      5854.43       1.1190166     0.044568504
      5860.29       1.1363521     0.045315152
      5866.15       1.1060423     0.044963622
      5872.01       1.0994349     0.044763736
      5877.89       1.0861683     0.044377254
      5883.76       1.0807770     0.044844324
      5889.65       1.1017185     0.047326119
      5895.54       1.0457273     0.047865977
      5901.43       1.0072797     0.049852970
      5907.34       1.0181002     0.049168192
      5913.24      0.97047665     0.048028282
      5919.16      0.93794448     0.047646415
      5925.08      0.96698654     0.048318011
      5931.00      0.94032652     0.049988392
      5936.93      0.95010432     0.052912565
      5942.87      0.96647414     0.050806917
      5948.81      0.97299951     0.049307607
      5954.76      0.94093317     0.049313350
      5960.72      0.93032605     0.047868638
      5966.68      0.90254985     0.046768374
      5972.64      0.91376858     0.045390785
      5978.62      0.90923370     0.042966347
      5984.60      0.88710985     0.041211649
      5990.58      0.89156203     0.039499826
      5996.57      0.91400844     0.039243199
      6002.57      0.89880152     0.038364238
      6008.57      0.89237791     0.037014834
      6014.58      0.91423082     0.036973202
      6020.60      0.93313679     0.035762265
      6026.62      0.91142364     0.034987575
      6032.65      0.90934230     0.034113263
      6038.68      0.91034714     0.034066188
      6044.72      0.90003419     0.034179349
      6050.76      0.90415500     0.033377303
      6056.81      0.91160776     0.032631199
      6062.87      0.90109585     0.031889785
      6068.93      0.88469369     0.031684017
      6075.00      0.89003579     0.031683495
      6081.08      0.90537610     0.031868384
      6087.16      0.94368253     0.031613275
      6093.25      0.95247622     0.031010960
      6099.34      0.96250779     0.030915836
      6105.44      0.99141043     0.030811974
      6111.54       1.0187912     0.030886344
      6117.66       1.0661063     0.030926086
      6123.78       1.0958546     0.030857591
      6129.90       1.0944964     0.030638720
      6136.03       1.0803205     0.030756656
      6142.17       1.0576033     0.031331119
      6148.31       1.0460528     0.031623505
      6154.46       1.0038209     0.032327663
      6160.61      0.95521393     0.031877924
      6166.77      0.93724126     0.031865658
      6172.94      0.91847240     0.032856544
      6179.11      0.89124307     0.034307583
      6185.29      0.87886366     0.036448565
      6191.48      0.87009313     0.038999028
      6197.67      0.89305708     0.041613938
      6203.87      0.89734627     0.044886976
      6210.07      0.87321696     0.047881246
      6216.28      0.90766280     0.051126096
      6222.50      0.89247582     0.052911869
      6228.72      0.92119232     0.054914496
      6234.95      0.95089816     0.054374960
      6241.19      0.93618029     0.053196645
      6247.42      0.90560049     0.050632810
      6253.67      0.89977755     0.051150615
      6259.93      0.93009231     0.052402349
      6266.19      0.96184237     0.053076953
      6272.46      0.95867695     0.053217328
      6278.73      0.94782724     0.053899747
      6285.01       1.0020583     0.053660057
      6291.29       1.0363456     0.053370504
      6297.58       1.1088548     0.054905816
      6303.88       1.2139000     0.058637539
      6310.19       1.2105685     0.058937339
      6316.50       1.2041343     0.056715125
      6322.81       1.2069897     0.056780280
      6329.14       1.2006905     0.055438595
      6335.47       1.1942495     0.056083625
      6341.80       1.1803831     0.055068428
      6348.14       1.1590025     0.057998803
      6354.49       1.1435432     0.053951824
      6360.85       1.1466182     0.053731265
      6367.21       1.1897124     0.051230448
      6373.57       1.2350634     0.051087067
      6379.95       1.2434675     0.049843913
      6386.33       1.2496683     0.048761415
      6392.72       1.1837163     0.048183295
      6399.11       1.1890263     0.047133190
      6405.51       1.1780505     0.047548277
      6411.92       1.1741078     0.046229682
      6418.32       1.1759453     0.045736930
      6424.74       1.1841518     0.045276289
      6431.17       1.1966251     0.046156736
      6437.60       1.1760542     0.046245448
      6444.04       1.1682293     0.047052593
      6450.48       1.1748474     0.046977015
      6456.94       1.1725256     0.046497192
      6463.39       1.1809278     0.045611237
      6469.85       1.1499001     0.045600459
      6476.33       1.1467891     0.046477318
      6482.80       1.1309887     0.046152283
      6489.28       1.0957793     0.045801083
      6495.77       1.0653683     0.045413765
      6502.27       1.0608276     0.045476976
      6508.77       1.0550863     0.044930196
      6515.28       1.0233654     0.044279843
      6521.80       1.0058703     0.044744004
      6528.32       1.0128065     0.044437574
      6534.85      0.99948881     0.044942937
      6541.38      0.97885815     0.045201096
      6547.92       1.0279881     0.046058222
      6554.47       1.0452489     0.046154513
      6561.03       1.0421516     0.047443769
      6567.59       1.0650554     0.048582393
      6574.16       1.0762649     0.049146371
      6580.73       1.0683521     0.050418387
      6587.31       1.0689405     0.050852260
      6593.90       1.0934768     0.052334150
      6600.50       1.0902247     0.054075208
      6607.10       1.1197299     0.057637391
      6613.70       1.1036583     0.060238654
      6620.32       1.1207042     0.062231251
      6626.94       1.1339234     0.063591690
      6633.57       1.1397455     0.064665044
      6640.20       1.1376997     0.065895622
      6646.84       1.1038006     0.066645597
      6653.49       1.1109892     0.067499305
      6660.14       1.0846880     0.068838490
      6666.80       1.0337189     0.070295357
      6673.47      0.97285407     0.071403888
      6680.14      0.93293330     0.074127405
      6686.82      0.93299438     0.074654950
      6693.51      0.92559961     0.075936447
      6700.20      0.88832879     0.077752514
      6706.90      0.86603311     0.079008958
      6713.61      0.86211876     0.081934348
      6720.32      0.90554810     0.084269230
      6727.05      0.86716401     0.088952629
      6733.77      0.84249888     0.098085517
      6740.51      0.85414624     0.098552281
      6747.25      0.86277626     0.099271909
      6754.00      0.84578744      0.10049131
      6760.75      0.84411062      0.10214741
      6767.51      0.87674295      0.10518156
      6774.28      0.90597557      0.10946048
      6781.05      0.88815567      0.11736804
      6787.84      0.77372426      0.13020301
      6794.62      0.73655201      0.13785245
