# starting wavelength =        2823.2227
# ending wavelength =        9164.3183
# O2 telluric scale =        0
# O2 telluric shift =        0
# H2O telluric scale =        0
# H2O telluric shift =        0
      2825.06      0.34388701      0.16166160
      2827.88      0.32490650      0.15702684
      2830.71      0.34631160      0.15269705
      2833.54      0.29411062      0.14859132
      2836.38      0.22852937      0.14480482
      2839.21      0.22030441      0.14126991
      2842.05      0.27604379      0.13809559
      2844.90      0.28568760      0.13497787
      2847.74      0.31036390      0.13089885
      2850.59      0.31036329      0.12832261
      2853.44      0.29725106      0.12570464
      2856.29      0.34403772      0.12312429
      2859.15      0.35682472      0.12055392
      2862.01      0.34739268      0.11811585
      2864.87      0.34715340      0.11555659
      2867.74      0.30870110      0.11305483
      2870.60      0.29057275      0.11087173
      2873.47      0.28512998      0.10868976
      2876.35      0.32037989      0.10582852
      2879.22      0.29817653      0.10412608
      2882.10      0.31399870      0.10241830
      2884.99      0.32012439      0.10078389
      2887.87      0.28945126     0.099306115
      2890.76      0.28937266     0.097650835
      2893.65      0.33024174     0.095993378
      2896.54      0.30953212     0.094628984
      2899.44      0.26972276     0.092575810
      2902.34      0.28629033     0.091386221
      2905.24      0.29178468     0.090493287
      2908.15      0.30746844     0.089362448
      2911.06      0.33891797     0.088159860
      2913.97      0.35767119     0.087116926
      2916.88      0.35656577     0.085834687
      2919.80      0.35421248     0.084568210
      2922.72      0.35166732     0.082906873
      2925.64      0.36143646     0.081659352
      2928.57      0.34923832     0.080623641
      2931.50      0.37632983     0.079368425
      2934.43      0.40499824     0.078121772
      2937.36      0.43531366     0.077059452
      2940.30      0.43795801     0.075816605
      2943.24      0.44108450     0.073970498
      2946.18      0.44218673     0.072914861
      2949.13      0.45542930     0.071698263
      2952.08      0.46030640     0.070740988
      2955.03      0.48293374     0.069629245
      2957.99      0.46978263     0.068461575
      2960.94      0.49349865     0.066678612
      2963.90      0.52178676     0.065302107
      2966.87      0.53082888     0.064078741
      2969.84      0.53078801     0.062884874
      2972.81      0.52823676     0.061830364
      2975.78      0.54918676     0.061090159
      2978.76      0.54305555     0.059934220
      2981.73      0.53434823     0.059414383
      2984.72      0.52726342     0.058807861
      2987.70      0.52069038     0.058271334
      2990.69      0.52236031     0.058045572
      2993.68      0.53441446     0.057625644
      2996.67      0.53624282     0.057125040
      2999.67      0.55444000     0.056692008
      3002.67      0.55606081     0.056184356
      3005.67      0.55182778     0.055793442
      3008.68      0.57301479     0.055148491
      3011.69      0.56377788     0.054176596
      3014.70      0.56407207     0.053409775
      3017.71      0.54014226     0.052739194
      3020.73      0.53618013     0.051873733
      3023.75      0.53958963     0.051159937
      3026.78      0.54385151     0.049984961
      3029.80      0.53008806     0.049295823
      3032.83      0.53371157     0.048815634
      3035.87      0.52264858     0.048241414
      3038.90      0.50107306     0.047907837
      3041.94      0.49422795     0.047172536
      3044.98      0.47343212     0.047002278
      3048.03      0.47892185     0.046631892
      3051.08      0.46972334     0.046478103
      3054.13      0.45613380     0.045986867
      3057.18      0.44563637     0.045957389
      3060.24      0.44869179     0.045733670
      3063.30      0.45569028     0.045613467
      3066.36      0.44470924     0.045224969
      3069.43      0.46190144     0.044688634
      3072.50      0.47689146     0.044310421
      3075.57      0.49171604     0.044163679
      3078.65      0.50245064     0.043870860
      3081.73      0.52303019     0.043577559
      3084.81      0.54695119     0.043354871
      3087.89      0.55703394     0.043330792
      3090.98      0.56127370     0.043073962
      3094.07      0.57065061     0.042706527
      3097.17      0.57852758     0.042385547
      3100.26      0.58613318     0.042246489
      3103.36      0.58263845     0.041904785
      3106.47      0.59628298     0.041456889
      3109.58      0.61176690     0.041175202
      3112.68      0.60431344     0.041112952
      3115.80      0.60001356     0.040835284
      3118.91      0.57715924     0.040363325
      3122.03      0.55493171     0.039944600
      3125.15      0.54308407     0.039733158
      3128.28      0.53645213     0.039400890
      3131.41      0.53433310     0.039088936
      3134.54      0.52879255     0.038984649
      3137.67      0.51500719     0.039235738
      3140.81      0.54877411     0.039087275
      3143.95      0.54480880     0.039403616
      3147.10      0.53774257     0.039666918
      3150.24      0.52786812     0.039725745
      3153.39      0.53603624     0.039744967
      3156.55      0.53270393     0.039715143
      3159.70      0.52842977     0.039881784
      3162.86      0.53454543     0.039414518
      3166.03      0.54795673     0.039293183
      3169.19      0.54799664     0.039035894
      3172.36      0.56270733     0.038476494
      3175.54      0.56802488     0.037660291
      3178.71      0.57652424     0.037091136
      3181.89      0.59859558     0.036732311
      3185.07      0.61856146     0.036209192
      3188.26      0.60877333     0.035786634
      3191.45      0.58803176     0.035500588
      3194.64      0.58578655     0.034970929
      3197.83      0.57670307     0.035004514
      3201.03      0.57130399     0.034977215
      3204.23      0.56852667     0.035032131
      3207.44      0.56257053     0.035356946
      3210.64      0.57363820     0.035464284
      3213.85      0.59667708     0.035673927
      3217.07      0.61503375     0.035850875
      3220.28      0.60012437     0.036256730
      3223.51      0.62486612     0.036419270
      3226.73      0.64072299     0.036461294
      3229.96      0.65497545     0.036682285
      3233.19      0.68020235     0.036565204
      3236.42      0.68421218     0.036385789
      3239.66      0.70998718     0.036327008
      3242.90      0.72315530     0.035712543
      3246.14      0.74466361     0.035544074
      3249.39      0.75551100     0.035382052
      3252.64      0.74905048     0.034902306
      3255.89      0.74771356     0.034976681
      3259.14      0.71881831     0.034827909
      3262.40      0.68371734     0.034119618
      3265.67      0.69209126     0.033974964
      3268.93      0.67215959     0.033853803
      3272.20      0.65783226     0.033333167
      3275.47      0.65003389     0.033259401
      3278.75      0.65361805     0.033023778
      3282.03      0.66098397     0.032908864
      3285.31      0.67029320     0.033063456
      3288.60      0.65445317     0.033076886
      3291.88      0.65008966     0.033062807
      3295.18      0.62664132     0.033258990
      3298.47      0.63602251     0.033159723
      3301.77      0.64560046     0.033031535
      3305.07      0.64897524     0.032853262
      3308.38      0.65302715     0.032957839
      3311.69      0.66909720     0.033072746
      3315.00      0.64731909     0.032759567
      3318.31      0.64215353     0.032920577
      3321.63      0.64015804     0.032894436
      3324.95      0.64692893     0.032878778
      3328.28      0.65138578     0.033063029
      3331.61      0.66452825     0.032883079
      3334.94      0.66797800     0.032666760
      3338.27      0.68960139     0.032256023
      3341.61      0.69816596     0.031631536
      3344.95      0.72162466     0.031488806
      3348.30      0.75562641     0.030933755
      3351.65      0.76063265     0.030901808
      3355.00      0.77715829     0.030485894
      3358.35      0.78363245     0.030311773
      3361.71      0.80494729     0.030384967
      3365.07      0.83270912     0.030013912
      3368.44      0.84457891     0.029793067
      3371.81      0.84886466     0.029628206
      3375.18      0.83077408     0.029483313
      3378.56      0.83050625     0.029348699
      3381.94      0.84403082     0.029145895
      3385.32      0.82274348     0.028945433
      3388.70      0.81855265     0.028839667
      3392.09      0.81515028     0.028773332
      3395.48      0.78627468     0.028515800
      3398.88      0.79065504     0.028653050
      3402.28      0.79313539     0.028380444
      3405.68      0.80118941     0.028533615
      3409.09      0.81578561     0.028454334
      3412.49      0.82761744     0.028123493
      3415.91      0.82110079     0.028164475
      3419.32      0.83058368     0.027778954
      3422.74      0.83450432     0.027520629
      3426.17      0.83680407     0.027445481
      3429.59      0.84303061     0.026981414
      3433.02      0.84844616     0.026652194
      3436.45      0.84545914     0.026410031
      3439.89      0.84488673     0.026107215
      3443.33      0.85311257     0.025857783
      3446.78      0.85407558     0.025678627
      3450.22      0.83122750     0.025448527
      3453.67      0.83595590     0.025286193
      3457.13      0.86094688     0.025045694
      3460.58      0.87721097     0.025184510
      3464.04      0.93035100     0.025224500
      3467.51      0.95847235     0.025149992
      3470.98      0.99504855     0.025435739
      3474.45       1.0274689     0.025381079
      3477.92       1.0638054     0.025399990
      3481.40       1.0973144     0.025488285
      3484.88       1.1178202     0.025083899
      3488.37       1.1370288     0.024782252
      3491.86       1.1457063     0.024448974
      3495.35       1.1637219     0.024215472
      3498.84       1.1720010     0.023989215
      3502.34       1.1591662     0.023898496
      3505.84       1.1464479     0.023874746
      3509.35       1.1167294     0.023888987
      3512.86       1.0724814     0.023877648
      3516.37       1.0490335     0.023653100
      3519.89       1.0376357     0.023726200
      3523.41       1.0391316     0.023608725
      3526.93       1.0253239     0.023376738
      3530.46       1.0324837     0.023319974
      3533.99       1.0227355     0.023449940
      3537.53       1.0206027     0.023566009
      3541.06       1.0168282     0.023589414
      3544.60       1.0274081     0.023843285
      3548.15       1.0204431     0.024259184
      3551.70       1.0129027     0.024311646
      3555.25       1.0151645     0.024536708
      3558.80       1.0226082     0.024697367
      3562.36       1.0515363     0.024924467
      3565.92       1.0515815     0.024790493
      3569.49       1.0643079     0.024859737
      3573.06       1.0764808     0.024918404
      3576.64       1.0757193     0.024748042
      3580.21       1.0848693     0.024894771
      3583.79       1.1113789     0.024849441
      3587.38       1.1383740     0.024757402
      3590.96       1.1510380     0.024498057
      3594.55       1.1714984     0.024404448
      3598.15       1.1875985     0.024499476
      3601.75       1.1947982     0.024446392
      3605.35       1.1877588     0.024242832
      3608.96       1.1882041     0.024180930
      3612.56       1.1918605     0.024106714
      3616.18       1.1803604     0.024199670
      3619.79       1.1799797     0.023978270
      3623.41       1.1680117     0.023901379
      3627.04       1.1711564     0.023812409
      3630.66       1.1782065     0.023692852
      3634.29       1.1613258     0.023448026
      3637.93       1.1636152     0.023638333
      3641.57       1.1574291     0.023514060
      3645.21       1.1629755     0.023155779
      3648.86       1.1649007     0.023107748
      3652.50       1.1559894     0.023058175
      3656.16       1.1436092     0.023250022
      3659.81       1.1257431     0.023501846
      3663.47       1.1216809     0.023895013
      3667.14       1.1056566     0.024124857
      3670.80       1.1075833     0.024079376
      3674.48       1.0779480     0.024113983
      3678.15       1.0737377     0.024006633
      3681.83       1.0693352     0.023808504
      3685.51       1.0434854     0.023560551
      3689.20       1.0419599     0.023936111
      3692.88       1.0369209     0.024551123
      3696.58       1.0406614     0.023548438
      3700.27       1.0679857     0.022867033
      3703.98       1.0972263     0.023114939
      3707.68       1.1464143     0.023760561
      3711.39       1.1804101     0.024138961
      3715.10       1.2297220     0.024545917
      3718.81       1.2833074     0.024977118
      3722.53       1.3293799     0.025237457
      3726.26       1.3969948     0.025572914
      3729.98       1.4664084     0.025082376
      3733.71       1.5260673     0.024470758
      3737.45       1.5628043     0.023627796
      3741.18       1.5843982     0.022836618
      3744.93       1.5773414     0.022054937
      3748.67       1.5706495     0.021372794
      3752.42       1.5440561     0.020906307
      3756.17       1.5151828     0.020849645
      3759.93       1.4723725     0.022003504
      3763.69       1.4418971     0.021189131
      3767.45       1.4102270     0.020556811
      3771.22       1.3923978     0.020302442
      3774.99       1.3698831     0.020357978
      3778.77       1.3518946     0.020362638
      3782.54       1.3333889     0.020363681
      3786.33       1.3266897     0.020355529
      3790.11       1.3187190     0.020303152
      3793.90       1.3125367     0.020381031
      3797.70       1.3200366     0.020338466
      3801.50       1.3264645     0.020169826
      3805.30       1.3132099     0.020101465
      3809.10       1.3125563     0.019993732
      3812.91       1.3044286     0.019868678
      3816.73       1.3008910     0.019771779
      3820.54       1.2894826     0.019701545
      3824.36       1.2741585     0.019649634
      3828.19       1.2655066     0.019641324
      3832.02       1.2417745     0.019669005
      3835.85       1.2136356     0.019709598
      3839.68       1.2018733     0.019767103
      3843.52       1.2015646     0.019840675
      3847.37       1.1880295     0.019896276
      3851.22       1.1741170     0.019932613
      3855.07       1.1426403     0.019971233
      3858.92       1.0996694     0.019878751
      3862.78       1.0721111     0.019880166
      3866.64       1.0584653     0.019758150
      3870.51       1.0393688     0.019802308
      3874.38       1.0293725     0.019856905
      3878.26       1.0089799     0.019908203
      3882.13       1.0162334     0.019920888
      3886.02       1.0177700     0.019911041
      3889.90       1.0402802     0.019900323
      3893.79       1.0632915     0.019882612
      3897.69       1.1006355     0.019861616
      3901.59       1.1525784     0.019871671
      3905.49       1.2099833     0.019917981
      3909.39       1.2771500     0.019995924
      3913.30       1.3529465     0.020107122
      3917.22       1.4272831     0.020231713
      3921.13       1.4953602     0.020342073
      3925.06       1.5692114     0.020309503
      3928.98       1.6231000     0.020372678
      3932.91       1.6829054     0.020409025
      3936.84       1.7409600     0.020408442
      3940.78       1.7836640     0.020503012
      3944.72       1.8202359     0.020450585
      3948.67       1.8510167     0.020362874
      3952.61       1.8667976     0.020274732
      3956.57       1.8838285     0.020193400
      3960.52       1.8808358     0.020124359
      3964.48       1.8884565     0.019940331
      3968.45       1.8935453     0.019897128
      3972.42       1.8874145     0.019862979
      3976.39       1.8787391     0.019840636
      3980.37       1.8719850     0.019829093
      3984.35       1.8642285     0.019835147
      3988.33       1.8683455     0.019851479
      3992.32       1.8729882     0.019759537
      3996.31       1.8974091     0.019779428
      4000.31       1.8919973     0.024288728
      4004.31       1.9094162     0.024328912
      4008.31       1.9516500     0.024362842
      4012.32       2.0059347     0.024156246
      4016.33       2.0550473     0.024396081
      4020.35       2.0949283     0.024398490
      4024.37       2.1323892     0.024403141
      4028.40       2.1806222     0.024446586
      4032.42       2.2283246     0.024486330
      4036.46       2.2650462     0.024296479
      4040.50       2.2620569     0.024293060
      4044.54       2.2490703     0.024262681
      4048.58       2.2225240     0.024430497
      4052.63       2.1888690     0.024351307
      4056.68       2.1354667     0.024276116
      4060.74       2.0737557     0.024000212
      4064.80       1.9987026     0.023965419
      4068.86       1.9116647     0.023944413
      4072.93       1.8329834     0.023921227
      4077.01       1.7767461     0.023885864
      4081.08       1.7314492     0.023826440
      4085.17       1.6731282     0.023753094
      4089.25       1.5994335     0.023691769
      4093.34       1.5432231     0.023651573
      4097.43       1.4972136     0.023613915
      4101.53       1.4668078     0.023571550
      4105.63       1.4262462     0.023525697
      4109.74       1.4065456     0.023489184
      4113.85       1.3935498     0.023241598
      4117.96       1.3929320     0.023206437
      4122.08       1.4315677     0.023367392
      4126.20       1.4822231     0.023326634
      4130.33       1.5329032     0.023126323
      4134.46       1.5833020     0.023136996
      4138.59       1.6580050     0.023362582
      4142.73       1.7139316     0.023399445
      4146.88       1.7391645     0.023240304
      4151.02       1.7482356     0.023264967
      4155.18       1.7515082     0.023274212
      4159.33       1.7164535     0.023263470
      4163.49       1.6766728     0.023244632
      4167.65       1.6342238     0.023230338
      4171.82       1.5904926     0.023197061
      4175.99       1.5690467     0.023115947
      4180.17       1.5467049     0.023054325
      4184.35       1.5503886     0.023029161
      4188.54       1.5689777     0.022818622
      4192.72       1.5652049     0.023013226
      4196.92       1.5469947     0.023003625
      4201.11       1.5142321     0.022772608
      4205.31       1.5106016     0.022928944
      4209.52       1.4945012     0.022881456
      4213.73       1.4645058     0.022644873
      4217.94       1.4273270     0.022624325
      4222.16       1.3865868     0.022818113
      4226.38       1.3570140     0.022593108
      4230.61       1.3459807     0.022553139
      4234.84       1.3299715     0.022722861
      4239.08       1.3291043     0.022508264
      4243.32       1.3235186     0.022502740
      4247.56       1.3307051     0.022520327
      4251.81       1.3416319     0.022520864
      4256.06       1.3775824     0.022522849
      4260.32       1.4215829     0.022548606
      4264.58       1.4580910     0.022533650
      4268.84       1.4946811     0.022543287
      4273.11       1.5355390     0.022631509
      4277.38       1.5566457     0.022709475
      4281.66       1.5803103     0.022628089
      4285.94       1.6292410     0.022932800
      4290.23       1.6597085     0.023011344
      4294.52       1.6857219     0.022868252
      4298.81       1.6901904     0.023069553
      4303.11       1.7012503     0.022794642
      4307.42       1.6855964     0.022692422
      4311.72       1.6564004     0.022542289
      4316.04       1.6246830     0.022397333
      4320.35       1.5872477     0.022396106
      4324.67       1.5444038     0.022078246
      4329.00       1.5110592     0.022004774
      4333.33       1.4917099     0.021961886
      4337.66       1.5014940     0.021968279
      4342.00       1.5155122     0.022006549
      4346.34       1.5419978     0.022035580
      4350.69       1.5704632     0.021891045
      4355.04       1.6137077     0.022104289
      4359.39       1.6433053     0.021907337
      4363.75       1.6488492     0.022075593
      4368.12       1.6752689     0.021855570
      4372.48       1.6874116     0.022013435
      4376.86       1.7043453     0.021817754
      4381.23       1.7037791     0.021825880
      4385.61       1.6934332     0.021897792
      4390.00       1.6645410     0.021958667
      4394.39       1.6346306     0.022037554
      4398.79       1.6070273     0.022074202
      4403.18       1.5684718     0.022108120
      4407.59       1.5426538     0.022123479
      4412.00       1.5205682     0.022172842
      4416.41       1.4743078     0.022174598
      4420.82       1.4644949     0.022170317
      4425.25       1.4587173     0.022153392
      4429.67       1.4511572     0.022150535
      4434.10       1.4430253     0.022117119
      4438.54       1.4083405     0.022098266
      4442.97       1.4038590     0.021902437
      4447.42       1.3989683     0.022072965
      4451.86       1.3906677     0.021856975
      4456.32       1.3950809     0.021992740
      4460.77       1.3944255     0.021771223
      4465.24       1.4095270     0.021936325
      4469.70       1.3995565     0.021759103
      4474.17       1.4052203     0.021756765
      4478.65       1.4150591     0.021749366
      4483.12       1.4254693     0.021760424
      4487.61       1.4247155     0.021771925
      4492.09       1.4379791     0.021789494
      4496.59       1.4746426     0.021631823
      4501.08       1.5016226     0.021824455
      4505.58       1.5243693     0.021815587
      4510.09       1.5470667     0.021612730
      4514.60       1.5719610     0.021773409
      4519.12       1.5957874     0.021589278
      4523.63       1.6501151     0.021794552
      4528.16       1.7056122     0.021621685
      4532.69       1.7522015     0.021630203
      4537.22       1.7974176     0.021810496
      4541.76       1.8281661     0.021625980
      4546.30       1.8756910     0.021619578
      4550.85       1.8976526     0.021624399
      4555.40       1.9208177     0.021665970
      4559.95       1.9352795     0.021724745
      4564.51       1.9441737     0.021744378
      4569.08       1.9443529     0.021775080
      4573.65       1.9404952     0.021820745
      4578.22       1.9431223     0.021652951
      4582.80       1.9373193     0.021789227
      4587.38       1.9321074     0.021693068
      4591.97       1.9258205     0.021433264
      4596.56       1.9423688     0.021516825
      4601.16       1.9751203     0.021277973
      4605.76       2.0030053     0.021260573
      4610.37       2.0392935     0.021365550
      4614.98       2.0703889     0.021695878
      4619.59       2.0983397     0.021658013
      4624.21       2.1096550     0.021766952
      4628.84       2.1187222     0.021849897
      4633.47       2.0966159     0.021894872
      4638.10       2.0480686     0.021883491
      4642.74       1.9988783     0.021862891
      4647.38       1.9403994     0.021696031
      4652.03       1.8845978     0.021884359
      4656.68       1.8172658     0.021902878
      4661.34       1.7400026     0.021741824
      4666.00       1.6521211     0.021726536
      4670.67       1.5792825     0.021702701
      4675.33       1.5366068     0.021836382
      4680.01       1.4939916     0.021583752
      4684.69       1.4520977     0.021517991
      4689.38       1.4241117     0.021518404
      4694.07       1.3932766     0.021564399
      4698.76       1.3765009     0.021625765
      4703.46       1.3674551     0.021771763
      4708.16       1.3544770     0.021916880
      4712.87       1.3251049     0.022049738
      4717.58       1.3292658     0.022200476
      4722.30       1.3046616     0.022140471
      4727.03       1.2935255     0.022387762
      4731.75       1.2743178     0.022498898
      4736.48       1.2657383     0.022602007
      4741.22       1.2435466     0.022667468
      4745.96       1.2364633     0.022550644
      4750.71       1.2151006     0.022627340
      4755.46       1.2127478     0.022684820
      4760.22       1.1917490     0.022725116
      4764.97       1.1927130     0.022907913
      4769.74       1.1869446     0.022740136
      4774.51       1.1990711     0.022758443
      4779.29       1.2047568     0.022765614
      4784.07       1.1928545     0.022765134
      4788.85       1.1811896     0.022765119
      4793.64       1.1855875     0.022739951
      4798.43       1.1988966     0.022704100
      4803.23       1.2233309     0.022499756
      4808.03       1.2506918     0.022499310
      4812.84       1.2825479     0.022528647
      4817.66       1.3177554     0.022579669
      4822.48       1.3401980     0.022650985
      4827.30       1.3656914     0.022733977
      4832.12       1.3805687     0.022814053
      4836.96       1.3691041     0.022910850
      4841.79       1.3496284     0.023014988
      4846.63       1.3388287     0.022946662
      4851.48       1.3363878     0.023052538
      4856.33       1.3475572     0.023132325
      4861.19       1.3502185     0.023187126
      4866.05       1.3934064     0.023231819
      4870.92       1.4563840     0.023241081
      4875.79       1.5392379     0.023203760
      4880.66       1.5969354     0.023260267
      4885.55       1.6470580     0.023304153
      4890.43       1.6905650     0.023335250
      4895.32       1.7293601     0.023368830
      4900.22       1.7472716     0.023425293
      4905.12       1.7190430     0.023502359
      4910.02       1.6931971     0.023598726
      4914.94       1.6405735     0.023759053
      4919.85       1.5801438     0.023970961
      4924.77       1.5030317     0.024422690
      4929.70       1.4676871     0.025038376
      4934.62       1.4378013     0.025262771
      4939.56       1.4147164     0.025542785
      4944.50       1.3905420     0.026974538
      4949.44       1.4056630     0.028762511
      4954.39       1.4456990     0.030607816
      4959.35       1.4950888     0.031954895
      4964.31       1.6023345     0.032343375
      4969.27       1.6814304     0.031708526
      4974.24       1.7737845     0.030344843
      4979.22       1.8221567     0.028829826
      4984.20       1.8813731     0.027779809
      4989.18       1.9026470     0.027836257
      4994.17       1.9359764     0.028131934
      4999.16       1.9546131     0.027617927
      5004.16       1.9230289     0.026974467
      5009.17       1.8957496     0.026885349
      5014.18       1.8611558     0.026517384
      5019.19       1.8029262     0.026194808
      5024.21       1.7765139     0.025891964
      5029.23       1.7505917     0.026168501
      5034.26       1.6979400     0.026644796
      5039.30       1.6538177     0.026907847
      5044.34       1.5905221     0.026953272
      5049.39       1.5168773     0.026758504
      5054.43       1.4342008     0.026296618
      5059.49       1.4018672     0.025620715
      5064.55       1.3192317     0.024864726
      5069.61       1.2475114     0.024230354
      5074.68       1.1860752     0.023913489
      5079.76       1.1213395     0.023591831
      5084.84       1.0902846     0.023166089
      5089.92       1.0790240     0.022833322
      5095.01       1.0711322     0.022589760
      5100.11       1.0846841     0.022370475
      5105.21       1.1189941     0.022131070
      5110.31       1.1575256     0.021891709
      5115.42       1.2157829     0.021682599
      5120.54       1.3036271     0.021505975
      5125.66       1.3919244     0.021341076
      5130.79       1.4774820     0.021414446
      5135.92       1.5396999     0.021185600
      5141.05       1.5880150     0.020961764
      5146.20       1.6350435     0.021220838
      5151.34       1.6670913     0.021546491
      5156.49       1.6868205     0.021897581
      5161.65       1.6946652     0.022052234
      5166.81       1.6848519     0.021940201
      5171.98       1.6757128     0.021865113
      5177.15       1.6576394     0.021441595
      5182.33       1.6645250     0.020633665
      5187.51       1.6647846     0.020240269
      5192.70       1.6641593     0.020527209
      5197.89       1.6657313     0.021045928
      5203.09       1.6580422     0.021367925
      5208.29       1.6622187     0.021814441
      5213.50       1.6653070     0.021856382
      5218.72       1.6792696     0.021588081
      5223.93       1.6715325     0.021674873
      5229.16       1.6510265     0.022142887
      5234.39       1.6239530     0.022722780
      5239.62       1.6086005     0.023690468
      5244.86       1.6015838     0.023879211
      5250.11       1.6266879     0.023287930
      5255.36       1.6370962     0.022533826
      5260.61       1.6493540     0.021413810
      5265.87       1.6671673     0.020539914
      5271.14       1.6997680     0.020132069
      5276.41       1.7203672     0.020163796
      5281.69       1.7422754     0.019992436
      5286.97       1.7613904     0.019679972
      5292.26       1.7688938     0.019350026
      5297.55       1.7849597     0.019277880
      5302.85       1.8138721     0.015795241
      5308.15       1.8161826     0.015627475
      5313.46       1.8153515     0.015571934
      5318.77       1.8037620     0.015435036
      5324.09       1.7960488     0.015361827
      5329.42       1.7861198     0.015380053
      5334.75       1.7607865     0.015307519
      5340.08       1.7334585     0.015161399
      5345.42       1.7069348     0.015122979
      5350.77       1.6867349     0.015074949
      5356.12       1.6629923     0.015005436
      5361.48       1.6376854     0.014955797
      5366.83       1.6178771     0.014918211
      5372.20       1.6125253     0.014879690
      5377.58       1.6095217     0.014835199
      5382.95       1.6027071     0.014801101
      5388.34       1.6019513     0.014706826
      5393.72       1.5912512     0.014685392
      5399.12       1.5874572     0.014725963
      5404.52       1.5662110     0.014621601
      5409.92       1.5397190     0.014595008
      5415.33       1.5046266     0.014584170
      5420.75       1.4647545     0.014562594
      5426.17       1.4184310     0.014516126
      5431.60       1.3746571     0.014478931
      5437.03       1.3330341     0.014466621
      5442.47       1.2945423     0.014390890
      5447.91       1.2726991     0.014372026
      5453.36       1.2469413     0.014415833
      5458.81       1.2311645     0.014321135
      5464.27       1.2352841     0.014294677
      5469.73       1.2532565     0.014266568
      5475.20       1.2748655     0.014444560
      5480.68       1.3181267     0.014335314
      5486.16       1.3529981     0.014132665
      5491.65       1.3957300     0.014023179
      5497.14       1.4251354     0.014169064
      5502.64       1.4510012     0.014253935
      5508.14       1.4608538     0.014279046
      5513.65       1.4668922     0.014443006
      5519.16       1.4680396     0.014703320
      5524.68       1.4509996     0.014733605
      5530.20       1.4345709     0.014798290
      5535.73       1.4004677     0.014896461
      5541.27       1.3570612     0.014810330
      5546.81       1.3114068     0.014737153
      5552.36       1.2670750     0.014704261
      5557.91       1.2160893     0.014546882
      5563.47       1.1739622     0.014266322
      5569.04       1.1366515     0.014084123
      5574.60       1.1003703     0.014237373
      5580.18       1.0704254     0.014436877
      5585.76       1.0469720     0.014543233
      5591.35       1.0175746     0.014392199
      5596.94      0.98948453     0.014448664
      5602.53      0.96340962     0.014513416
      5608.14      0.94054574     0.014486814
      5613.75      0.91562358     0.014298441
      5619.36      0.88481029     0.013979916
      5624.98      0.86893523     0.013774718
      5630.60      0.84626765     0.013483229
      5636.23      0.82919410     0.013293043
      5641.87      0.81102153     0.013055464
      5647.51      0.78979456     0.012936290
      5653.16      0.77978394     0.012873016
      5658.82      0.76630551     0.012913721
      5664.47      0.74888448     0.012783536
      5670.14      0.73258023     0.012556197
      5675.81      0.71317091     0.012307164
      5681.48      0.69539736     0.012227362
      5687.17      0.68214341     0.012021994
      5692.85      0.66802752     0.011904723
      5698.55      0.65204494     0.011717999
      5704.25      0.63620715     0.011630894
      5709.95      0.62438957     0.011545511
      5715.66      0.61465613     0.011530710
      5721.38      0.60476436     0.011517503
      5727.10      0.59215589     0.011525547
      5732.83      0.59189067     0.011597178
      5738.56      0.58343051     0.011618328
      5744.30      0.58276239     0.011631082
      5750.04      0.57217079     0.011670415
      5755.79      0.56028941     0.011740724
      5761.55      0.55418728     0.011739566
      5767.31      0.54328906     0.011745605
      5773.08      0.51973832     0.011746931
      5778.85      0.50438962     0.011743774
      5784.63      0.49159424     0.011743537
      5790.41      0.47898828     0.011708909
      5796.21      0.47419233     0.011691603
      5802.00      0.47437971     0.011682768
      5807.81      0.47492776     0.011792178
      5813.61      0.48683602     0.011818264
      5819.43      0.49790533     0.011912415
      5825.25      0.52886474     0.011937805
      5831.07      0.55438876     0.011887784
      5836.90      0.58272705     0.011984001
      5842.74      0.61473139     0.011894654
      5848.58      0.64496135     0.011760123
      5854.43      0.67829952     0.011623165
      5860.29      0.70028095     0.011462046
      5866.15      0.73165831     0.011269660
      5872.01      0.75617930     0.011176948
      5877.89      0.78010997     0.010984634
      5883.76      0.79202266     0.010864201
      5889.65      0.80987418     0.010849440
      5895.54      0.82266663     0.010806285
      5901.43      0.83566945     0.010731412
      5907.34      0.84592324     0.010611545
      5913.24      0.85497335     0.010582641
      5919.16      0.86246479     0.010587054
      5925.08      0.86775971     0.010607739
      5931.00      0.87291960     0.010685342
      5936.93      0.88939144     0.010717278
      5942.87      0.89189354     0.010823404
      5948.81      0.89381763     0.010899762
      5954.76      0.89737008     0.010889466
      5960.72      0.89502579     0.010890035
      5966.68      0.89129111     0.010885828
      5972.64      0.88029835     0.010734722
      5978.62      0.87655718     0.010597144
      5984.60      0.86376962     0.010404225
      5990.58      0.85105193     0.010288640
      5996.57      0.83869848     0.010128136
      6002.57      0.82965570    0.0099753668
      6008.57      0.81182857    0.0099081779
      6014.58      0.79607919    0.0098952159
      6020.60      0.78634395    0.0098573164
      6026.62      0.77989079    0.0097920686
      6032.65      0.77322692    0.0097081879
      6038.68      0.77160380    0.0096525779
      6044.72      0.77476957    0.0096854753
      6050.76      0.78480141    0.0098290375
      6056.81      0.79306349    0.0099352534
      6062.87      0.80384544    0.0099476064
      6068.93      0.82149872     0.010070237
      6075.00      0.83856351     0.010226495
      6081.08      0.86275189     0.010410734
      6087.16      0.88407618     0.010494632
      6093.25      0.91620575     0.010613527
      6099.34      0.93523835     0.010878119
      6105.44      0.96119297     0.010828042
      6111.54      0.98907797     0.010666725
      6117.66       1.0078645     0.010724347
      6123.78       1.0137883     0.010798205
      6129.90       1.0200352     0.010885131
      6136.03       1.0155585     0.010919517
      6142.17       1.0101546     0.010965108
      6148.31       1.0025248     0.010948587
      6154.46      0.99321079     0.010906727
      6160.61      0.98489734     0.010824151
      6166.77      0.98483521     0.010784724
      6172.94      0.98926493     0.010939302
      6179.11       1.0121609     0.010590121
      6185.29       1.0387587     0.010325414
      6191.48       1.0728244     0.010161551
      6197.67       1.1128935     0.010040763
      6203.87       1.1474405    0.0099992624
      6210.07       1.1879341    0.0099979825
      6216.28       1.2276021     0.010101828
      6222.50       1.2574490    0.0099518339
      6228.72       1.2743261    0.0098318076
      6234.95       1.2853133    0.0097918354
      6241.19       1.2847000    0.0096857745
      6247.42       1.2788013    0.0095763454
      6253.67       1.2635428    0.0094083853
      6259.93       1.2386162    0.0092987595
      6266.19       1.2178363    0.0092135836
      6272.46       1.1919073    0.0091232171
      6278.73       1.1692575    0.0090279131
      6285.01       1.1539288    0.0090122399
      6291.29       1.1425441    0.0090266400
      6297.58       1.1395642    0.0089030491
      6303.88       1.1442852    0.0087844317
      6310.19       1.1567646    0.0087008825
      6316.50       1.1691917    0.0086597652
      6322.81       1.1766537    0.0086398304
      6329.14       1.1893077    0.0086149114
      6335.47       1.2087190    0.0086027323
      6341.80       1.2178082    0.0085839353
      6348.14       1.2284366    0.0086057510
      6354.49       1.2449798    0.0086284323
      6360.85       1.2617943    0.0086536390
      6367.21       1.2724079    0.0086849038
      6373.57       1.2795316    0.0086946831
      6379.95       1.2830661    0.0087584599
      6386.33       1.2928622    0.0088190122
      6392.72       1.2945094    0.0086939954
      6399.11       1.2971123    0.0087374831
      6405.51       1.3075540    0.0086894196
      6411.92       1.3141738    0.0088175421
      6418.32       1.3230190    0.0090136385
      6424.74       1.3253595    0.0092251387
      6431.17       1.3242025    0.0095282059
      6437.60       1.3159499    0.0099512006
      6444.04       1.3102380     0.010405656
      6450.48       1.3052266     0.010864398
      6456.94       1.2955741     0.011138804
      6463.39       1.2808078     0.011362336
      6469.85       1.2732152     0.011513320
      6476.33       1.2675240     0.011408032
      6482.80       1.2512336     0.011217080
      6489.28       1.2277003     0.011036616
      6495.77       1.2004956     0.010958972
      6502.27       1.1689939     0.010977950
      6508.77       1.1307530     0.010894806
      6515.28       1.0942439     0.010767469
      6521.80       1.0629749     0.010754116
      6528.32       1.0314207     0.010818091
      6534.85      0.99490649     0.010762315
      6541.38      0.95621115     0.010738958
      6547.92      0.92073096     0.010625481
      6554.47      0.88224380     0.010455846
      6561.03      0.85219474     0.010287916
      6567.59      0.82779184     0.010002002
      6574.16      0.80191602    0.0098070034
      6580.73      0.78314966    0.0095388162
      6587.31      0.76288671    0.0093746245
      6593.90      0.74387023    0.0092053260
      6600.50      0.72640791    0.0089373370
      6607.10      0.70812087    0.0087568133
      6613.70      0.69086536    0.0087063837
      6620.32      0.67271513    0.0087581893
      6626.94      0.65602746    0.0087952762
      6633.57      0.64397264    0.0088606762
      6640.20      0.63374576    0.0090534568
      6646.84      0.62628416    0.0091894159
      6653.49      0.62010817    0.0093702553
      6660.14      0.61315146    0.0096943081
      6666.80      0.60801054     0.010091412
      6673.47      0.60349016     0.010554851
      6680.14      0.59794182     0.010856354
      6686.82      0.59624865     0.011007166
      6693.51      0.59788872     0.010897167
      6700.20      0.59502185     0.010909750
      6706.90      0.59396272     0.010522466
      6713.61      0.57628306     0.010079268
      6720.32      0.56086600    0.0097898773
      6727.05      0.54596601    0.0095030409
      6733.77      0.52971105    0.0093120695
      6740.51      0.51462301    0.0092657833
      6747.25      0.49959621    0.0092995381
      6754.00      0.48126149    0.0095248151
      6760.75      0.46771705    0.0097803835
      6767.51      0.46081657    0.0098477156
      6774.28      0.45616688    0.0097058464
      6781.05      0.45775628    0.0095199861
      6787.84      0.45960359    0.0094499015
      6794.62      0.46440337    0.0093486324
      6801.42      0.46411462    0.0093165505
      6808.22      0.46643826    0.0089526692
      6815.03      0.46614683    0.0086243646
      6821.85      0.47565255    0.0084952302
      6828.67      0.48035419    0.0086240384
      6835.50      0.48296814    0.0087366443
      6842.33      0.48442772    0.0087816690
      6849.17      0.48505413    0.0089583546
      6856.02      0.48648979    0.0092016650
      6862.88      0.48628549    0.0094466273
      6869.74      0.48595366    0.0097381373
      6876.61      0.48188010    0.0099260213
      6883.49      0.48133119     0.010147535
      6890.37      0.48779837     0.010247565
      6897.27      0.49760830     0.010288531
      6904.16      0.50740064     0.010209985
      6911.07      0.51560850     0.010195484
      6917.98      0.52832817     0.010258237
      6924.89      0.54011989     0.010415363
      6931.82      0.55033407     0.010485885
      6938.75      0.56200550     0.010313506
      6945.69      0.57444617     0.010143477
      6952.64      0.59012049     0.010132028
      6959.59      0.60253739     0.010212501
      6966.55      0.62085859     0.010481010
      6973.52      0.62897014     0.010588262
      6980.49      0.63264659     0.010589800
      6987.47      0.62699110     0.010634765
      6994.46      0.62274039     0.010628391
      7001.46      0.62420499     0.010907071
      7008.46      0.62097056     0.010694528
      7015.46      0.62340167     0.010676142
      7022.48      0.62107082     0.010838071
      7029.51      0.62168597     0.010743037
      7036.53      0.62391480     0.010608369
      7043.57      0.62661838     0.010697629
      7050.62      0.63249977     0.010782088
      7057.66      0.64230200     0.010735954
      7064.72      0.65047373     0.010802519
      7071.79      0.65380933     0.010897115
      7078.86      0.66605804     0.010709448
      7085.94      0.67658620     0.010459531
      7093.03      0.68699844     0.010182788
      7100.12      0.69251283    0.0099549936
      7107.22      0.70564956    0.0098809348
      7114.33      0.71651671    0.0096862616
      7121.44      0.72655584    0.0093779039
      7128.56      0.74519031    0.0091629232
      7135.69      0.76397451    0.0091315641
      7142.83      0.77700171    0.0088273660
      7149.97      0.79105093    0.0085889567
      7157.12      0.79707894    0.0084498275
      7164.28      0.80533225    0.0082862209
      7171.44      0.80601731    0.0081922125
      7178.62      0.81104521    0.0080997385
      7185.80      0.81979892    0.0079540481
      7192.98      0.85493041    0.0077834930
      7200.17      0.89438545    0.0078661613
      7207.38      0.93669620    0.0080747569
      7214.58       1.0043980    0.0080135795
      7221.80       1.0738450    0.0080028352
      7229.02       1.1518299    0.0077027250
      7236.25       1.2355247    0.0078589239
      7243.49       1.3312836    0.0083493630
      7250.73       1.4287435    0.0089369546
      7257.98       1.5379631    0.0097717711
      7265.24       1.6624089     0.011339111
      7272.51       1.7990996     0.011193323
      7279.78       1.8970306     0.011590005
      7287.06       1.9798338     0.013662989
      7294.35       2.0455070     0.015255488
      7301.64       2.0895507     0.015953553
      7308.94       2.0980361     0.012995930
      7316.25       2.0807250     0.013574082
      7323.57       2.0365172     0.014534201
      7330.89       1.9906781     0.018191535
      7338.22       1.8888655     0.017601031
      7345.56       1.7551250     0.017260585
      7352.91       1.6857394     0.015518907
      7360.26       1.5810145     0.015090381
      7367.62       1.4840375     0.013194005
      7374.99       1.3977178     0.012419727
      7382.37       1.3155966     0.012221986
      7389.75       1.2430352     0.011190603
      7397.14       1.1829713     0.010141702
      7404.53       1.1435434     0.011038790
      7411.94       1.1050809     0.010816408
      7419.35       1.0686369     0.010987128
      7426.77       1.0372424     0.011626393
      7434.20      0.99968829     0.011573329
      7441.63      0.97828325     0.011505074
      7449.07      0.95282237     0.011328612
      7456.52      0.91999579     0.011361801
      7463.98      0.89619762     0.011045585
      7471.45      0.89363708     0.011752908
      7478.92      0.87037021     0.011976129
      7486.40      0.84687753     0.012302745
      7493.88      0.82055241     0.012317267
      7501.38      0.79866641     0.012407810
      7508.88      0.77778533     0.012657821
      7516.39      0.74609972     0.012378678
      7523.91      0.72154769     0.012058624
      7531.43      0.68604669     0.010655635
      7538.96      0.65861460     0.010180366
      7546.50      0.63278357    0.0099012120
      7554.05      0.61641311    0.0096758796
      7561.60      0.60016086    0.0093286919
      7569.16      0.58540091    0.0089505942
      7576.73      0.57186315    0.0087293931
      7584.31      0.56731444    0.0086155856
      7591.89      0.56652397    0.0083431698
      7599.49      0.57558337    0.0081667134
      7607.09      0.57400409    0.0081683636
      7614.70      0.57599241    0.0081898830
      7622.31      0.56864841    0.0081637441
      7629.93      0.57068785    0.0081050457
      7637.56      0.57615683    0.0080761099
      7645.20      0.57816839    0.0082848348
      7652.85      0.59306474    0.0088509516
      7660.50      0.60838022    0.0095202190
      7668.16      0.63646612     0.010172190
      7675.83      0.68838399     0.011054908
      7683.50      0.75202467     0.011908619
      7691.19      0.83478405     0.012607073
      7698.88      0.91085043     0.012956382
      7706.58      0.97471333     0.012660401
      7714.29       1.0546360     0.012189043
      7722.00       1.1274361     0.011709918
      7729.73       1.1976915     0.011805069
      7737.45       1.2691356     0.010728302
      7745.19       1.3175818     0.010874925
      7752.94       1.3703529     0.011571916
      7760.69       1.4310710     0.012407167
      7768.45       1.4576200     0.013366753
      7776.22       1.4660699     0.014245408
      7784.00       1.4355066     0.014251752
      7791.78       1.4030888     0.014302483
      7799.57       1.3495002     0.014460518
      7807.37       1.2894250     0.013901689
      7815.18       1.2283638     0.012421873
      7822.99       1.1751096     0.011482977
      7830.82       1.1410189     0.011247494
      7838.65       1.1147707     0.011380142
      7846.49       1.1158368     0.012530696
      7854.34       1.1325717     0.012686178
      7862.19       1.1592287     0.012415862
      7870.05       1.1631383     0.011549273
      7877.93       1.1631092     0.010942363
      7885.80       1.1468119     0.010445426
      7893.69       1.1264616     0.011139750
      7901.58       1.0832889     0.010646767
      7909.49       1.0387602     0.011172274
      7917.40      0.98818433     0.011061484
      7925.31      0.92967601     0.011077607
      7933.24      0.85603037     0.010631304
      7941.17      0.80202050     0.010621090
      7949.11      0.76626756     0.010515857
      7957.06      0.73574031     0.010546071
      7965.02      0.70597642    0.0099585215
      7972.98      0.67947147    0.0095950737
      7980.96      0.65017036    0.0094947738
      7988.94      0.62518854    0.0095495488
      7996.93      0.60553180    0.0091989759
      8004.93      0.59186413    0.0089087338
      8012.93      0.58199425    0.0085185725
      8020.95      0.57468099    0.0083691627
      8028.97      0.55840571    0.0081209677
      8036.99      0.54652819    0.0079679818
      8045.03      0.53499378    0.0079640981
      8053.08      0.52798136    0.0081145828
      8061.13      0.51486597    0.0079292357
      8069.20      0.50752802    0.0078142891
      8077.26      0.49667555    0.0077023346
      8085.34      0.48489758    0.0075572571
      8093.43      0.48119812    0.0077199998
      8101.52      0.48465922    0.0079121139
      8109.62      0.48848906    0.0079010761
      8117.73      0.49271698    0.0078989478
      8125.85      0.49371781    0.0078343324
      8133.98      0.49254788    0.0077710463
      8142.11      0.49688552    0.0076112235
      8150.25      0.50890225    0.0074416104
      8158.41      0.52532604    0.0071862455
      8166.56      0.54015149    0.0069524867
      8174.73      0.56480664    0.0067802236
      8182.91      0.59783252    0.0067805423
      8191.09      0.62883237    0.0068508099
      8199.28      0.66841797    0.0071320486
      8207.48      0.70132452    0.0072060146
      8215.69      0.71605523    0.0072957202
      8223.91      0.71426959    0.0072074792
      8232.13      0.71231956    0.0072496078
      8240.36      0.69545371    0.0071081219
      8248.60      0.67261178    0.0069652464
      8256.85      0.63697491    0.0072360801
      8265.11      0.59612164    0.0080208140
      8273.37      0.54959287    0.0090032949
      8281.65      0.51499265     0.010033053
      8289.93      0.47376668     0.011380538
      8298.22      0.44551379     0.012156635
      8306.52      0.40013604     0.011686341
      8314.83      0.37964280     0.011640634
      8323.14      0.38153725     0.010974130
      8331.46      0.39331044     0.010744574
      8339.80      0.43913456     0.010662905
      8348.13      0.47739192     0.010985440
      8356.48      0.50991412     0.010409564
      8364.84      0.54988298     0.010567167
      8373.21      0.57575983     0.010301939
      8381.58      0.61104496     0.010601688
      8389.96      0.62716901     0.011008722
      8398.35      0.65524042     0.011999512
      8406.75      0.70039593     0.011884245
      8415.16      0.76123851     0.011933830
      8423.57      0.83767679     0.012355120
      8432.00      0.97266075     0.011615837
      8440.43       1.1001986     0.011776513
      8448.87       1.2411954     0.011898288
      8457.32       1.3928484     0.012794740
      8465.78       1.5249761     0.013540470
      8474.25       1.6782813     0.014509488
      8482.72       1.7797878     0.015511506
      8491.20       1.8760134     0.017615459
      8499.69       1.9018012     0.018362986
      8508.19       1.9009808     0.020679393
      8516.70       1.8376607     0.020718427
      8525.22       1.7506218     0.028788851
      8533.75       1.8235859     0.012049186
      8542.28       1.7887089     0.013165073
      8550.82       1.7725301     0.013853685
      8559.37       1.7343591     0.016240023
      8567.93       1.7657778     0.013106623
      8576.50       1.8024506     0.012134380
      8585.08       1.8364037     0.012062364
      8593.66       1.8553493     0.011870737
      8602.26       1.8801547     0.019685463
      8610.86       1.9502544     0.018940258
      8619.47       2.0064881     0.019033874
      8628.09       2.0118920     0.019869251
      8636.72       1.9994412     0.018183725
      8645.36       1.9503673     0.016147662
      8654.00       1.9064208     0.014543183
      8662.66       1.8386928     0.013196414
      8671.32       1.7574098     0.011361446
      8679.99       1.6692132     0.010559227
      8688.67       1.5813449     0.010139677
      8697.36       1.4861227     0.010784897
      8706.06       1.4002462     0.010773176
      8714.76       1.3185285     0.011248927
      8723.48       1.2392035     0.011336437
      8732.21       1.1679452     0.011584062
      8740.93       1.1135744     0.010949401
      8749.68       1.0692370     0.010730683
      8758.43       1.0309416     0.010496831
      8767.19       1.0053358     0.011428767
      8775.96      0.98681897     0.011649955
      8784.73      0.95845025     0.012060907
      8793.52      0.92827348     0.012797968
      8802.31      0.88167692     0.013257686
      8811.11      0.78547705    0.0090178952
      8819.92      0.75574957    0.0092638509
      8828.75      0.72739989    0.0096664682
      8837.57      0.71056584     0.010363897
      8846.41      0.68526294     0.010661610
      8855.26      0.66043279     0.010571857
      8864.12      0.63802915     0.010581367
      8872.98      0.61889500     0.010664132
      8881.85      0.59429646     0.010678350
      8890.73      0.57056780     0.010723823
      8899.63      0.54774869     0.010912638
      8908.52      0.52700639     0.010970122
      8917.43      0.51126002     0.011005418
      8926.35      0.49712766     0.011253289
      8935.28      0.49028517     0.011151160
      8944.22      0.48261616     0.011226340
      8953.16      0.48109004     0.011395516
      8962.11      0.48063715     0.011437772
      8971.08      0.49591032     0.011886498
      8980.05      0.48956613     0.012100169
      8989.03      0.48183655     0.012445456
      8998.02      0.47310872     0.013109642
      9007.02      0.46835887     0.013494028
      9016.02      0.46713786     0.013650173
      9025.04      0.46428976     0.013819288
      9034.07      0.46079513     0.014052226
      9043.10      0.45802559     0.014373825
      9052.14      0.45437498     0.014903792
      9061.20      0.44296546     0.016037970
      9070.26      0.44819571     0.017308737
      9079.33      0.44356475     0.018456788
      9088.41      0.44321179     0.019440796
      9097.50      0.44091515     0.020642558
      9106.60      0.44597513     0.022875660
      9115.70      0.44824281     0.025609589
      9124.82      0.44924799     0.030259452
      9133.94      0.45066174     0.035407171
      9143.08      0.44899846     0.041765371
      9152.22      0.44762307     0.050246521
      9161.37      0.45285424     0.058269432
