# starting wavelength =        2566.2263
# ending wavelength =        7559.7911
# O2 telluric scale =        0
# O2 telluric shift =        0
# H2O telluric scale =        0
# H2O telluric shift =        0
      2566.58      0.14315614      0.12826382
      2569.14      0.18991521      0.12265935
      2571.71      0.20994858      0.11734302
      2574.28      0.12019323      0.11281906
      2576.86      0.11433585      0.10923157
      2579.44     0.085663654      0.10593246
      2582.01     0.075124168      0.10127759
      2584.60     0.061421718     0.097588061
      2587.18     0.085911709     0.094287913
      2589.77      0.13217065     0.091711745
      2592.36     0.083597279     0.089533013
      2594.95     0.071838520     0.089257127
      2597.55     0.090639830     0.090032190
      2600.14      0.17128551     0.085525936
      2602.74      0.15218972     0.083666776
      2605.35      0.18446420     0.082326597
      2607.95      0.23887893     0.081968013
      2610.56      0.25138820     0.081949856
      2613.17      0.24281592     0.082280859
      2615.79      0.24310994     0.081705372
      2618.40      0.24167559     0.081453529
      2621.02      0.24070813     0.080918584
      2623.64      0.22225909     0.079765882
      2626.26      0.23679031     0.078352316
      2628.89      0.28208111     0.076524707
      2631.52      0.31061129     0.074199565
      2634.15      0.31532894     0.071893979
      2636.79      0.29909128     0.069541081
      2639.42      0.30232067     0.066403306
      2642.06      0.32359980     0.064161669
      2644.70      0.33271033     0.062178506
      2647.35      0.36546524     0.060609323
      2650.00      0.38720080     0.058109014
      2652.65      0.42116618     0.055964488
      2655.30      0.44869484     0.054541202
      2657.96      0.48304123     0.053429817
      2660.61      0.50171165     0.053256873
      2663.27      0.56081145     0.053682187
      2665.94      0.58487608     0.052663152
      2668.60      0.58510776     0.051858591
      2671.27      0.60515835     0.051521366
      2673.94      0.63637342     0.051204626
      2676.62      0.65446589     0.050414693
      2679.29      0.64573596     0.050057773
      2681.97      0.66797981     0.049788674
      2684.66      0.69460096     0.049294139
      2687.34      0.67556766     0.048562081
      2690.03      0.69989636     0.047403665
      2692.72      0.68548592     0.045642004
      2695.41      0.70349147     0.044376321
      2698.11      0.69271287     0.043109178
      2700.81      0.70235348     0.041835395
      2703.51      0.69180579     0.040853341
      2706.21      0.70478680     0.039696499
      2708.92      0.70810956     0.038760077
      2711.62      0.72150349     0.037956565
      2714.34      0.76023457     0.037120606
      2717.05      0.79192618     0.036390198
      2719.77      0.80031102     0.035704090
      2722.49      0.81765179     0.035524369
      2725.21      0.80779356     0.035495493
      2727.94      0.81319651     0.035580661
      2730.66      0.81040583     0.035914516
      2733.39      0.81687192     0.036641048
      2736.13      0.82472285     0.035926052
      2738.86      0.81793580     0.035020753
      2741.60      0.81729031     0.034425572
      2744.34      0.81392019     0.034118314
      2747.09      0.82669143     0.033483072
      2749.84      0.83375970     0.033271294
      2752.59      0.84916765     0.032931307
      2755.34      0.86724253     0.032532937
      2758.09      0.87841167     0.031953765
      2760.85      0.89727180     0.031643515
      2763.61      0.91414845     0.031327817
      2766.38      0.93075130     0.031239422
      2769.14      0.96459928     0.031139494
      2771.91      0.99485082     0.031307782
      2774.69       1.0217475     0.031528181
      2777.46       1.0565702     0.031404769
      2780.24       1.1008741     0.030876118
      2783.02       1.1419385     0.030415952
      2785.80       1.1797384     0.029961917
      2788.59       1.2034231     0.029555509
      2791.38       1.2082380     0.028969185
      2794.17       1.2229931     0.028896128
      2796.96       1.2374865     0.028717133
      2799.76       1.2616104     0.028297479
      2802.56       1.2650497     0.028200875
      2805.36       1.2680419     0.028037473
      2808.17       1.2659812     0.027266016
      2810.98       1.2649581     0.026804896
      2813.79       1.2618922     0.026605371
      2816.60       1.2574716     0.026505226
      2819.42       1.2372560     0.026267560
      2822.24       1.2467586     0.026248184
      2825.06       1.2354132     0.026077180
      2827.88       1.2256283     0.025623910
      2830.71       1.2190524     0.025330530
      2833.54       1.2124281     0.025062029
      2836.38       1.1949115     0.024661950
      2839.21       1.2083905     0.023982104
      2842.05       1.2273377     0.023586703
      2844.90       1.2312098     0.023342115
      2847.74       1.2398328     0.022612573
      2850.59       1.2434911     0.021964239
      2853.44       1.2538789     0.021355386
      2856.29       1.2673546     0.020648852
      2859.15       1.2800070     0.020214694
      2862.01       1.2975932     0.019929321
      2864.87       1.3062592     0.019903673
      2867.74       1.3238048     0.020108660
      2870.60       1.3331886     0.020260253
      2873.47       1.3296169     0.020510448
      2876.35       1.3327968     0.020954352
      2879.22       1.3181055     0.021056529
      2882.10       1.3145267     0.021288249
      2884.99       1.3039050     0.021610231
      2887.87       1.2897996     0.022327392
      2890.76       1.2596349     0.021651504
      2893.65       1.2540660     0.021191887
      2896.54       1.2474419     0.020675035
      2899.44       1.2296958     0.020406122
      2902.34       1.2125481     0.020065884
      2905.24       1.2041487     0.019807192
      2908.15       1.2088954     0.019441226
      2911.06       1.2228501     0.018924759
      2913.97       1.2349348     0.018640196
      2916.88       1.2414801     0.018354959
      2919.80       1.2517643     0.018217793
      2922.72       1.2584023     0.018162462
      2925.64       1.2637569     0.018133454
      2928.57       1.2767471     0.018210209
      2931.50       1.2894762     0.018439255
      2934.43       1.2915304     0.018440084
      2937.36       1.2905392     0.018384150
      2940.30       1.2813438     0.018547882
      2943.24       1.2772786     0.018724984
      2946.18       1.2624129     0.018880772
      2949.13       1.2485683     0.019351047
      2952.08       1.2379895     0.019650053
      2955.03       1.2131978     0.020064877
      2957.99       1.2105937     0.020958473
      2960.94       1.2042252     0.021491361
      2963.90       1.1975225     0.021415222
      2966.87       1.1899420     0.020858578
      2969.84       1.1768858     0.020617201
      2972.81       1.1516999     0.020182575
      2975.78       1.1386393     0.019690770
      2978.76       1.1260565     0.018862642
      2981.73       1.1344459     0.018134128
      2984.72       1.1401355     0.017274091
      2987.70       1.1445418     0.016697596
      2990.69       1.1588795     0.016072293
      2993.68       1.1668427     0.015724447
      2996.67       1.1764909     0.015477790
      2999.67       1.1778243     0.015255296
      3002.67       1.1821865     0.015262703
      3005.67       1.1791674     0.015497499
      3008.68       1.1819191     0.015549772
      3011.69       1.1764446     0.015484794
      3014.70       1.1761790     0.015451195
      3017.71       1.1759975     0.015484320
      3020.73       1.1677664     0.015382643
      3023.75       1.1737934     0.015165738
      3026.78       1.1759239     0.015197160
      3029.80       1.1937382     0.015051588
      3032.83       1.1973833     0.015021382
      3035.87       1.1980667     0.014790256
      3038.90       1.1964054     0.014599383
      3041.94       1.1940021     0.014462938
      3044.98       1.1925128     0.014235078
      3048.03       1.1954254     0.014164366
      3051.08       1.1986025     0.013882114
      3054.13       1.2114288     0.013772468
      3057.18       1.2321759     0.013485515
      3060.24       1.2525582     0.013365286
      3063.30       1.2682475     0.013130470
      3066.36       1.2841672     0.013037861
      3069.43       1.2931658     0.012826973
      3072.50       1.3032513     0.012793492
      3075.57       1.3071411     0.012695405
      3078.65       1.3075298     0.012625156
      3081.73       1.3140314     0.012564294
      3084.81       1.3200490     0.012475771
      3087.89       1.3265569     0.012424402
      3090.98       1.3234528     0.012402150
      3094.07       1.3182358     0.012408436
      3097.17       1.3154743     0.012425245
      3100.26       1.3159268     0.012395098
      3103.36       1.3169440     0.012514226
      3106.47       1.3097177     0.012495207
      3109.58       1.3027103     0.012623735
      3112.68       1.2955025     0.012577294
      3115.80       1.2876586     0.012523441
      3118.91       1.2752248     0.012460607
      3122.03       1.2773101     0.012352254
      3125.15       1.2778306     0.012259612
      3128.28       1.2794930     0.012106216
      3131.41       1.2920167     0.011879393
      3134.54       1.2975884     0.011799670
      3137.67       1.3058228     0.011632463
      3140.81       1.3093422     0.011484442
      3143.95       1.3062390     0.011307436
      3147.10       1.3153491     0.011044491
      3150.24       1.3154221     0.010953690
      3153.39       1.3202234     0.010847498
      3156.55       1.3257321     0.010891273
      3159.70       1.3295156     0.010933307
      3162.86       1.3297458     0.011012360
      3166.03       1.3314762     0.011072330
      3169.19       1.3313578     0.011226506
      3172.36       1.3301322     0.011226585
      3175.54       1.3240268     0.011311913
      3178.71       1.3299969     0.011453826
      3181.89       1.3302165     0.011481282
      3185.07       1.3200219     0.011496355
      3188.26       1.3184865     0.011498560
      3191.45       1.3128636     0.011534551
      3194.64       1.2962823     0.011498513
      3197.83       1.2843652     0.011432522
      3201.03       1.2713913     0.011325958
      3204.23       1.2650992     0.011161573
      3207.44       1.2579752     0.011078215
      3210.64       1.2483768     0.011078375
      3213.85       1.2457791     0.011011133
      3217.07       1.2337298     0.011297955
      3220.28       1.2205418     0.011141587
      3223.51       1.2102044     0.010945140
      3226.73       1.2071298     0.010881273
      3229.96       1.2060511     0.010920700
      3233.19       1.1940055     0.010948133
      3236.42       1.1926178     0.011008603
      3239.66       1.1918165     0.011104807
      3242.90       1.1902402     0.011331282
      3246.14       1.1761739     0.011638775
      3249.39       1.1759617     0.012009828
      3252.64       1.1841605     0.012247302
      3255.89       1.1926153     0.012495435
      3259.14       1.1948716     0.012669805
      3262.40       1.1996386     0.012949264
      3265.67       1.1923059     0.013166806
      3268.93       1.1915569     0.013271874
      3272.20       1.1942402     0.013497107
      3275.47       1.1911315     0.013713627
      3278.75       1.1925086     0.013658512
      3282.03       1.1909838     0.013716741
      3285.31       1.1918692     0.013620014
      3288.60       1.1999113     0.013483129
      3291.88       1.2117731     0.013454744
      3295.18       1.2240886     0.013429614
      3298.47       1.2306057     0.013453262
      3301.77       1.2459199     0.013378305
      3305.07       1.2543017     0.013039679
      3308.38       1.2618404     0.012823932
      3311.69       1.2809201     0.012587317
      3315.00       1.2869254     0.012446753
      3318.31       1.2951936     0.012171016
      3321.63       1.3030745     0.011851752
      3324.95       1.3058728     0.011609671
      3328.28       1.3074056     0.011392677
      3331.61       1.3064370     0.011346959
      3334.94       1.3104230     0.011292152
      3338.27       1.3093193     0.011037436
      3341.61       1.3066636     0.010899457
      3344.95       1.3018541     0.010828217
      3348.30       1.2976434     0.010714731
      3351.65       1.2914190     0.010685490
      3355.00       1.2857109     0.010767123
      3358.35       1.2784841     0.010898088
      3361.71       1.2699717     0.010916339
      3365.07       1.2705844     0.010935688
      3368.44       1.2710970     0.010971937
      3371.81       1.2859509     0.010997823
      3375.18       1.2924319     0.010989607
      3378.56       1.3008420     0.011037443
      3381.94       1.3014324     0.011110149
      3385.32       1.3038056     0.011111772
      3388.70       1.3073385     0.011071288
      3392.09       1.3110327     0.010969755
      3395.48       1.3211661     0.010909640
      3398.88       1.3292042     0.010879099
      3402.28       1.3382981     0.010847309
      3405.68       1.3464423     0.010783795
      3409.09       1.3525642     0.010722441
      3412.49       1.3527530     0.010647579
      3415.91       1.3540434     0.010613844
      3419.32       1.3503069     0.010589747
      3422.74       1.3569498     0.010581457
      3426.17       1.3522377     0.010585520
      3429.59       1.3512170     0.010591164
      3433.02       1.3499839     0.010644934
      3436.45       1.3468544     0.010642794
      3439.89       1.3301868     0.010652075
      3443.33       1.3255678     0.010642121
      3446.78       1.3186646     0.010610503
      3450.22       1.3140041     0.010576568
      3453.67       1.3153357     0.010472716
      3457.13       1.3215495     0.010414760
      3460.58       1.3252760     0.010359786
      3464.04       1.3216561     0.010351788
      3467.51       1.3207150     0.010293480
      3470.98       1.3246452     0.010213327
      3474.45       1.3314733     0.010112035
      3477.92       1.3381223     0.010035781
      3481.40       1.3438190    0.0099780582
      3484.88       1.3576317     0.010006972
      3488.37       1.3635317     0.010082614
      3491.86       1.3730068     0.010170816
      3495.35       1.3807052     0.010265422
      3498.84       1.3871219     0.010548794
      3502.34       1.3931853     0.010577349
      3505.84       1.4055668     0.010554839
      3509.35       1.4130050     0.010624272
      3512.86       1.4143238     0.010772782
      3516.37       1.4165743     0.010962962
      3519.89       1.4146114     0.011109263
      3523.41       1.4150016     0.011365947
      3526.93       1.4055252     0.011629857
      3530.46       1.3962843     0.011875092
      3533.99       1.3995839     0.012095418
      3537.53       1.3938494     0.012257189
      3541.06       1.3903932     0.012357851
      3544.60       1.3955861     0.012417207
      3548.15       1.3888317     0.012409163
      3551.70       1.3840748     0.012335886
      3555.25       1.3654469     0.012208665
      3558.80       1.3575572     0.011977865
      3562.36       1.3492510     0.011720494
      3565.92       1.3415580     0.011357605
      3569.49       1.3362666     0.011106001
      3573.06       1.3254783     0.010885410
      3576.64       1.3190652     0.010694368
      3580.21       1.3158834     0.010563614
      3583.79       1.3111573     0.010476603
      3587.38       1.2954482     0.010471182
      3590.96       1.2930366     0.010494783
      3594.55       1.2862764     0.010276522
      3598.15       1.2772510     0.010150281
      3601.75       1.2637329     0.010025462
      3605.35       1.2529890    0.0099541063
      3608.96       1.2475808    0.0098684500
      3612.56       1.2438190    0.0098011837
      3616.18       1.2440872    0.0097429713
      3619.79       1.2391617    0.0097021523
      3623.41       1.2324210    0.0096824012
      3627.04       1.2350654    0.0096313260
      3630.66       1.2336166    0.0096196046
      3634.29       1.2282686    0.0096328841
      3637.93       1.2278744    0.0096527439
      3641.57       1.2235644    0.0096486043
      3645.21       1.2256843    0.0096507099
      3648.86       1.2231812    0.0096649929
      3652.50       1.2193350    0.0096544524
      3656.16       1.2178627    0.0096438386
      3659.81       1.2120355    0.0096341506
      3663.47       1.2077727    0.0096194460
      3667.14       1.2016666    0.0095968836
      3670.80       1.1947589    0.0095396077
      3674.48       1.1896282    0.0095240262
      3678.15       1.1748387    0.0094973733
      3681.83       1.1585264    0.0094671402
      3685.51       1.1559835    0.0094440779
      3689.20       1.1523306    0.0094162499
      3692.88       1.1460037    0.0093877640
      3696.58       1.1426613    0.0093596570
      3700.27       1.1420982    0.0093374165
      3703.98       1.1471820    0.0092537170
      3707.68       1.1442670    0.0092065890
      3711.39       1.1402424    0.0091594317
      3715.10       1.1395433    0.0091159850
      3718.81       1.1372489    0.0090649657
      3722.53       1.1359102    0.0090184305
      3726.26       1.1322976    0.0089797828
      3729.98       1.1293660    0.0089423089
      3733.71       1.1294596    0.0088778889
      3737.45       1.1295745    0.0088570718
      3741.18       1.1252205    0.0088870326
      3744.93       1.1148833    0.0088493782
      3748.67       1.1097362    0.0088405132
      3752.42       1.1094114    0.0088283847
      3756.17       1.1040639    0.0088083073
      3759.93       1.0950994    0.0089198799
      3763.69       1.0972731    0.0088995295
      3767.45       1.0955842    0.0088819797
      3771.22       1.0924251    0.0088948157
      3774.99       1.0903575    0.0089976184
      3778.77       1.0893191    0.0091354886
      3782.54       1.0995285    0.0093225862
      3786.33       1.0969746    0.0094910198
      3790.11       1.0954814    0.0096160046
      3793.90       1.0955148    0.0097075636
      3797.70       1.0948152    0.0099181272
      3801.50       1.0879338     0.010012573
      3805.30       1.0876687     0.010043700
      3809.10       1.0916321     0.010073570
      3812.91       1.0917969    0.0099402605
      3816.73       1.0844112    0.0098744581
      3820.54       1.0816499    0.0097919707
      3824.36       1.0800993    0.0096892016
      3828.19       1.0810914    0.0096901893
      3832.02       1.0843621    0.0096664696
      3835.85       1.0865902    0.0096398734
      3839.68       1.0829235    0.0096446485
      3843.52       1.0896231    0.0097007165
      3847.37       1.1004235    0.0096616569
      3851.22       1.1056764    0.0096301242
      3855.07       1.1109555    0.0095667880
      3858.92       1.1245173    0.0096021013
      3862.78       1.1329609    0.0093045418
      3866.64       1.1442992    0.0092026615
      3870.51       1.1535648    0.0091299311
      3874.38       1.1605065    0.0089743735
      3878.26       1.1633419    0.0088763975
      3882.13       1.1639398    0.0087681843
      3886.02       1.1671342    0.0086856617
      3889.90       1.1709086    0.0085764191
      3893.79       1.1716858    0.0085980398
      3897.69       1.1730422    0.0085914370
      3901.59       1.1784756    0.0086299185
      3905.49       1.1844174    0.0087253602
      3909.39       1.1794549    0.0087352842
      3913.30       1.1778830    0.0087700318
      3917.22       1.1780215    0.0088546898
      3921.13       1.1746289    0.0089310000
      3925.06       1.1728050    0.0091118328
      3928.98       1.1666514    0.0091051967
      3932.91       1.1605995    0.0091230827
      3936.84       1.1527824    0.0092650065
      3940.78       1.1445947    0.0093243054
      3944.72       1.1444092    0.0094248111
      3948.67       1.1323847    0.0095418090
      3952.61       1.1208316    0.0096195946
      3956.57       1.1091523    0.0096959418
      3960.52       1.1114055    0.0097094850
      3964.48       1.1036819    0.0098052313
      3968.45       1.0980248    0.0097872272
      3972.42       1.0898024    0.0097953286
      3976.39       1.0796817    0.0097793821
      3980.37       1.0667673    0.0097290196
      3984.35       1.0614213    0.0096613295
      3988.33       1.0555929    0.0095924852
      3992.32       1.0482318    0.0095023291
      3996.31       1.0457114    0.0093911605
      4000.31       1.0477029    0.0093181186
      4004.31       1.0494528    0.0092139874
      4008.31       1.0480686    0.0091255548
      4012.32       1.0467062    0.0090761605
      4016.33       1.0439132    0.0090821041
      4020.35       1.0357447    0.0092570735
      4024.37       1.0326128    0.0094244584
      4028.40       1.0341261    0.0095453259
      4032.42       1.0347139    0.0095994527
      4036.46       1.0361232    0.0096455671
      4040.50       1.0417272    0.0097898777
      4044.54       1.0418778     0.010021030
      4048.58       1.0451694    0.0098962406
      4052.63       1.0402098    0.0099781785
      4056.68       1.0410020    0.0099653106
      4060.74       1.0429790    0.0099897804
      4064.80       1.0450904     0.010035682
      4068.86       1.0450796     0.010052347
      4072.93       1.0464394    0.0099726330
      4077.01       1.0427526    0.0098976451
      4081.08       1.0428296    0.0098743312
      4085.17       1.0405245    0.0096199587
      4089.25       1.0354489    0.0094739191
      4093.34       1.0299636    0.0092968533
      4097.43       1.0312383    0.0092786628
      4101.53       1.0266750    0.0092686274
      4105.63       1.0191254    0.0092583597
      4109.74       1.0082885    0.0091948346
      4113.85       1.0011156    0.0091004213
      4117.96      0.99242868    0.0090835487
      4122.08      0.98967261    0.0090297330
      4126.20      0.98678057    0.0090273746
      4130.33      0.98893634    0.0091079477
      4134.46      0.99115921    0.0091945884
      4138.59      0.98713376    0.0091338885
      4142.73      0.98649659    0.0089366188
      4146.88      0.98409928    0.0088901639
      4151.02      0.97625380    0.0087728030
      4155.18      0.96495688    0.0085914399
      4159.33      0.95438514    0.0084903299
      4163.49      0.94665896    0.0083986590
      4167.65      0.93915836    0.0083387885
      4171.82      0.92915925    0.0083009037
      4175.99      0.92069872    0.0082741451
      4180.17      0.91312983    0.0082042935
      4184.35      0.90145808    0.0082280322
      4188.54      0.89045870    0.0082880787
      4192.72      0.87833508    0.0082000044
      4196.92      0.87020363    0.0081427875
      4201.11      0.86580794    0.0081373828
      4205.31      0.85850733    0.0080715676
      4209.52      0.85150090    0.0080530008
      4213.73      0.84687446    0.0080726568
      4217.94      0.84322444    0.0080519235
      4222.16      0.84244032    0.0080254949
      4226.38      0.84461380    0.0080181704
      4230.61      0.84931674    0.0080270457
      4234.84      0.85172087    0.0080619302
      4239.08      0.85693455    0.0080692036
      4243.32      0.85366186    0.0081352675
      4247.56      0.85623419    0.0081580663
      4251.81      0.85539903    0.0081210003
      4256.06      0.85369476    0.0080791852
      4260.32      0.84672848    0.0080707962
      4264.58      0.83998741    0.0080737536
      4268.84      0.83896729    0.0080628233
      4273.11      0.83755692    0.0080362332
      4277.38      0.83359801    0.0080505805
      4281.66      0.83261473    0.0080792912
      4285.94      0.83116641    0.0081048733
      4290.23      0.83174596    0.0081445989
      4294.52      0.83231841    0.0081688789
      4298.81      0.84042688    0.0082186251
      4303.11      0.84944736    0.0082553969
      4307.42      0.85618524    0.0083132651
      4311.72      0.86134702    0.0084063613
      4316.04      0.86885656    0.0085011159
      4320.35      0.87604331    0.0086084930
      4324.67      0.88382766    0.0087405261
      4329.00      0.88720969    0.0089011915
      4333.33      0.89875554    0.0090378825
      4337.66      0.91120694    0.0091569152
      4342.00      0.92049193    0.0092845416
      4346.34      0.92858452    0.0093893170
      4350.69      0.93694277    0.0095269881
      4355.04      0.93524882    0.0096584001
      4359.39      0.93564635    0.0097540344
      4363.75      0.93456342    0.0098695712
      4368.12      0.93161695    0.0099887892
      4372.48      0.93100809     0.010111105
      4376.86      0.92962622     0.010256087
      4381.23      0.93098823     0.010430404
      4385.61      0.92500988     0.010640229
      4390.00      0.92145513     0.010792702
      4394.39      0.91976726     0.010923370
      4398.79      0.91584706     0.011192508
      4403.18      0.91732191     0.011492140
      4407.59      0.91825474     0.011800006
      4412.00      0.91428324     0.012050807
      4416.41      0.90414949     0.012314120
      4420.82      0.90110393     0.012617385
      4425.25      0.89831273     0.012928845
      4429.67      0.89821055     0.013219359
      4434.10      0.89333624     0.013347442
      4438.54      0.89523130     0.013447935
      4442.97      0.90096490     0.013627368
      4447.42      0.90229239     0.013784244
      4451.86      0.90374012     0.013907872
      4456.32      0.90555862     0.013782879
      4460.77      0.91043892     0.013789403
      4465.24      0.90630030     0.014033908
      4469.70      0.90806250     0.014129818
      4474.17      0.91574204     0.014275022
      4478.65      0.91381228     0.014683782
      4483.12      0.91340478     0.015284987
      4487.61      0.90127963     0.015246642
      4492.09      0.88983021     0.015914309
      4496.59      0.88174473     0.017347247
      4501.08      0.87002059     0.016971524
      4505.58      0.86104634     0.016191015
      4510.09      0.85869718     0.015338657
      4514.60      0.85229665     0.015334105
      4519.12      0.84282173     0.014847322
      4523.63      0.84336476     0.013944014
      4528.16      0.83846548     0.013296655
      4532.69      0.83266606     0.012677694
      4537.22      0.83955470     0.011877278
      4541.76      0.84318210     0.011781398
      4546.30      0.84707883     0.011659777
      4550.85      0.84898330     0.011529482
      4555.40      0.86232955     0.011061858
      4559.95      0.86296792     0.011305754
      4564.51      0.86311695     0.011658907
      4569.08      0.86652759     0.012014601
      4573.65      0.87003145     0.012467142
      4578.22      0.86337098     0.011140844
      4582.80      0.86305793     0.011225164
      4587.38      0.86339604     0.011048838
      4591.97      0.85582193     0.011568567
      4596.56      0.84801410     0.011356238
      4601.16      0.84220921     0.011620905
      4605.76      0.82975287     0.011683371
      4610.37      0.81992321     0.012154134
      4614.98      0.81011176     0.012467261
      4619.59      0.79810655     0.012883422
      4624.21      0.79372246     0.013176654
      4628.84      0.78917547     0.013073592
      4633.47      0.78501169     0.012776193
      4638.10      0.77958267     0.012364380
      4642.74      0.77821392     0.012129676
      4647.38      0.77015762     0.011706266
      4652.03      0.76809973     0.011226190
      4656.68      0.75870696     0.010939126
      4661.34      0.75217198     0.010746331
      4666.00      0.74880576     0.010646982
      4670.67      0.74686093     0.011199519
      4675.33      0.73880975     0.011555600
      4680.01      0.72191093     0.012769757
      4684.69      0.71493752     0.012534250
      4689.38      0.70747394     0.012149281
      4694.07      0.69790113     0.011935306
      4698.76      0.69108909     0.011514017
      4703.46      0.68426767     0.011509944
      4708.16      0.68097618     0.011486636
      4712.87      0.67045899     0.011428963
      4717.58      0.66915785     0.011345299
      4722.30      0.65869811     0.011603092
      4727.03      0.65057778     0.011846454
      4731.75      0.64395546     0.011930939
      4736.48      0.63645141     0.012400403
      4741.22      0.62183706     0.011875704
      4745.96      0.61496663     0.011325298
      4750.71      0.61003705     0.011580095
      4755.46      0.60850542     0.011932205
      4760.22      0.60282881     0.012349570
      4764.97      0.60296027     0.012789329
      4769.74      0.59870727     0.013450693
      4774.51      0.58932544     0.013908188
      4779.29      0.59131713     0.014320915
      4784.07      0.59516422     0.014696833
      4788.85      0.59991361     0.014664730
      4793.64      0.58763880     0.015040412
      4798.43      0.58059862     0.014811265
      4803.23      0.57643671     0.014491041
      4808.03      0.58395033     0.013719272
      4812.84      0.58300545     0.013294735
      4817.66      0.58684270     0.013026502
      4822.48      0.59224407     0.012590023
      4827.30      0.60040176     0.012005033
      4832.12      0.60794029     0.011691513
      4836.96      0.60459679     0.011473873
      4841.79      0.60293899     0.012518980
      4846.63      0.60567045     0.012109906
      4851.48      0.60675816     0.011468556
      4856.33      0.60590995     0.011073418
      4861.19      0.60637798     0.010808089
      4866.05      0.60759429     0.010626379
      4870.92      0.60931988     0.010404936
      4875.79      0.61225553     0.010376155
      4880.66      0.61763541     0.010314565
      4885.55      0.61973849     0.010227627
      4890.43      0.62059529     0.010004743
      4895.32      0.62472651    0.0099121558
      4900.22      0.62392524    0.0098611076
      4905.12      0.62478626    0.0098586239
      4910.02      0.62273104    0.0098770442
      4914.94      0.62321352    0.0099872408
      4919.85      0.61605771     0.010175701
      4924.77      0.62074123     0.010469490
      4929.70      0.62323068     0.010960093
      4934.62      0.62504624     0.011243947
      4939.56      0.62376815     0.011516101
      4944.50      0.62613262     0.011635027
      4949.44      0.62804739     0.011728418
      4954.39      0.63112354     0.012003822
      4959.35      0.62178874     0.011911666
      4964.31      0.62031198     0.011399899
      4969.27      0.62921982     0.011187308
      4974.24      0.62958469     0.011042376
      4979.22      0.63957848     0.010739261
      4984.20      0.64877358     0.010064511
      4989.18      0.65168679    0.0097546410
      4994.17      0.65251899    0.0095063622
      4999.16      0.65289353    0.0090374747
      5004.16      0.64885526    0.0088472749
      5009.17      0.65082000    0.0086871639
      5014.18      0.65333509    0.0086140786
      5019.19      0.64695137    0.0083459219
      5024.21      0.64550732    0.0082620179
      5029.23      0.64945219    0.0081803174
      5034.26      0.64633769    0.0079898346
      5039.30      0.64696680    0.0078658444
      5044.34      0.64474700    0.0077989439
      5049.39      0.64217079    0.0077457756
      5054.43      0.64383185    0.0077275708
      5059.49      0.64272549    0.0077240114
      5064.55      0.64320065    0.0077129772
      5069.61      0.63937693    0.0075485046
      5074.68      0.63905082    0.0076461861
      5079.76      0.63922451    0.0076262542
      5084.84      0.64061031    0.0075098952
      5089.92      0.64441490    0.0076309135
      5095.01      0.64868070    0.0076301831
      5100.11      0.65343664    0.0076318329
      5105.21      0.65308573    0.0075244795
      5110.31      0.65465717    0.0076202076
      5115.42      0.65494657    0.0075776813
      5120.54      0.65415813    0.0073949077
      5125.66      0.65509761    0.0073469753
      5130.79      0.65256697    0.0073789587
      5135.92      0.65275538    0.0071973800
      5141.05      0.65488718    0.0071407848
      5146.20      0.65066495    0.0071352639
      5151.34      0.65357817    0.0069482122
      5156.49      0.65557155    0.0068851017
      5161.65      0.65464420    0.0068271242
      5166.81      0.65136514    0.0067274412
      5171.98      0.65014267    0.0066913142
      5177.15      0.64714772    0.0066662625
      5182.33      0.64923538    0.0066466907
      5187.51      0.64921699    0.0066409609
      5192.70      0.64461954    0.0066184957
      5197.89      0.64025864    0.0064608700
      5203.09      0.63945167    0.0064824133
      5208.29      0.63710139    0.0064524034
      5213.50      0.63396019    0.0063396820
      5218.72      0.62816894    0.0064029384
      5223.93      0.62554562    0.0063805296
      5229.16      0.61684768    0.0062549155
      5234.39      0.60977481    0.0063286604
      5239.62      0.60391151    0.0063243478
      5244.86      0.59971446    0.0062284961
      5250.11      0.59765800    0.0062944856
      5255.36      0.59405454    0.0062867788
      5260.61      0.59159903    0.0062122807
      5265.87      0.58888639    0.0062105675
      5271.14      0.58571193    0.0063032491
      5276.41      0.58551800    0.0061948017
      5281.69      0.58426290    0.0061758505
      5286.97      0.58118952    0.0062484224
      5292.26      0.57880393    0.0061174794
      5297.55      0.57825872    0.0061191421
      5302.85      0.57943745    0.0062158721
      5308.15      0.57800212    0.0061645505
      5313.46      0.57857351    0.0061985134
      5318.77      0.58187592    0.0062573567
      5324.09      0.57958067    0.0062585118
      5329.42      0.58035194    0.0062159060
      5334.75      0.57890253    0.0061624195
      5340.08      0.57908978    0.0061345060
      5345.42      0.57773779    0.0061135046
      5350.77      0.57387524    0.0060794297
      5356.12      0.57267451    0.0060368926
      5361.48      0.56905693    0.0059845912
      5366.83      0.56331344    0.0058820442
      5372.20      0.56341411    0.0058245219
      5377.58      0.55976516    0.0056877021
      5382.95      0.55486183    0.0056865669
      5388.34      0.55197420    0.0056385512
      5393.72      0.54659684    0.0055154137
      5399.12      0.54300660    0.0055775233
      5404.52      0.54169442    0.0055480345
      5409.92      0.53622175    0.0054459509
      5415.33      0.53303133    0.0055010401
      5420.75      0.52995685    0.0053987964
      5426.17      0.52595306    0.0053753028
      5431.60      0.52559120    0.0054134589
      5437.03      0.52509699    0.0053335176
      5442.47      0.52178159    0.0054062741
      5447.91      0.52166069    0.0053345362
      5453.36      0.52056950    0.0053540419
      5458.81      0.51964023    0.0054164004
      5464.27      0.51724909    0.0053013294
      5469.73      0.51479841    0.0052646261
      5475.20      0.51331794    0.0052343797
      5480.68      0.51288346    0.0052235614
      5486.16      0.51125224    0.0052081272
      5491.65      0.50760603    0.0051318976
      5497.14      0.50729092    0.0050905574
      5502.64      0.50556834    0.0050476548
      5508.14      0.50389983    0.0050449894
      5513.65      0.50169509    0.0050531890
      5519.16      0.49573410    0.0050440733
      5524.68      0.49427851    0.0050321039
      5530.20      0.49238288    0.0049696157
      5535.73      0.49021862    0.0050416754
      5541.27      0.48876177    0.0050584423
      5546.81      0.48579410    0.0051132068
      5552.36      0.48408209    0.0051472336
      5557.91      0.48280633    0.0051360101
      5563.47      0.48058607    0.0052474601
      5569.04      0.48006230    0.0052265022
      5574.60      0.47867840    0.0052546458
      5580.18      0.47668410    0.0053676643
      5585.76      0.47459117    0.0053019799
      5591.35      0.47271248    0.0053853006
      5596.94      0.47114013    0.0053127486
      5602.53      0.46953357    0.0053041251
      5608.14      0.46940267    0.0052784075
      5613.75      0.46891723    0.0052588740
      5619.36      0.46712103    0.0053264457
      5624.98      0.46640614    0.0052226389
      5630.60      0.46408596    0.0051854595
      5636.23      0.46417452    0.0051062780
      5641.87      0.46463333    0.0050743997
      5647.51      0.46378219    0.0050609986
      5653.16      0.46302195    0.0050476681
      5658.82      0.46055224    0.0049451331
      5664.47      0.46212158    0.0049502571
      5670.14      0.46372877    0.0049152114
      5675.81      0.46363462    0.0048710538
      5681.48      0.46170934    0.0048425989
      5687.17      0.46149326    0.0047556196
      5692.85      0.46070303    0.0047887988
      5698.55      0.45889474    0.0046942087
      5704.25      0.45678550    0.0047194795
      5709.95      0.45280392    0.0046289343
      5715.66      0.45049937    0.0046711124
      5721.38      0.44752695    0.0045865141
      5727.10      0.44638094    0.0045635902
      5732.83      0.44555672    0.0045826567
      5738.56      0.44541799    0.0045014781
      5744.30      0.44374702    0.0045347972
      5750.04      0.43930745    0.0044497282
      5755.79      0.43650869    0.0044766450
      5761.55      0.43371346    0.0044032759
      5767.31      0.43008372    0.0043926724
      5773.08      0.42779912    0.0043664644
      5778.85      0.42473210    0.0043556939
      5784.63      0.42383101    0.0043419242
      5790.41      0.42114352    0.0043399403
      5796.21      0.41801240    0.0043425012
      5802.00      0.41765222    0.0043475588
      5807.81      0.41809252    0.0043834657
      5813.61      0.41777779    0.0044002351
      5819.43      0.41518166    0.0043392869
      5825.25      0.40866480    0.0043951831
      5831.07      0.40484168    0.0043518538
      5836.90      0.40217778    0.0044469382
      5842.74      0.39803611    0.0044491304
      5848.58      0.39205043    0.0045406658
      5854.43      0.38689965    0.0045461741
      5860.29      0.38464474    0.0046742977
      5866.15      0.38270664    0.0047291073
      5872.01      0.37862939    0.0048818152
      5877.89      0.37638646    0.0049291245
      5883.76      0.37417441    0.0049939971
      5889.65      0.36750976    0.0051415473
      5895.54      0.36147196    0.0052002010
      5901.43      0.35754430    0.0053134961
      5907.34      0.35507411    0.0053654770
      5913.24      0.35457481    0.0054600433
      5919.16      0.35185686    0.0054776760
      5925.08      0.34748760    0.0054886306
      5931.00      0.34680087    0.0054870604
      5936.93      0.34719363    0.0054886794
      5942.87      0.34761264    0.0054743297
      5948.81      0.35086673    0.0054504911
      5954.76      0.35295808    0.0054448580
      5960.72      0.35318210    0.0054684494
      5966.68      0.35290411    0.0054418273
      5972.64      0.35354258    0.0053547724
      5978.62      0.35272410    0.0053014440
      5984.60      0.35684856    0.0052557054
      5990.58      0.35864779    0.0052340082
      5996.57      0.35679112    0.0051617731
      6002.57      0.35745553    0.0051061639
      6008.57      0.36224975    0.0050152212
      6014.58      0.36224817    0.0049670905
      6020.60      0.36032941    0.0049079255
      6026.62      0.36065397    0.0048135392
      6032.65      0.36034937    0.0048505753
      6038.68      0.36202163    0.0048098187
      6044.72      0.35986981    0.0048644600
      6050.76      0.35953910    0.0047806171
      6056.81      0.35775713    0.0048394957
      6062.87      0.35352251    0.0048049439
      6068.93      0.35058879    0.0048915582
      6075.00      0.34581203    0.0048561636
      6081.08      0.34111088    0.0049464139
      6087.16      0.34115303    0.0049202986
      6093.25      0.33947323    0.0050020498
      6099.34      0.33941990    0.0050395771
      6105.44      0.33793341    0.0050956702
      6111.54      0.33825836    0.0051098693
      6117.66      0.33811776    0.0051430335
      6123.78      0.33820281    0.0051659632
      6129.90      0.34034039    0.0052191871
      6136.03      0.34098873    0.0052666217
      6142.17      0.34249052    0.0054289070
      6148.31      0.34485744    0.0055607915
      6154.46      0.34585294    0.0057987176
      6160.61      0.34840495    0.0059484382
      6166.77      0.34835309    0.0061758886
      6172.94      0.34957523    0.0062915343
      6179.11      0.35331147    0.0065527924
      6185.29      0.36034711    0.0066367394
      6191.48      0.36557767    0.0068844779
      6197.67      0.36874899    0.0070549095
      6203.87      0.36309486    0.0067363781
      6210.07      0.36161204    0.0066974101
      6216.28      0.36089301    0.0064637958
      6222.50      0.36135583    0.0062975492
      6228.72      0.35823784    0.0061728541
      6234.95      0.35320160    0.0059350283
      6241.19      0.35177646    0.0058351193
      6247.42      0.34667189    0.0057198543
      6253.67      0.34505221    0.0057148991
      6259.93      0.34740191    0.0057751890
      6266.19      0.34657006    0.0057683945
      6272.46      0.34462063    0.0057651239
      6278.73      0.34291241    0.0058217499
      6285.01      0.33929898    0.0058242899
      6291.29      0.33793745    0.0058164796
      6297.58      0.33480867    0.0057784344
      6303.88      0.33412099    0.0058662913
      6310.19      0.33313147    0.0058657309
      6316.50      0.33424461    0.0058477116
      6322.81      0.33063056    0.0058466692
      6329.14      0.32689866    0.0058063977
      6335.47      0.32883447    0.0059141672
      6341.80      0.32986253    0.0059005304
      6348.14      0.33250706    0.0060598819
      6354.49      0.33024115    0.0062040632
      6360.85      0.32958748    0.0061516283
      6367.21      0.32957715    0.0062330382
      6373.57      0.32853729    0.0062127253
      6379.95      0.32749979    0.0063519780
      6386.33      0.32547629    0.0064167936
      6392.72      0.32455581    0.0064823746
      6399.11      0.32641112    0.0065349461
      6405.51      0.32715042    0.0065671731
      6411.92      0.33205510    0.0066621837
      6418.32      0.33596449    0.0066822131
      6424.74      0.33901940    0.0066733723
      6431.17      0.34105138    0.0067426978
      6437.60      0.34187673    0.0068005852
      6444.04      0.34635550    0.0068661448
      6450.48      0.34484914    0.0067965360
      6456.94      0.34908048    0.0069243308
      6463.39      0.35349084    0.0070423569
      6469.85      0.35187165    0.0070008231
      6476.33      0.35041310    0.0070624288
      6482.80      0.34669578    0.0069049406
      6489.28      0.33876734    0.0068103337
      6495.77      0.33789933    0.0068157166
      6502.27      0.33945626    0.0066160769
      6508.77      0.34157433    0.0064736209
      6515.28      0.34116038    0.0063968129
      6521.80      0.34057530    0.0062085265
      6528.32      0.33688464    0.0061294892
      6534.85      0.33485805    0.0059105527
      6541.38      0.33235726    0.0057501546
      6547.92      0.33153658    0.0057313376
      6554.47      0.33480617    0.0056128024
      6561.03      0.33703070    0.0055755423
      6567.59      0.33654213    0.0055562466
      6574.16      0.33685902    0.0055344528
      6580.73      0.33758185    0.0054831172
      6587.31      0.33182232    0.0053554104
      6593.90      0.32785501    0.0053841509
      6600.50      0.32608271    0.0054712896
      6607.10      0.32126444    0.0054893786
      6613.70      0.31569068    0.0056344668
      6620.32      0.31137294    0.0057662359
      6626.94      0.30730337    0.0058206015
      6633.57      0.30224495    0.0060580219
      6640.20      0.29545810    0.0061085147
      6646.84      0.29188880    0.0062593207
      6653.49      0.28629813    0.0064328435
      6660.14      0.28650001    0.0064174301
      6666.80      0.28526783    0.0064313474
      6673.47      0.28549749    0.0064825244
      6680.14      0.28081194    0.0063620909
      6686.82      0.27746264    0.0063565456
      6693.51      0.27840064    0.0063948053
      6700.20      0.27785981    0.0064014525
      6706.90      0.27889024    0.0063679498
      6713.61      0.28077681    0.0063307430
      6720.32      0.28354461    0.0063449798
      6727.05      0.29126725    0.0064596384
      6733.77      0.29942528    0.0066920260
      6740.51      0.30098981    0.0067922025
      6747.25      0.30100559    0.0069481638
      6754.00      0.29063365    0.0069764741
      6760.75      0.28157337    0.0069450649
      6767.51      0.27711623    0.0070555669
      6774.28      0.27420622    0.0070673446
      6781.05      0.27020858    0.0070037906
      6787.84      0.27099327    0.0070716959
      6794.62      0.27192590    0.0071977935
      6801.42      0.26810973    0.0071482548
      6808.22      0.26340967    0.0072116055
      6815.03      0.25559109    0.0073787932
      6821.85      0.25110523    0.0075535394
      6828.67      0.24477378    0.0074924348
      6835.50      0.24143516    0.0074198877
      6842.33      0.24010366    0.0074409756
      6849.17      0.23954302    0.0073203661
      6856.02      0.24273038    0.0072996596
      6862.88      0.24618929    0.0073273810
      6869.74      0.24917963    0.0072957814
      6876.61      0.24813950    0.0071354946
      6883.49      0.24946290    0.0069616586
      6890.37      0.25093973    0.0068317200
      6897.27      0.25275390    0.0067725579
      6904.16      0.25443237    0.0066742095
      6911.07      0.24852279    0.0066060731
      6917.98      0.24310339    0.0065115723
      6924.89      0.23627259    0.0064941322
      6931.82      0.23398652    0.0064203513
      6938.75      0.23941205    0.0063611558
      6945.69      0.24419470    0.0062782877
      6952.64      0.24465123    0.0062615093
      6959.59      0.24654118    0.0063773673
      6966.55      0.24071597    0.0063696676
      6973.52      0.23200427    0.0064606829
      6980.49      0.22386709    0.0065921593
      6987.47      0.21904407    0.0068495208
      6994.46      0.21724262    0.0069540683
      7001.46      0.21336724    0.0071976913
      7008.46      0.21639268    0.0073754406
      7015.46      0.21979752    0.0076205523
      7022.48      0.21995090    0.0077058610
      7029.51      0.22264197    0.0079772766
      7036.53      0.22673071    0.0081518195
      7043.57      0.22473165    0.0080104882
      7050.62      0.22172203    0.0080340575
      7057.66      0.22289001    0.0078242026
      7064.72      0.21821906    0.0077171875
      7071.79      0.21635023    0.0076372598
      7078.86      0.21664330    0.0077036029
      7085.94      0.21534178    0.0078267876
      7093.03      0.21596016    0.0079456370
      7100.12      0.21779692    0.0080704491
      7107.22      0.22035007    0.0081132598
      7114.33      0.22734092    0.0083077334
      7121.44      0.22691698    0.0085993687
      7128.56      0.22259577    0.0089334521
      7135.69      0.21624616    0.0090057378
      7142.83      0.20304964    0.0090631144
      7149.97      0.19650344    0.0090445788
      7157.12      0.19798328    0.0091073028
      7164.28      0.19785990    0.0091022854
      7171.44      0.19793186    0.0090459544
      7178.62      0.19355082    0.0090298529
      7185.80      0.18924072    0.0090372235
      7192.98      0.18910773    0.0089570720
      7200.17      0.18230167    0.0090733304
      7207.38      0.18072719    0.0092659292
      7214.58      0.17399754    0.0094734406
      7221.80      0.16840227    0.0095175473
      7229.02      0.16265897    0.0093369643
      7236.25      0.15800929    0.0091648734
      7243.49      0.15621889    0.0091710470
      7250.73      0.15090447    0.0091184283
      7257.98      0.14895639    0.0091611591
      7265.24      0.15112438    0.0090357813
      7272.51      0.14931677    0.0088540022
      7279.78      0.14917170    0.0086245828
      7287.06      0.15124792    0.0084406742
      7294.35      0.15436241    0.0084044280
      7301.64      0.15822362    0.0082464419
      7308.94      0.15903619    0.0081173120
      7316.25      0.15704551    0.0079919856
      7323.57      0.15489575    0.0078469058
      7330.89      0.15169587    0.0077426139
      7338.22      0.15199869    0.0076173550
      7345.56      0.15574219    0.0076530514
      7352.91      0.15121137    0.0075590101
      7360.26      0.15041275    0.0074915792
      7367.62      0.14969386    0.0074619795
      7374.99      0.14775310    0.0074211358
      7382.37      0.14220471    0.0073081784
      7389.75      0.13678137    0.0072564219
      7397.14      0.13423948    0.0073527982
      7404.53      0.13270246    0.0073875357
      7411.94      0.13516894    0.0073919367
      7419.35      0.13255635    0.0073781308
      7426.77      0.13224420    0.0073211306
      7434.20      0.12793966    0.0073859644
      7441.63      0.12571969    0.0074701006
      7449.07      0.12919909    0.0075392136
      7456.52      0.13292225    0.0075874273
      7463.98      0.13870174    0.0077092053
      7471.45      0.14115802    0.0078068446
      7478.92      0.14391666    0.0080520352
      7486.40      0.14590780    0.0083590483
      7493.88      0.14393467    0.0087127733
      7501.38      0.14018402    0.0091207011
      7508.88      0.13787018    0.0096630897
      7516.39      0.13489585     0.010415637
      7523.91      0.13116918     0.011787793
      7531.43      0.12624980     0.013536370
      7538.96      0.11656542     0.016103747
      7546.50      0.10532577     0.019720734
      7554.05     0.087622805     0.024901574
