# starting wavelength =        2692.3648
# ending wavelength =        7848.7262
# O2 telluric scale =        0
# O2 telluric shift =        0
# H2O telluric scale =        0
# H2O telluric shift =        0
      2692.72      0.84400683      0.10040458
      2695.41      0.85361102     0.097961730
      2698.11      0.92478971     0.094973129
      2700.81      0.90430023     0.092882529
      2703.51      0.92641810     0.090824567
      2706.21      0.88317402     0.088823865
      2708.92      0.86695881     0.086754763
      2711.62      0.85844450     0.084843949
      2714.34      0.85205866     0.082879235
      2717.05      0.87405517     0.081018944
      2719.77      0.89247358     0.079359822
      2722.49      0.93309554     0.077748745
      2725.21      0.95864204     0.076253424
      2727.94      0.95215571     0.074482142
      2730.66      0.96495362     0.073213238
      2733.39      0.95981922     0.072146091
      2736.13      0.95988422     0.070916552
      2738.86      0.97780186     0.069695168
      2741.60      0.96405723     0.068692981
      2744.34      0.96169740     0.067663286
      2747.09      0.94679900     0.066744360
      2749.84      0.93634115     0.065999953
      2752.59      0.92653098     0.064615612
      2755.34      0.93293885     0.063787461
      2758.09      0.93921717     0.062777082
      2760.85      0.90915390     0.061735152
      2763.61      0.89239941     0.060817647
      2766.38      0.90264422     0.059750174
      2769.14      0.89157292     0.058827059
      2771.91      0.89780661     0.057774738
      2774.69      0.88158158     0.056374844
      2777.46      0.87991984     0.055342139
      2780.24      0.88565214     0.054322102
      2783.02      0.88769670     0.053421620
      2785.80      0.87583738     0.052451191
      2788.59      0.86144930     0.051605030
      2791.38      0.85417778     0.050673450
      2794.17      0.84657801     0.049484072
      2796.96      0.85454613     0.048835407
      2799.76      0.87102582     0.048070250
      2802.56      0.88860062     0.047331182
      2805.36      0.88837414     0.046495394
      2808.17      0.90102648     0.045853849
      2810.98      0.89406307     0.045174650
      2813.79      0.91163546     0.044395677
      2816.60      0.90002641     0.043896371
      2819.42      0.89210458     0.043450356
      2822.24      0.89736103     0.043170451
      2825.06      0.89565164     0.042770946
      2827.88      0.89828271     0.042562498
      2830.71      0.89363617     0.041949961
      2833.54      0.89974549     0.041744288
      2836.38      0.91294222     0.041379522
      2839.21      0.92162147     0.041119762
      2842.05      0.91716065     0.040655048
      2844.90      0.93636404     0.040263104
      2847.74      0.94582641     0.039363930
      2850.59      0.95866503     0.038881399
      2853.44      0.95950564     0.038272293
      2856.29      0.97670323     0.037661574
      2859.15      0.99312670     0.037118691
      2862.01       1.0181077     0.036237482
      2864.87       1.0196868     0.035773039
      2867.74       1.0319173     0.035305844
      2870.60       1.0551885     0.035025502
      2873.47       1.0515255     0.034707697
      2876.35       1.0575334     0.034563538
      2879.22       1.0621696     0.034034554
      2882.10       1.0720443     0.033906940
      2884.99       1.0763299     0.033656392
      2887.87       1.0719033     0.033577391
      2890.76       1.0755660     0.033404368
      2893.65       1.0840762     0.033219838
      2896.54       1.0655847     0.033068545
      2899.44       1.0553719     0.032998015
      2902.34       1.0421358     0.032707892
      2905.24       1.0436006     0.032549427
      2908.15       1.0369769     0.032150584
      2911.06       1.0366809     0.031895685
      2913.97       1.0276650     0.031810809
      2916.88       1.0163321     0.031605192
      2919.80      0.99898776     0.031361928
      2922.72      0.98832090     0.031170983
      2925.64      0.98675374     0.031109721
      2928.57      0.98045756     0.030880294
      2931.50      0.98410065     0.030758400
      2934.43      0.98085020     0.030244555
      2937.36       1.0049336     0.030096882
      2940.30      0.99780416     0.029824810
      2943.24       1.0019337     0.029698524
      2946.18      0.99370372     0.029346710
      2949.13      0.98964444     0.029081444
      2952.08      0.99755678     0.028875367
      2955.03       1.0077136     0.028540941
      2957.99       1.0009157     0.028125677
      2960.94       1.0005640     0.027870063
      2963.90       1.0093609     0.027856664
      2966.87       1.0108838     0.027931518
      2969.84      0.99872869     0.027734513
      2972.81       1.0069165     0.027924304
      2975.78       1.0215599     0.027978807
      2978.76       1.0255132     0.028232160
      2981.73       1.0309365     0.028195460
      2984.72       1.0431880     0.028439113
      2987.70       1.0435065     0.028706879
      2990.69       1.0416061     0.028703093
      2993.68       1.0517753     0.028604566
      2996.67       1.0656018     0.028397532
      2999.67       1.0788890     0.028251714
      3002.67       1.1022087     0.027965678
      3005.67       1.1108284     0.027282669
      3008.68       1.1190907     0.026892378
      3011.69       1.1363249     0.026467884
      3014.70       1.1412160     0.025987347
      3017.71       1.1429444     0.025784201
      3020.73       1.1520287     0.025467708
      3023.75       1.1548208     0.025298725
      3026.78       1.1596373     0.025047851
      3029.80       1.1666541     0.024911885
      3032.83       1.1674769     0.024955443
      3035.87       1.1838354     0.024904263
      3038.90       1.1919092     0.024912588
      3041.94       1.2002634     0.025157237
      3044.98       1.2136863     0.025253248
      3048.03       1.2343999     0.025393440
      3051.08       1.2374942     0.025681100
      3054.13       1.2361204     0.025774404
      3057.18       1.2522884     0.025839643
      3060.24       1.2671291     0.026020497
      3063.30       1.2621597     0.025945043
      3066.36       1.2600940     0.025790387
      3069.43       1.2529020     0.025797664
      3072.50       1.2553656     0.025629759
      3075.57       1.2509929     0.025620509
      3078.65       1.2493466     0.025396827
      3081.73       1.2461348     0.025186437
      3084.81       1.2446825     0.024944554
      3087.89       1.2367425     0.024755739
      3090.98       1.2418403     0.024500374
      3094.07       1.2339702     0.024270706
      3097.17       1.2453526     0.023985556
      3100.26       1.2468344     0.023799982
      3103.36       1.2579261     0.023617116
      3106.47       1.2630440     0.023356515
      3109.58       1.2676177     0.023474059
      3112.68       1.2690931     0.023280967
      3115.80       1.2773917     0.023411372
      3118.91       1.2583859     0.023181395
      3122.03       1.2448080     0.023245481
      3125.15       1.2436781     0.022939101
      3128.28       1.2419902     0.022945592
      3131.41       1.2486393     0.022666593
      3134.54       1.2603388     0.022560787
      3137.67       1.2681202     0.022499707
      3140.81       1.2723735     0.022439064
      3143.95       1.2838281     0.022423977
      3147.10       1.2952918     0.022408842
      3150.24       1.2963145     0.022361298
      3153.39       1.3047031     0.022203805
      3156.55       1.3108469     0.021833467
      3159.70       1.3104621     0.021750435
      3162.86       1.3120316     0.021323739
      3166.03       1.3156997     0.021215267
      3169.19       1.2965234     0.020925709
      3172.36       1.2863940     0.020562699
      3175.54       1.2707817     0.020528452
      3178.71       1.2547873     0.020247288
      3181.89       1.2499829     0.020252815
      3185.07       1.2440595     0.019973516
      3188.26       1.2409325     0.019796756
      3191.45       1.2439171     0.019674331
      3194.64       1.2410714     0.019542910
      3197.83       1.2336977     0.019559472
      3201.03       1.2403558     0.019291004
      3204.23       1.2361648     0.019168293
      3207.44       1.2285750     0.019119132
      3210.64       1.2221338     0.019099314
      3213.85       1.2327750     0.018956530
      3217.07       1.2259672     0.019089825
      3220.28       1.2237679     0.019101110
      3223.51       1.2094111     0.019098362
      3226.73       1.1860531     0.019063148
      3229.96       1.1577633     0.018837363
      3233.19       1.1572033     0.018834762
      3236.42       1.1437083     0.018644668
      3239.66       1.1355989     0.018310641
      3242.90       1.1282493     0.018221598
      3246.14       1.1328930     0.017877980
      3249.39       1.1321254     0.017624789
      3252.64       1.1315262     0.017535187
      3255.89       1.1371899     0.017254704
      3259.14       1.1464286     0.017090915
      3262.40       1.1494664     0.016966639
      3265.67       1.1524118     0.016798644
      3268.93       1.1564777     0.016673308
      3272.20       1.1710494     0.016611957
      3275.47       1.1869212     0.016567937
      3278.75       1.1985073     0.016566806
      3282.03       1.2042480     0.016583920
      3285.31       1.2021438     0.016625911
      3288.60       1.2025787     0.016544534
      3291.88       1.2013773     0.016514816
      3295.18       1.2138833     0.016558014
      3298.47       1.2039546     0.016321833
      3301.77       1.1998854     0.016161771
      3305.07       1.1977920     0.016126534
      3308.38       1.2060227     0.015862807
      3311.69       1.2001968     0.015729939
      3315.00       1.2041697     0.015649290
      3318.31       1.2036907     0.015609611
      3321.63       1.1988031     0.015572695
      3324.95       1.1912186     0.015519745
      3328.28       1.1900420     0.015456992
      3331.61       1.1909556     0.015365069
      3334.94       1.2019542     0.015283007
      3338.27       1.2143117     0.015127397
      3341.61       1.2138225     0.015175382
      3344.95       1.2140484     0.015156312
      3348.30       1.2148819     0.015075282
      3351.65       1.2181664     0.015124051
      3355.00       1.2194276     0.015284471
      3358.35       1.2232361     0.015359070
      3361.71       1.2228636     0.015314190
      3365.07       1.2192899     0.015383737
      3368.44       1.2207686     0.015531772
      3371.81       1.2272179     0.015443597
      3375.18       1.2270988     0.015441303
      3378.56       1.2210637     0.015422962
      3381.94       1.2135317     0.015397456
      3385.32       1.2075654     0.015341332
      3388.70       1.1987342     0.015281559
      3392.09       1.1951273     0.015214098
      3395.48       1.1990579     0.015040813
      3398.88       1.2011787     0.015074635
      3402.28       1.2118074     0.015015759
      3405.68       1.2149839     0.014986104
      3409.09       1.2221694     0.014872671
      3412.49       1.2239866     0.014860565
      3415.91       1.2300247     0.014933073
      3419.32       1.2298817     0.014893676
      3422.74       1.2317914     0.014758478
      3426.17       1.2364110     0.014704958
      3429.59       1.2420775     0.014645573
      3433.02       1.2480766     0.014684040
      3436.45       1.2488696     0.014517158
      3439.89       1.2516317     0.014423761
      3443.33       1.2503238     0.014315572
      3446.78       1.2468976     0.014199051
      3450.22       1.2502799     0.014019696
      3453.67       1.2546908     0.014034219
      3457.13       1.2633529     0.013974395
      3460.58       1.2704518     0.013929951
      3464.04       1.2825321     0.013909931
      3467.51       1.2986429     0.013817807
      3470.98       1.3028990     0.013831351
      3474.45       1.3076525     0.013837865
      3477.92       1.3182781     0.013925726
      3481.40       1.3265161     0.013905826
      3484.88       1.3310025     0.013793341
      3488.37       1.3429509     0.013775459
      3491.86       1.3454279     0.013767990
      3495.35       1.3556652     0.013771639
      3498.84       1.3538065     0.013774455
      3502.34       1.3567147     0.013680179
      3505.84       1.3676552     0.013757134
      3509.35       1.3679974     0.013740016
      3512.86       1.3650923     0.013687697
      3516.37       1.3647040     0.013602018
      3519.89       1.3669341     0.013488412
      3523.41       1.3679637     0.013281026
      3526.93       1.3683242     0.013148130
      3530.46       1.3729156     0.013023511
      3533.99       1.3775909     0.012917847
      3537.53       1.3778211     0.012829837
      3541.06       1.3859030     0.012755889
      3544.60       1.3880690     0.012773720
      3548.15       1.3839941     0.012628112
      3551.70       1.3845212     0.012555249
      3555.25       1.3820981     0.012490205
      3558.80       1.3750976     0.012439075
      3562.36       1.3779351     0.012397714
      3565.92       1.3726343     0.012365104
      3569.49       1.3701881     0.012342038
      3573.06       1.3664273     0.012331380
      3576.64       1.3599554     0.012247977
      3580.21       1.3557448     0.012243576
      3583.79       1.3486992     0.012235646
      3587.38       1.3408297     0.012212567
      3590.96       1.3350863     0.012186401
      3594.55       1.3256651     0.012157241
      3598.15       1.3213385     0.012129115
      3601.75       1.3185378     0.012093552
      3605.35       1.3210976     0.012040390
      3608.96       1.3305250     0.011990882
      3612.56       1.3307578     0.011885265
      3616.18       1.3338098     0.011861582
      3619.79       1.3388166     0.011842601
      3623.41       1.3411581     0.011837558
      3627.04       1.3457206     0.011847744
      3630.66       1.3489166     0.011853936
      3634.29       1.3481989     0.011859837
      3637.93       1.3481626     0.011866866
      3641.57       1.3451348     0.011862651
      3645.21       1.3383672     0.011835631
      3648.86       1.3348688     0.011823970
      3652.50       1.3261792     0.011811005
      3656.16       1.3247664     0.011777168
      3659.81       1.3167322     0.011739215
      3663.47       1.3075637     0.011719987
      3667.14       1.3056371     0.011711136
      3670.80       1.3069345     0.011706946
      3674.48       1.3081655     0.011701169
      3678.15       1.3123079     0.011696694
      3681.83       1.3011034     0.011697715
      3685.51       1.2926659     0.011701266
      3689.20       1.2823664     0.011716161
      3692.88       1.2763235     0.011750455
      3696.58       1.2651360     0.011802375
      3700.27       1.2559718     0.011867389
      3703.98       1.2430188     0.011952999
      3707.68       1.2281943     0.012047397
      3711.39       1.2148132     0.012093085
      3715.10       1.2047260     0.012070821
      3718.81       1.2038043     0.012122243
      3722.53       1.2008404     0.012162596
      3726.26       1.2035135     0.012159524
      3729.98       1.1869306     0.012129667
      3733.71       1.1878301     0.012077225
      3737.45       1.1963167     0.012006599
      3741.18       1.1978175     0.011931075
      3744.93       1.2031225     0.011858377
      3748.67       1.2068877     0.011790873
      3752.42       1.2101415     0.011652328
      3756.17       1.2139847     0.011603476
      3759.93       1.2112256     0.011565956
      3763.69       1.2175659     0.011533366
      3767.45       1.2104815     0.011503810
      3771.22       1.2124649     0.011490574
      3774.99       1.2052146     0.011492574
      3778.77       1.1997222     0.011430926
      3782.54       1.1991905     0.011404713
      3786.33       1.1994348     0.011405142
      3790.11       1.2013477     0.011479546
      3793.90       1.2016314     0.011485476
      3797.70       1.2012650     0.011500672
      3801.50       1.1963031     0.011522209
      3805.30       1.2071013     0.011479028
      3809.10       1.2155927     0.011507430
      3812.91       1.2137922     0.011530253
      3816.73       1.2252564     0.011763049
      3820.54       1.2367365     0.012136633
      3824.36       1.2527169     0.011523620
      3828.19       1.2620408     0.011959855
      3832.02       1.2753479     0.012114251
      3835.85       1.2954915     0.011890716
      3839.68       1.3088859     0.012097935
      3843.52       1.3285971     0.012388038
      3847.37       1.3464897     0.012809448
      3851.22       1.3619486     0.013227666
      3855.07       1.3847636     0.013674787
      3858.92       1.4015508     0.014114589
      3862.78       1.4063571     0.013736536
      3866.64       1.3995386     0.013413966
      3870.51       1.4011253     0.012998138
      3874.38       1.4037746     0.012534382
      3878.26       1.4032644     0.012021126
      3882.13       1.4057105     0.011739696
      3886.02       1.4071494     0.011533890
      3889.90       1.4072136     0.011725966
      3893.79       1.4130828     0.011513416
      3897.69       1.4077925     0.011101521
      3901.59       1.3951440     0.011664551
      3905.49       1.3884603     0.011311139
      3909.39       1.3861057     0.011030997
      3913.30       1.3896312     0.011029259
      3917.22       1.3846586     0.011034968
      3921.13       1.3904716     0.011041680
      3925.06       1.3839150     0.011046568
      3928.98       1.3795965     0.011051020
      3932.91       1.3707512     0.011051319
      3936.84       1.3639729     0.010976234
      3940.78       1.3565846     0.011022573
      3944.72       1.3551508     0.010998891
      3948.67       1.3564840     0.010906954
      3952.61       1.3537387     0.010883767
      3956.57       1.3522288     0.010925811
      3960.52       1.3565805     0.010846927
      3964.48       1.3544292     0.010828388
      3968.45       1.3634748     0.010807772
      3972.42       1.3553839     0.010795033
      3976.39       1.3461197     0.010782278
      3980.37       1.3444374     0.010767917
      3984.35       1.3450588     0.010888753
      3988.33       1.3437980     0.010907955
      3992.32       1.3424998     0.010741844
      3996.31       1.3476033     0.010665066
      4000.31       1.3412272     0.010791167
      4004.31       1.3492769     0.010909656
      4008.31       1.3499968     0.011000244
      4012.32       1.3505417     0.011131850
      4016.33       1.3432218     0.011259040
      4020.35       1.3397233     0.011341545
      4024.37       1.3325005     0.011355401
      4028.40       1.3290245     0.011336042
      4032.42       1.3230207     0.011258373
      4036.46       1.3274540     0.011104786
      4040.50       1.3244174     0.011044830
      4044.54       1.3270236     0.010933409
      4048.58       1.3222063     0.010797175
      4052.63       1.3216410     0.010812949
      4056.68       1.3192239     0.010807787
      4060.74       1.3202965     0.010990965
      4064.80       1.3299142     0.010972669
      4068.86       1.3355137     0.010831460
      4072.93       1.3394778     0.010819783
      4077.01       1.3414180     0.010786804
      4081.08       1.3515350     0.010740850
      4085.17       1.3437811     0.010629001
      4089.25       1.3350525     0.010634001
      4093.34       1.3245046     0.010537599
      4097.43       1.3164860     0.010567467
      4101.53       1.3063664     0.010487166
      4105.63       1.2992583     0.010475565
      4109.74       1.2841040     0.010476137
      4113.85       1.2756761     0.010478548
      4117.96       1.2657653     0.010480280
      4122.08       1.2586311     0.010478789
      4126.20       1.2541458     0.010415841
      4130.33       1.2546004     0.010467969
      4134.46       1.2541760     0.010405365
      4138.59       1.2586061     0.010466073
      4142.73       1.2689704     0.010415141
      4146.88       1.2709764     0.010425410
      4151.02       1.2746833     0.010445436
      4155.18       1.2761941     0.010458732
      4159.33       1.2818363     0.010482985
      4163.49       1.2794665     0.010503983
      4167.65       1.2717961     0.010532795
      4171.82       1.2646796     0.010546427
      4175.99       1.2543886     0.010563654
      4180.17       1.2430682     0.010565911
      4184.35       1.2240570     0.010575192
      4188.54       1.2154886     0.010521372
      4192.72       1.2070209     0.010583579
      4196.92       1.1938471     0.010527378
      4201.11       1.1828800     0.010583852
      4205.31       1.1801555     0.010519189
      4209.52       1.1809815     0.010573234
      4213.73       1.1865291     0.010509411
      4217.94       1.1908046     0.010505110
      4222.16       1.1930825     0.010499966
      4226.38       1.1947701     0.010493359
      4230.61       1.1897311     0.010484721
      4234.84       1.1889787     0.010468132
      4239.08       1.1836285     0.010400447
      4243.32       1.1725334     0.010453168
      4247.56       1.1572745     0.010393414
      4251.81       1.1466979     0.010384924
      4256.06       1.1371781     0.010375855
      4260.32       1.1205255     0.010368617
      4264.58       1.1052165     0.010365462
      4268.84       1.0930682     0.010366528
      4273.11       1.0791127     0.010371382
      4277.38       1.0651730     0.010373264
      4281.66       1.0550518     0.010385247
      4285.94       1.0493424     0.010337744
      4290.23       1.0518782     0.010398973
      4294.52       1.0562908     0.010353369
      4298.81       1.0546804     0.010363203
      4303.11       1.0600117     0.010376653
      4307.42       1.0611889     0.010388258
      4311.72       1.0614186     0.010405885
      4316.04       1.0728792     0.010374855
      4320.35       1.0735177     0.010457596
      4324.67       1.0764118     0.010488826
      4329.00       1.0868975     0.010458041
      4333.33       1.0971627     0.010528367
      4337.66       1.1050180     0.010537603
      4342.00       1.1080772     0.010476988
      4346.34       1.1172133     0.010470700
      4350.69       1.1302093     0.010468625
      4355.04       1.1402012     0.010474674
      4359.39       1.1451175     0.010492241
      4363.75       1.1509477     0.010459628
      4368.12       1.1616582     0.010546404
      4372.48       1.1767944     0.010584511
      4376.86       1.1800955     0.010560009
      4381.23       1.1885505     0.010597926
      4385.61       1.1976749     0.010631734
      4390.00       1.2105410     0.010644948
      4394.39       1.2146767     0.010656260
      4398.79       1.2190450     0.010682551
      4403.18       1.2172437     0.010708028
      4407.59       1.2190711     0.010719769
      4412.00       1.2235826     0.010738756
      4416.41       1.2288444     0.010760658
      4420.82       1.2347159     0.011031486
      4425.25       1.2411327     0.010791124
      4429.67       1.2569064     0.010747222
      4434.10       1.2692154     0.010867466
      4438.54       1.2798899     0.010928185
      4442.97       1.2866771     0.011085436
      4447.42       1.2972881     0.011257053
      4451.86       1.3037242     0.011437223
      4456.32       1.3046089     0.011528186
      4460.77       1.3117141     0.011645906
      4465.24       1.3249950     0.011783069
      4469.70       1.3286309     0.011793471
      4474.17       1.3253335     0.011667322
      4478.65       1.3273869     0.011585074
      4483.12       1.3248195     0.011496798
      4487.61       1.3207287     0.011404091
      4492.09       1.3241499     0.011328224
      4496.59       1.3304307     0.011249656
      4501.08       1.3389504     0.011334392
      4505.58       1.3475463     0.011710646
      4510.09       1.3548096     0.011392848
      4514.60       1.3652754     0.011420246
      4519.12       1.3684154     0.011449479
      4523.63       1.3754848     0.011412179
      4528.16       1.3775281     0.011433347
      4532.69       1.3795466     0.011455003
      4537.22       1.3773946     0.011482110
      4541.76       1.3776732     0.011503689
      4546.30       1.3814324     0.011529249
      4550.85       1.3750073     0.011561143
      4555.40       1.3632984     0.011534486
      4559.95       1.3495359     0.011572345
      4564.51       1.3454920     0.011616373
      4569.08       1.3298109     0.011668888
      4573.65       1.3252590     0.011728124
      4578.22       1.3190344     0.011791271
      4582.80       1.3149444     0.011854407
      4587.38       1.3052162     0.011921791
      4591.97       1.3021055     0.011981380
      4596.56       1.2899362     0.011967070
      4601.16       1.2759886     0.012075242
      4605.76       1.2637776     0.012127314
      4610.37       1.2617636     0.012172621
      4614.98       1.2479289     0.012272171
      4619.59       1.2406078     0.012311898
      4624.21       1.2314081     0.012416032
      4628.84       1.2190129     0.012513708
      4633.47       1.2072962     0.012599362
      4638.10       1.1954980     0.012630871
      4642.74       1.1728064     0.012757332
      4647.38       1.1662553     0.012967354
      4652.03       1.1552342     0.013283416
      4656.68       1.1474292     0.013577752
      4661.34       1.1410938     0.013447748
      4666.00       1.1274470     0.013555168
      4670.67       1.1230330     0.013865696
      4675.33       1.1070878     0.014339226
      4680.01       1.1007963     0.014895251
      4684.69       1.0846114     0.015385077
      4689.38       1.0728252     0.015966832
      4694.07       1.0677988     0.016264544
      4698.76       1.0579730     0.016572594
      4703.46       1.0431359     0.016843959
      4708.16       1.0480508     0.016879289
      4712.87       1.0363960     0.016694958
      4717.58       1.0297484     0.016518249
      4722.30       1.0316848     0.016130019
      4727.03       1.0250563     0.015927327
      4731.75       1.0199515     0.015831401
      4736.48       1.0255847     0.016019056
      4741.22       1.0202008     0.016263719
      4745.96       1.0207603     0.016340628
      4750.71       1.0058588     0.016206713
      4755.46       1.0037122     0.016282910
      4760.22       1.0035684     0.016410342
      4764.97      0.99330080     0.016520252
      4769.74      0.99289305     0.016465119
      4774.51      0.98433505     0.016429869
      4779.29      0.97566058     0.016496346
      4784.07      0.97614657     0.016422359
      4788.85      0.96480664     0.016425729
      4793.64      0.95640063     0.016425743
      4798.43      0.95422052     0.016138486
      4803.23      0.95170485     0.015999351
      4808.03      0.94990109     0.015943117
      4812.84      0.94918308     0.015777257
      4817.66      0.94107712     0.015701262
      4822.48      0.92933630     0.015521777
      4827.30      0.92529023     0.015191297
      4832.12      0.92312212     0.015021746
      4836.96      0.91997805     0.014956241
      4841.79      0.91545579     0.014808036
      4846.63      0.91308627     0.014668758
      4851.48      0.91469147     0.014399067
      4856.33      0.91455436     0.014270755
      4861.19      0.91606631     0.014151063
      4866.05      0.91124244     0.014135214
      4870.92      0.89957609     0.014029678
      4875.79      0.89715695     0.013805055
      4880.66      0.88827110     0.013710070
      4885.55      0.88852774     0.013621063
      4890.43      0.89056007     0.013537326
      4895.32      0.90090869     0.013571541
      4900.22      0.90271044     0.013398612
      4905.12      0.90828737     0.013318983
      4910.02      0.90432362     0.013271061
      4914.94      0.90095803     0.013339789
      4919.85      0.90818185     0.013316607
      4924.77      0.91145805     0.013290263
      4929.70      0.90295716     0.013218264
      4934.62      0.90523331     0.013348623
      4939.56      0.90200139     0.013519250
      4944.50      0.91125522     0.013789690
      4949.44      0.90372080     0.014254783
      4954.39      0.90181769     0.014518362
      4959.35      0.89544358     0.014600808
      4964.31      0.88433089     0.015103109
      4969.27      0.88399810     0.015159989
      4974.24      0.88394526     0.014772636
      4979.22      0.88756457     0.014427892
      4984.20      0.89053539     0.014388113
      4989.18      0.90142037     0.014380744
      4994.17      0.89465317     0.014247399
      4999.16      0.89794715     0.014303544
      5004.16      0.89214910     0.014361177
      5009.17      0.89427128     0.014573541
      5014.18      0.89241758     0.014602367
      5019.19      0.90238195     0.014330343
      5024.21      0.90190546     0.013970139
      5029.23      0.90949422     0.013601612
      5034.26      0.91189803     0.013338018
      5039.30      0.91941488     0.013119840
      5044.34      0.92021096     0.012893765
      5049.39      0.93185453     0.012665429
      5054.43      0.93553644     0.012637356
      5059.49      0.93794697     0.013180874
      5064.55      0.94107451     0.012656602
      5069.61      0.94566076     0.012394388
      5074.68      0.94350762     0.012321125
      5079.76      0.95261296     0.012244104
      5084.84      0.95062408     0.012186042
      5089.92      0.94929277     0.012119483
      5095.01      0.95319582     0.011953787
      5100.11      0.96238816     0.011970087
      5105.21      0.96586546     0.011908634
      5110.31      0.96778914     0.011755337
      5115.42      0.97215879     0.011783030
      5120.54      0.97258182     0.011739513
      5125.66      0.97940621     0.011617018
      5130.79      0.98304741     0.011666219
      5135.92      0.98786169     0.011528623
      5141.05      0.99230829     0.011488126
      5146.20      0.99505959     0.011454281
      5151.34      0.99397228     0.011414043
      5156.49      0.98968850     0.011370824
      5161.65      0.98868413     0.011324165
      5166.81      0.98387927     0.011261767
      5171.98      0.98818296     0.011214987
      5177.15      0.99190888     0.011177166
      5182.33      0.98473898     0.011128886
      5187.51      0.98654545     0.011093463
      5192.70      0.98843017     0.010976929
      5197.89      0.99070135     0.011015163
      5203.09      0.98339405     0.011003795
      5208.29      0.98178444     0.010891354
      5213.50      0.97822903     0.010916505
      5218.72      0.97510728     0.010808218
      5223.93      0.97633652     0.010822607
      5229.16      0.97020710     0.010904419
      5234.39      0.96350513     0.010828152
      5239.62      0.96120644     0.010854188
      5244.86      0.95538928     0.010913728
      5250.11      0.94888010     0.010955605
      5255.36      0.94232580     0.011049885
      5260.61      0.94116825     0.011104784
      5265.87      0.94657189     0.011042888
      5271.14      0.94678957     0.011009689
      5276.41      0.94282922     0.011055344
      5281.69      0.94471031     0.011059872
      5286.97      0.94526271     0.011203179
      5292.26      0.94580914     0.011152507
      5297.55      0.94408337     0.011277865
      5302.85      0.94512172     0.011211396
      5308.15      0.94411806     0.011203331
      5313.46      0.94008240     0.011055634
      5318.77      0.93177052     0.010856093
      5324.09      0.92584244     0.010761943
      5329.42      0.92433131     0.010518962
      5334.75      0.92096578     0.010367080
      5340.08      0.92207915     0.010196959
      5345.42      0.91810492     0.010104246
      5350.77      0.91758074     0.010029594
      5356.12      0.92357263     0.010020696
      5361.48      0.92593343    0.0099766973
      5366.83      0.92237283    0.0098380533
      5372.20      0.91764536    0.0096321286
      5377.58      0.91808493    0.0095988262
      5382.95      0.92111150    0.0094230933
      5388.34      0.91525247    0.0093734092
      5393.72      0.92166727    0.0091940859
      5399.12      0.92037029    0.0091865210
      5404.52      0.91795906    0.0090404589
      5409.92      0.91593199    0.0090655525
      5415.33      0.90696209    0.0089767358
      5420.75      0.90655813    0.0089559316
      5426.17      0.90388904    0.0089749358
      5431.60      0.90528393    0.0089677743
      5437.03      0.89733954    0.0089547243
      5442.47      0.89496185    0.0089568224
      5447.91      0.88895646    0.0089781471
      5453.36      0.88496215    0.0089320272
      5458.81      0.88126307    0.0089892095
      5464.27      0.87585551    0.0089135008
      5469.73      0.86823624    0.0089641466
      5475.20      0.86645976    0.0088725138
      5480.68      0.86547496    0.0089102019
      5486.16      0.86394150    0.0088453355
      5491.65      0.86416954    0.0089131103
      5497.14      0.87143021    0.0088454004
      5502.64      0.87024085    0.0088605193
      5508.14      0.87091166    0.0088548144
      5513.65      0.87150044    0.0088351687
      5519.16      0.87018524    0.0088123671
      5524.68      0.87475319    0.0088061563
      5530.20      0.87216804    0.0087988659
      5535.73      0.87254643    0.0087325475
      5541.27      0.86529805    0.0086003684
      5546.81      0.86198359    0.0086004340
      5552.36      0.85536780    0.0084772625
      5557.91      0.84939600    0.0084865875
      5563.47      0.84675306    0.0084098782
      5569.04      0.83959756    0.0082961656
      5574.60      0.83329771    0.0083129941
      5580.18      0.82958089    0.0082272112
      5585.76      0.82108435    0.0082633101
      5591.35      0.81841637    0.0081380443
      5596.94      0.81328541    0.0081181191
      5602.53      0.80953055    0.0080957487
      5608.14      0.80340369    0.0080973649
      5613.75      0.79828678    0.0081417312
      5619.36      0.79430892    0.0081724633
      5624.98      0.78777748    0.0082073632
      5630.60      0.77860343    0.0081731147
      5636.23      0.77856658    0.0082459950
      5641.87      0.77320144    0.0081733517
      5647.51      0.76558673    0.0081925467
      5653.16      0.76598722    0.0081159317
      5658.82      0.76022667    0.0079811564
      5664.47      0.75434553    0.0079443381
      5670.14      0.75338953    0.0078004008
      5675.81      0.75224125    0.0076983247
      5681.48      0.75070513    0.0076780651
      5687.17      0.74713558    0.0075861632
      5692.85      0.74115727    0.0075604379
      5698.55      0.74049073    0.0075523100
      5704.25      0.74054661    0.0075362108
      5709.95      0.73859979    0.0074595005
      5715.66      0.73481739    0.0073702165
      5721.38      0.73195128    0.0074297055
      5727.10      0.73061516    0.0075306393
      5732.83      0.72806014    0.0075608879
      5738.56      0.72862322    0.0076442891
      5744.30      0.73259131    0.0076489406
      5750.04      0.73029758    0.0077602974
      5755.79      0.72876925    0.0079138466
      5761.55      0.73119960    0.0079633113
      5767.31      0.72429425    0.0080790840
      5773.08      0.72684766    0.0081808038
      5778.85      0.73129214    0.0082349602
      5784.63      0.73493265    0.0082381814
      5790.41      0.73089115    0.0082582444
      5796.21      0.72806723    0.0082197113
      5802.00      0.73150041    0.0082715959
      5807.81      0.73519530    0.0082445481
      5813.61      0.73161989    0.0081342108
      5819.43      0.72221379    0.0080900709
      5825.25      0.72115680    0.0079932386
      5831.07      0.72489612    0.0078459341
      5836.90      0.72803585    0.0078231782
      5842.74      0.72409475    0.0077883208
      5848.58      0.72181080    0.0077448689
      5854.43      0.71724676    0.0076155249
      5860.29      0.70942049    0.0075359434
      5866.15      0.70751714    0.0074563213
      5872.01      0.70356990    0.0073998718
      5877.89      0.69979615    0.0073343622
      5883.76      0.70071835    0.0072769901
      5889.65      0.69685399    0.0071923847
      5895.54      0.69378218    0.0070698486
      5901.43      0.69170729    0.0070832366
      5907.34      0.69080541    0.0070610897
      5913.24      0.68924231    0.0069941625
      5919.16      0.68684681    0.0069405673
      5925.08      0.68376453    0.0069377419
      5931.00      0.68606442    0.0069960228
      5936.93      0.68941866    0.0069540300
      5942.87      0.69790053    0.0069266010
      5948.81      0.69787084    0.0069205186
      5954.76      0.69539500    0.0069153784
      5960.72      0.69725914    0.0069061942
      5966.68      0.70089864    0.0068699239
      5972.64      0.70135470    0.0068219005
      5978.62      0.70157846    0.0067986691
      5984.60      0.69959315    0.0067852378
      5990.58      0.70003488    0.0067431766
      5996.57      0.70283687    0.0067481173
      6002.57      0.70124685    0.0067864920
      6008.57      0.69870620    0.0068111590
      6014.58      0.69917140    0.0067920439
      6020.60      0.69600886    0.0068280392
      6026.62      0.69215533    0.0068759025
      6032.65      0.68974117    0.0069110091
      6038.68      0.68314815    0.0069911088
      6044.72      0.68303864    0.0070895532
      6050.76      0.67569939    0.0070296164
      6056.81      0.67322088    0.0069956321
      6062.87      0.66482983    0.0070801544
      6068.93      0.65871690    0.0073147015
      6075.00      0.65500750    0.0076228431
      6081.08      0.65082366    0.0080200833
      6087.16      0.63974251    0.0076338593
      6093.25      0.63151137    0.0078931506
      6099.34      0.62689118    0.0084775672
      6105.44      0.62809159    0.0090098699
      6111.54      0.63222088    0.0093583464
      6117.66      0.63014814    0.0097501708
      6123.78      0.62674184     0.010314558
      6129.90      0.63585483     0.010711360
      6136.03      0.63959473     0.010988187
      6142.17      0.64626372     0.010987846
      6148.31      0.64758033     0.010904981
      6154.46      0.65002666     0.010688353
      6160.61      0.65544190     0.010264700
      6166.77      0.66052618    0.0097168971
      6172.94      0.66059840    0.0093589273
      6179.11      0.65967397    0.0091710179
      6185.29      0.65932078    0.0096441142
      6191.48      0.66417262    0.0090017096
      6197.67      0.66221120    0.0085627704
      6203.87      0.66413310    0.0082216114
      6210.07      0.66596130    0.0081308786
      6216.28      0.67295203    0.0082716740
      6222.50      0.67601892    0.0079693113
      6228.72      0.68037583    0.0078024552
      6234.95      0.68295943    0.0077594745
      6241.19      0.68267881    0.0077442621
      6247.42      0.69143228    0.0076731743
      6253.67      0.69522618    0.0075898708
      6259.93      0.69672681    0.0076317999
      6266.19      0.70039019    0.0076864838
      6272.46      0.70094328    0.0077021177
      6278.73      0.70360624    0.0077396824
      6285.01      0.70994464    0.0077915915
      6291.29      0.70843809    0.0077460262
      6297.58      0.70698660    0.0077373252
      6303.88      0.70271210    0.0077128886
      6310.19      0.70347817    0.0077323140
      6316.50      0.69840047    0.0077995538
      6322.81      0.69664369    0.0078145376
      6329.14      0.69238465    0.0077475880
      6335.47      0.68894740    0.0077656303
      6341.80      0.68836776    0.0078599644
      6348.14      0.68629424    0.0079275454
      6354.49      0.68095573    0.0079176143
      6360.85      0.67864105    0.0080006139
      6367.21      0.67861022    0.0081111030
      6373.57      0.67897222    0.0082497717
      6379.95      0.67900800    0.0084833864
      6386.33      0.67631399    0.0088081241
      6392.72      0.67635926    0.0092461985
      6399.11      0.68499674    0.0097420389
      6405.51      0.68922036    0.0099865653
      6411.92      0.68369770     0.010156675
      6418.32      0.68088025     0.010244774
      6424.74      0.67628250     0.010199505
      6431.17      0.68922869     0.010143517
      6437.60      0.69316169     0.010004858
      6444.04      0.69634139    0.0095616823
      6450.48      0.69747212    0.0090619080
      6456.94      0.69634011    0.0087787626
      6463.39      0.70237642    0.0087540788
      6469.85      0.70465565    0.0087450896
      6476.33      0.70238711    0.0086827999
      6482.80      0.69576721    0.0087762529
      6489.28      0.69311609    0.0089683711
      6495.77      0.69144131    0.0090975094
      6502.27      0.68442477    0.0092660388
      6508.77      0.67671693    0.0093465856
      6515.28      0.67169876    0.0093565388
      6521.80      0.66550191    0.0094114356
      6528.32      0.65902198    0.0094347081
      6534.85      0.65035194    0.0094257959
      6541.38      0.64388109    0.0094469135
      6547.92      0.63995040    0.0097057879
      6554.47      0.63877979    0.0097279093
      6561.03      0.64188267    0.0097956109
      6567.59      0.64037205    0.0098129654
      6574.16      0.64321482    0.0098875923
      6580.73      0.64221348     0.010067833
      6587.31      0.64822336     0.010267523
      6593.90      0.64697923     0.010510739
      6600.50      0.64178570     0.010782671
      6607.10      0.64453123     0.010915505
      6613.70      0.65865413     0.010862226
      6620.32      0.64736900     0.010743460
      6626.94      0.64259508     0.010693523
      6633.57      0.63851475     0.010576989
      6640.20      0.63606959     0.010439535
      6646.84      0.63419793     0.010368076
      6653.49      0.64039568     0.010180865
      6660.14      0.63745118    0.0099256582
      6666.80      0.62649750    0.0098966489
      6673.47      0.63775939     0.010092026
      6680.14      0.62793489    0.0096872270
      6686.82      0.62520846    0.0095967838
      6693.51      0.62065610    0.0095728645
      6700.20      0.61302801    0.0094656333
      6706.90      0.59755785    0.0093418457
      6713.61      0.58779322    0.0092703657
      6720.32      0.57553810    0.0092775417
      6727.05      0.56526385    0.0093315413
      6733.77      0.56263674    0.0092755088
      6740.51      0.55071808    0.0091294541
      6747.25      0.53777044    0.0089457123
      6754.00      0.53349458    0.0088664398
      6760.75      0.52665323    0.0087893488
      6767.51      0.52820156    0.0086046954
      6774.28      0.52612312    0.0085511783
      6781.05      0.52917254    0.0084870840
      6787.84      0.52731714    0.0084283403
      6794.62      0.52136951    0.0083353734
      6801.42      0.53005422    0.0082690503
      6808.22      0.52621669    0.0081951526
      6815.03      0.52869209    0.0081327113
      6821.85      0.54160511    0.0081400551
      6828.67      0.54015007    0.0081349112
      6835.50      0.54449921    0.0080789696
      6842.33      0.54778761    0.0080767109
      6849.17      0.54244889    0.0080528136
      6856.02      0.53617859    0.0080679346
      6862.88      0.54117563    0.0080899837
      6869.74      0.54121149    0.0080178692
      6876.61      0.54100638    0.0080033281
      6883.49      0.54067680    0.0080411387
      6890.37      0.54154626    0.0079873387
      6897.27      0.54383528    0.0079673773
      6904.16      0.54587099    0.0079567614
      6911.07      0.54840506    0.0080856274
      6917.98      0.54416414    0.0081357290
      6924.89      0.53857277    0.0081142745
      6931.82      0.54012981    0.0081780507
      6938.75      0.54278117    0.0082234386
      6945.69      0.54756397    0.0083738623
      6952.64      0.55559845    0.0086414167
      6959.59      0.55037109    0.0089692349
      6966.55      0.55294815    0.0093957187
      6973.52      0.55114736    0.0095367843
      6980.49      0.54645113    0.0097257328
      6987.47      0.53951438     0.010086840
      6994.46      0.53882479     0.010504624
      7001.46      0.54112525     0.010829444
      7008.46      0.53458258     0.011377317
      7015.46      0.52825889     0.011389458
      7022.48      0.52889432     0.011463741
      7029.51      0.53041949     0.012079198
      7036.53      0.54289017     0.012008690
      7043.57      0.53960465     0.011628197
      7050.62      0.52620116     0.011821383
      7057.66      0.51673055     0.012068951
      7064.72      0.51422486     0.012314561
      7071.79      0.50489908     0.012406084
      7078.86      0.49308482     0.012525031
      7085.94      0.47995670     0.012928531
      7093.03      0.46339756     0.013761079
      7100.12      0.47047081     0.013515077
      7107.22      0.47707585     0.012691023
      7114.33      0.47725683     0.012336370
      7121.44      0.48055516     0.012100904
      7128.56      0.48284363     0.011899492
      7135.69      0.49330790     0.011682598
      7142.83      0.49040626     0.011738065
      7149.97      0.49190302     0.011454524
      7157.12      0.49770970     0.011151972
      7164.28      0.51678403     0.011375741
      7171.44      0.52173944     0.010850425
      7178.62      0.51384960     0.010455644
      7185.80      0.51254641     0.010301673
      7192.98      0.50686652     0.010242944
      7200.17      0.49788359     0.010174414
      7207.38      0.49025762    0.0099832079
      7214.58      0.49063796    0.0099463510
      7221.80      0.48634689     0.010497849
      7229.02      0.49011549     0.010741172
      7236.25      0.50180399     0.011143307
      7243.49      0.51530233     0.010892066
      7250.73      0.51924378     0.011114731
      7257.98      0.52757572     0.011507644
      7265.24      0.53082705     0.012264589
      7272.51      0.52903350     0.013199410
      7279.78      0.51525580     0.013874170
      7287.06      0.50761963     0.014620438
      7294.35      0.49566522     0.015099276
      7301.64      0.49136170     0.015265499
      7308.94      0.47071359     0.014601333
      7316.25      0.44853421     0.014552638
      7323.57      0.44649119     0.013537172
      7330.89      0.43663347     0.012329059
      7338.22      0.41207650     0.011742942
      7345.56      0.39608581     0.011443873
      7352.91      0.38919545     0.011381677
      7360.26      0.38221537     0.011582631
      7367.62      0.38431977     0.012573743
      7374.99      0.37117506     0.012725193
      7382.37      0.35035802     0.012468287
      7389.75      0.34975225     0.012731678
      7397.14      0.33761151     0.013213823
      7404.53      0.33864195     0.013059193
      7411.94      0.34204355     0.012948200
      7419.35      0.34209100     0.013123767
      7426.77      0.33837396     0.013378562
      7434.20      0.33233993     0.013440818
      7441.63      0.32950930     0.013650912
      7449.07      0.33260649     0.013626814
      7456.52      0.34463295     0.013885749
      7463.98      0.36526676     0.014042518
      7471.45      0.37692757     0.014608351
      7478.92      0.40181872     0.015344594
      7486.40      0.41716597     0.015290530
      7493.88      0.41636198     0.015133509
      7501.38      0.40976878     0.014985864
      7508.88      0.40347007     0.014915050
      7516.39      0.40617347     0.014796819
      7523.91      0.41284854     0.014657581
      7531.43      0.40563792     0.014626982
      7538.96      0.40706900     0.014566549
      7546.50      0.41716034     0.013969690
      7554.05      0.42084910     0.013434526
      7561.60      0.42332897     0.013091921
      7569.16      0.43405588     0.012679048
      7576.73      0.45136980     0.012472390
      7584.31      0.46478673     0.012206287
      7591.89      0.46936606     0.012047406
      7599.49      0.47181018     0.011682124
      7607.09      0.47462597     0.011389758
      7614.70      0.48569231     0.011199987
      7622.31      0.49696758     0.011005070
      7629.93      0.50517274     0.010944907
      7637.56      0.50372350     0.010793349
      7645.20      0.50309373     0.010715528
      7652.85      0.50432341     0.010642204
      7660.50      0.51105176     0.010432391
      7668.16      0.52139510     0.010515986
      7675.83      0.53676524     0.010389758
      7683.50      0.53921754     0.010154659
      7691.19      0.53635434     0.010079754
      7698.88      0.54204380     0.010102443
      7706.58      0.54410379     0.010161243
      7714.29      0.54697652     0.010220869
      7722.00      0.54610105     0.010328769
      7729.73      0.54920788     0.010506208
      7737.45      0.54839934     0.010767792
      7745.19      0.54851080     0.011118610
      7752.94      0.55561987     0.011551043
      7760.69      0.56046312     0.012073060
      7768.45      0.56216126     0.012693891
      7776.22      0.57053410     0.013502574
      7784.00      0.57896874     0.014679898
      7791.78      0.58439877     0.016137068
      7799.57      0.59117071     0.018077744
      7807.37      0.59917119     0.020567869
      7815.18      0.60665208     0.023610619
      7822.99      0.61055462     0.027239904
      7830.82      0.61342028     0.031845441
      7838.65      0.61492344     0.037776689
      7846.49      0.62963990     0.045168476
