# starting wavelength =        1718.9616
# ending wavelength =        4682.3386
# O2 telluric scale =        0
# O2 telluric shift =        0
# H2O telluric scale =        0
# H2O telluric shift =        0
      1719.02      0.31831323     0.025821831
      1720.74      0.32547024     0.025162482
      1722.46      0.33263030     0.024502852
      1724.18      0.33980154     0.023842192
      1725.91      0.34697989     0.023180877
      1727.63      0.35416586     0.022518860
      1729.36      0.36135437     0.021856608
      1731.09      0.35711156     0.021419902
      1732.82      0.35214252     0.020997064
      1734.55      0.34716858     0.020573808
      1736.29      0.34219253     0.020150373
      1738.03      0.33720878     0.019726283
      1739.76      0.33221977     0.019301745
      1741.50      0.32479485     0.019004329
      1743.24      0.31703397     0.018724248
      1744.99      0.30926057     0.018443715
      1746.73      0.30148010     0.018162927
      1748.48      0.29369581     0.017882002
      1750.23      0.28589902     0.017600625
      1751.98      0.28560808     0.017345862
      1753.73      0.28665150     0.017095607
      1755.48      0.28769543     0.016845229
      1757.24      0.28874089     0.016594485
      1759.00      0.28978744     0.016343480
      1760.76      0.29083508     0.016092213
      1762.52      0.29309009     0.015885209
      1764.28      0.29559635     0.015686998
      1766.04      0.29810521     0.015488581
      1767.81      0.30061650     0.015289972
      1769.58      0.30312901     0.015091267
      1771.35      0.30564533     0.014892260
      1773.12      0.30912573     0.014780855
      1774.89      0.31280611     0.014687236
      1776.67      0.31648777     0.014593585
      1778.44      0.32017550     0.014499779
      1780.22      0.32386652     0.014405889
      1782.00      0.32755958     0.014311948
      1783.79      0.32748931     0.014217919
      1785.57      0.32671113     0.014123810
      1787.36      0.32593215     0.014029604
      1789.14      0.32515237     0.013935301
      1790.93      0.32437222     0.013840953
      1792.72      0.32359090     0.013746464
      1794.52      0.32665106     0.013723414
      1796.31      0.33026579     0.013710645
      1798.11      0.33388593     0.013697857
      1799.90      0.33750976     0.013685055
      1801.70      0.34113728     0.013672241
      1803.51      0.34476627     0.013659421
      1805.31      0.35275111     0.013665040
      1807.12      0.36111593     0.013672243
      1808.92      0.36948922     0.013679453
      1810.73      0.37786590     0.013686666
      1812.54      0.38625560     0.013693890
      1814.36      0.39465434     0.013701121
      1816.17      0.40274871     0.013771126
      1817.99      0.41085126     0.013842246
      1819.80      0.41896197     0.013913438
      1821.62      0.42708085     0.013984701
      1823.45      0.43520735     0.014056032
      1825.27      0.44304017     0.014124302
      1827.09      0.44672244     0.014149407
      1828.92      0.45040841     0.014174537
      1830.75      0.45409634     0.014199681
      1832.58      0.45778969     0.014224861
      1834.41      0.46148673     0.014250067
      1836.25      0.46397898     0.014258303
      1838.08      0.46013173     0.014177384
      1839.92      0.45627859     0.014096342
      1841.76      0.45242135     0.014015213
      1843.61      0.44856053     0.013934009
      1845.45      0.44469767     0.013852762
      1847.29      0.44304928     0.013801469
      1849.14      0.44731901     0.013830315
      1850.99      0.45159043     0.013859172
      1852.84      0.45586890     0.013888077
      1854.69      0.46015132     0.013917009
      1856.55      0.46443797     0.013945969
      1858.41      0.46916986     0.013989123
      1860.26      0.47454877     0.014053018
      1862.12      0.47993581     0.014117010
      1863.99      0.48532815     0.014181064
      1865.85      0.49072332     0.014245153
      1867.72      0.49612662     0.014309338
      1869.58      0.50067148     0.014364359
      1871.45      0.50451018     0.014411845
      1873.33      0.50835039     0.014459349
      1875.20      0.51219662     0.014506928
      1877.07      0.51604685     0.014554556
      1878.95      0.51990084     0.014602231
      1880.83      0.52410732     0.014659291
      1882.71      0.52846592     0.014720329
      1884.59      0.53282905     0.014781430
      1886.48      0.53719669     0.014842595
      1888.37      0.54156604     0.014903783
      1890.25      0.54594246     0.014965071
      1892.15      0.55665029     0.015188492
      1894.04      0.56827927     0.015435459
      1895.93      0.57991426     0.015682554
      1897.83      0.59156650     0.015930016
      1899.73      0.60323075     0.016177732
      1901.62      0.61400421     0.016402518
      1903.53      0.61106182     0.016274519
      1905.43      0.60811641     0.016146389
      1907.34      0.60516816     0.016018135
      1909.24      0.60221859     0.015889824
      1911.15      0.59926431     0.015761307
      1913.06      0.59615890     0.015647359
      1914.98      0.59264572     0.015573383
      1916.89      0.58913096     0.015499374
      1918.81      0.58561083     0.015425252
      1920.73      0.58208711     0.015351054
      1922.65      0.57856003     0.015276785
      1924.57      0.57522395     0.015223645
      1926.50      0.57208023     0.015192103
      1928.42      0.56893333     0.015160528
      1930.35      0.56578343     0.015128924
      1932.28      0.56263194     0.015097304
      1934.21      0.55947546     0.015065634
      1936.15      0.55352234     0.014909851
      1938.08      0.54658242     0.014710287
      1940.02      0.53963156     0.014510408
      1941.96      0.53267413     0.014310341
      1943.91      0.52570926     0.014110060
      1945.85      0.51874150     0.013909935
      1947.79      0.51273503     0.013800618
      1949.74      0.50671914     0.013691129
      1951.69      0.50069760     0.013581538
      1953.64      0.49467342     0.013471898
      1955.60      0.48863944     0.013362080
      1957.55      0.48343385     0.013259348
      1959.51      0.48030088     0.013174422
      1961.47      0.47716636     0.013089453
      1963.43      0.47402714     0.013004357
      1965.40      0.47088461     0.012919172
      1967.36      0.46773914     0.012833907
      1969.33      0.46533715     0.012730482
      1971.30      0.46346354     0.012613956
      1973.27      0.46158807     0.012497315
      1975.24      0.45971179     0.012380623
      1977.22      0.45783249     0.012263744
      1979.20      0.45595145     0.012146756
      1981.18      0.45836443     0.012142400
      1983.16      0.46123687     0.012150036
      1985.14      0.46411055     0.012157675
      1987.12      0.46698865     0.012165326
      1989.11      0.46986977     0.012172985
      1991.10      0.47387991     0.012202364
      1993.09      0.48142314     0.012299699
      1995.09      0.48897377     0.012397131
      1997.08      0.49653226     0.012494663
      1999.08      0.50409445     0.012592244
      2001.08      0.51166773     0.012689967
      2003.08      0.51769038     0.012761312
      2005.08      0.52265819     0.012814704
      2007.09      0.52762842     0.012868123
      2009.09      0.53260622     0.012921622
      2011.10      0.53758916     0.012975177
      2013.11      0.54257422     0.013028755
      2015.13      0.54812021     0.013112246
      2017.14      0.55368863     0.013196737
      2019.16      0.55926245     0.013281309
      2021.18      0.56484200     0.013365969
      2023.20      0.57042425     0.013450670
      2025.22      0.57601436     0.013530273
      2027.25      0.58160921     0.013600809
      2029.28      0.58720643     0.013671375
      2031.31      0.59281241     0.013742051
      2033.34      0.59842412     0.013812799
      2035.37      0.60404123     0.013883616
      2037.41      0.60848698     0.013931354
      2039.44      0.61259863     0.013972454
      2041.48      0.61671422     0.014013594
      2043.53      0.62083400     0.014054775
      2045.57      0.62495550     0.014095973
      2047.61      0.62907237     0.014142346
      2049.66      0.63314910     0.014208708
      2051.71      0.63722754     0.014275097
      2053.76      0.64131278     0.014341597
      2055.82      0.64540191     0.014408161
      2057.87      0.64949492     0.014474787
      2059.93      0.64968396     0.014455393
      2061.99      0.64781824     0.014390728
      2064.05      0.64594943     0.014325956
      2066.12      0.64407885     0.014261122
      2068.18      0.64220760     0.014196266
      2070.25      0.64042319     0.014133838
      2072.32      0.63924973     0.014088628
      2074.39      0.63807531     0.014043380
      2076.47      0.63690019     0.013998106
      2078.55      0.63572327     0.013952762
      2080.62      0.63454525     0.013907376
      2082.71      0.63602050     0.013921213
      2084.79      0.63913260     0.013971589
      2086.87      0.64224944     0.014022042
      2088.96      0.64536920     0.014072542
      2091.05      0.64849225     0.014123095
      2093.14      0.65085526     0.014161140
      2095.23      0.64793685     0.014112263
      2097.33      0.64501538     0.014063336
      2099.43      0.64209119     0.014014362
      2101.52      0.63916564     0.013965366
      2103.63      0.63623532     0.013916290
      2105.73      0.63202118     0.013826670
      2107.84      0.62711805     0.013715289
      2109.94      0.62220752     0.013603740
      2112.05      0.61729188     0.013492074
      2114.17      0.61237111     0.013380293
      2116.28      0.60842510     0.013288885
      2118.40      0.60857700     0.013283128
      2120.52      0.60872907     0.013277365
      2122.64      0.60888127     0.013271596
      2124.76      0.60903355     0.013265825
      2126.88      0.60918607     0.013260045
      2129.01      0.60894215     0.013245342
      2131.14      0.60856950     0.013227737
      2133.27      0.60819667     0.013210123
      2135.40      0.60782329     0.013192483
      2137.54      0.60744953     0.013174824
      2139.68      0.60737822     0.013163336
      2141.82      0.60790754     0.013164119
      2143.96      0.60843778     0.013164904
      2146.10      0.60896849     0.013165689
      2148.25      0.60949951     0.013166475
      2150.40      0.61003131     0.013167262
      2152.55      0.61001732     0.013162427
      2154.70      0.60996279     0.013157170
      2156.86      0.60990822     0.013151908
      2159.01      0.60985362     0.013146644
      2161.17      0.60979893     0.013141371
      2163.33      0.60890718     0.013120259
      2165.50      0.60732457     0.013086076
      2167.66      0.60573946     0.013051838
      2169.83      0.60415292     0.013017570
      2172.00      0.60256477     0.012983267
      2174.17      0.60159235     0.012961563
      2176.35      0.60341225     0.012996997
      2178.52      0.60523399     0.013032466
      2180.70      0.60705756     0.013067972
      2182.88      0.60888196     0.013103493
      2185.07      0.61070921     0.013139070
      2187.25      0.61254072     0.013173792
      2189.44      0.61437378     0.013208358
      2191.63      0.61620969     0.013242978
      2193.82      0.61804725     0.013277629
      2196.01      0.61988685     0.013312318
      2198.21      0.62009118     0.013316944
      2200.41      0.61868775     0.013292010
      2202.61      0.61728197     0.013267034
      2204.81      0.61587495     0.013242036
      2207.02      0.61446716     0.013217025
      2209.22      0.61291911     0.013190876
      2211.43      0.61079523     0.013160136
      2213.64      0.60866901     0.013129362
      2215.86      0.60654184     0.013098574
      2218.07      0.60441140     0.013067738
      2220.29      0.60227883     0.013036872
      2222.51      0.59914940     0.012978847
      2224.73      0.59590752     0.012917767
      2226.96      0.59266066     0.012856594
      2229.19      0.58941023     0.012795353
      2231.42      0.58615873     0.012734092
      2233.65      0.58220081     0.012661072
      2235.88      0.57781039     0.012580853
      2238.12      0.57341518     0.012500546
      2240.36      0.56901565     0.012420160
      2242.60      0.56461372     0.012339730
      2244.84      0.56162342     0.012288060
      2247.08      0.56109162     0.012286463
      2249.33      0.56055964     0.012284865
      2251.58      0.56002680     0.012283265
      2253.83      0.55949337     0.012281664
      2256.09      0.55939293     0.012286390
      2258.34      0.56229443     0.012334956
      2260.60      0.56520032     0.012383596
      2262.86      0.56810904     0.012432284
      2265.12      0.57102058     0.012481018
      2267.39      0.57393370     0.012529779
      2269.66      0.57864638     0.012609824
      2271.93      0.58355089     0.012693202
      2274.20      0.58845803     0.012776624
      2276.47      0.59337256     0.012860173
      2278.75      0.59829184     0.012943802
      2281.03      0.60209252     0.013016710
      2283.31      0.60541712     0.013085080
      2285.59      0.60874314     0.013153479
      2287.88      0.61207450     0.013221988
      2290.17      0.61540907     0.013290563
      2292.46      0.61792465     0.013347215
      2294.75      0.61966956     0.013392671
      2297.04      0.62141613     0.013438171
      2299.34      0.62316438     0.013483714
      2301.64      0.62491356     0.013529282
      2303.94      0.62628156     0.013575874
      2306.25      0.62692963     0.013624312
      2308.55      0.62757831     0.013672798
      2310.86      0.62822734     0.013721308
      2313.17      0.62887733     0.013769891
      2315.49      0.63013847     0.013827446
      2317.80      0.63391836     0.013921866
      2320.12      0.63770024     0.014016336
      2322.44      0.64148770     0.014110945
      2324.76      0.64527874     0.014205644
      2327.09      0.64906263     0.014295766
      2329.41      0.65267932     0.014314953
      2331.74      0.65630132     0.014334168
      2334.08      0.65992674     0.014353401
      2336.41      0.66355405     0.014372644
      2338.75      0.66718706     0.014391918
      2341.08      0.67097648     0.014460177
      2343.43      0.67477788     0.014531075
      2345.77      0.67858086     0.014602003
      2348.12      0.68239019     0.014673050
      2350.46      0.68620268     0.014744155
      2352.81      0.68925958     0.014810807
      2355.17      0.69218703     0.014876702
      2357.52      0.69511935     0.014942706
      2359.88      0.69805440     0.015008772
      2362.24      0.70099248     0.015074906
      2364.60      0.70623387     0.015194626
      2366.97      0.71215334     0.015330117
      2369.33      0.71807831     0.015465735
      2371.70      0.72400878     0.015601478
      2374.08      0.72994230     0.015737291
      2376.45      0.73537676     0.015858592
      2378.83      0.74060934     0.015974007
      2381.20      0.74584407     0.016089470
      2383.59      0.75108741     0.016205123
      2385.97      0.75633557     0.016320882
      2388.36      0.76380000     0.016479792
      2390.75      0.77237380     0.016660309
      2393.14      0.78095111     0.016840901
      2395.53      0.78954156     0.017021769
      2397.93      0.79814078     0.017202821
      2400.32      0.80374907     0.017320795
      2402.72      0.80770057     0.017403825
      2405.13      0.81165568     0.017486931
      2407.53      0.81561520     0.017570130
      2409.94      0.81957594     0.017653354
      2412.35      0.82019807     0.017668379
      2414.76      0.81889901     0.017644158
      2417.18      0.81759863     0.017619913
      2419.59      0.81629772     0.017595658
      2422.01      0.81499472     0.017571363
      2424.44      0.81416201     0.017554918
      2426.86      0.81359195     0.017542855
      2429.29      0.81302102     0.017530775
      2431.72      0.81244946     0.017518680
      2434.15      0.81187738     0.017506575
      2436.58      0.80800577     0.017430182
      2439.02      0.80250425     0.017322031
      2441.46      0.79699447     0.017213717
      2443.90      0.79147917     0.017105296
      2446.34      0.78596111     0.016996819
      2448.79      0.78160938     0.016912138
      2451.24      0.77772414     0.016836976
      2453.69      0.77383502     0.016761739
      2456.14      0.76994397     0.016686465
      2458.60      0.76604711     0.016611078
      2461.06      0.76629040     0.016611029
      2463.52      0.76773161     0.016632776
      2465.98      0.76917340     0.016654531
      2468.45      0.77061732     0.016676319
      2470.92      0.77206282     0.016698130
      2473.39      0.77121640     0.016686272
      2475.86      0.76997847     0.016668664
      2478.34      0.76873932     0.016651039
      2480.82      0.76749882     0.016633394
      2483.30      0.76625722     0.016615734
      2485.78      0.76325160     0.016569919
      2488.27      0.76014935     0.016522565
      2490.76      0.75704405     0.016475165
      2493.25      0.75393753     0.016427746
      2495.74      0.75094083     0.016383161
      2498.24      0.74966687     0.016382296
      2500.74      0.74839167     0.016381430
      2503.24      0.74711597     0.016380564
      2505.74      0.74583828     0.016379697
      2508.25      0.74538526     0.016387173
      2510.75      0.74834339     0.016429119
      2513.26      0.75130325     0.016471089
      2515.78      0.75426743     0.016513120
      2518.29      0.75723448     0.016555192
      2520.81      0.75951860     0.016590301
      2523.33      0.76047544     0.016611882
      2525.86      0.76143321     0.016633483
      2528.38      0.76239199     0.016655108
      2530.91      0.76335179     0.016676755
      2533.44      0.76756405     0.016759718
      2535.98      0.77497056     0.016902905
      2538.51      0.78238492     0.017046244
      2541.05      0.78980213     0.017189638
      2543.59      0.79723076     0.017333253
      2546.13      0.80465266     0.017563382
      2548.68      0.81207606     0.017833236
      2551.23      0.81950301     0.018103219
      2553.78      0.82694135     0.018373617
      2556.34      0.83438680     0.018644273
      2558.89      0.84467270     0.018899245
      2561.45      0.85532193     0.019152290
      2564.01      0.86598844     0.019405744
      2566.58      0.87666511     0.019659440
      2569.14      0.88626637     0.019881621
      2571.71      0.88616978     0.019820135
      2574.28      0.88607304     0.019758549
      2576.86      0.88597620     0.019696904
      2579.44      0.88587926     0.019635195
      2582.01      0.88574819     0.019585192
      2584.60      0.88554965     0.019558277
      2587.18      0.88535092     0.019531336
      2589.77      0.88515208     0.019504380
      2592.36      0.88495295     0.019477385
      2594.95      0.88147036     0.019362043
      2597.55      0.87564961     0.019183786
      2600.14      0.86982667     0.019005462
      2602.74      0.86399387     0.018826836
      2605.35      0.85815615     0.018648060
      2607.95      0.84772930     0.018439549
      2610.56      0.83650098     0.018225821
      2613.17      0.82525479     0.018011753
      2615.79      0.81399703     0.017797464
      2618.40      0.80363788     0.017594341
      2621.02      0.79913087     0.017464343
      2623.64      0.79461672     0.017334139
      2626.26      0.79009836     0.017203814
      2628.89      0.78557495     0.017073343
      2631.52      0.77550436     0.016849279
      2634.15      0.75812026     0.016501765
      2636.79      0.74071682     0.016153865
      2639.42      0.72330693     0.015805836
      2642.06      0.70586801     0.015457227
      2644.70      0.69257947     0.015212964
      2647.35      0.68068139     0.015003715
      2650.00      0.66877013     0.014794234
      2652.65      0.65685448     0.014584676
      2655.30      0.64556333     0.014385051
      2657.96      0.64137458     0.014298741
      2660.61      0.63718390     0.014212392
      2663.27      0.63298667     0.014125907
      2665.94      0.62878521     0.014039336
      2668.60      0.62434553     0.013954635
      2671.27      0.61959770     0.013872469
      2673.94      0.61484204     0.013790167
      2676.62      0.61008205     0.013707791
      2679.29      0.60531684     0.013625324
      2681.97      0.60845737     0.013671427
      2684.66      0.61361644     0.013750350
      2687.34      0.61878021     0.013829344
      2690.03      0.62394680     0.013908382
      2692.72      0.63007782     0.014006696
      2695.41      0.64059664     0.014192844
      2698.11      0.65112500     0.014379160
      2700.81      0.66166480     0.014565679
      2703.51      0.67220841     0.014752265
      2706.21      0.68738022     0.015039363
      2708.92      0.70595666     0.015400408
      2711.62      0.72453981     0.015761583
      2714.34      0.74315311     0.016123345
      2717.05      0.76178484     0.016485464
      2719.77      0.78182535     0.016885395
      2722.49      0.80188891     0.017285871
      2725.21      0.82198130     0.017686922
      2727.94      0.84209530     0.018088405
      2730.66      0.86300326     0.018510559
      2733.39      0.88497771     0.018960563
      2736.13      0.90698558     0.019411251
      2738.86      0.92901704     0.019862422
      2741.60      0.95105635     0.020313755
      2744.34      0.97283743     0.020749913
      2747.09      0.99459586     0.021184119
      2749.84       1.0163756     0.021618749
      2752.59       1.0381766     0.022053803
      2755.34       1.0591332     0.022485697
      2758.09       1.0784123     0.022911466
      2760.85       1.0977102     0.023337650
      2763.61       1.1170183     0.023764061
      2766.38       1.1363555     0.024191113
      2769.14       1.1501497     0.024522315
      2771.91       1.1626667     0.024831500
      2774.69       1.1751904     0.025140849
      2777.46       1.1877328     0.025450661
      2780.24       1.1991547     0.025688003
      2783.02       1.2080234     0.025760924
      2785.80       1.2168960     0.025833877
      2788.59       1.2257826     0.025906945
      2791.38       1.2346778     0.025980083
      2794.17       1.2390927     0.026054926
      2796.96       1.2425191     0.026130250
      2799.76       1.2459488     0.026205646
      2802.56       1.2493820     0.026281121
      2805.36       1.2517680     0.026328345
      2808.17       1.2521813     0.026322386
      2810.98       1.2525954     0.026316416
      2813.79       1.2530098     0.026310440
      2816.60       1.2534244     0.026304462
      2819.42       1.2567833     0.026398691
      2822.24       1.2605126     0.026505510
      2825.06       1.2642461     0.026612449
      2827.88       1.2679809     0.026719425
      2830.71       1.2708006     0.026821787
      2833.54       1.2724878     0.026918363
      2836.38       1.2741766     0.027015031
      2839.21       1.2758662     0.027111749
      2842.05       1.2775606     0.027207278
      2844.90       1.2793608     0.027237778
      2847.74       1.2811627     0.027268308
      2850.59       1.2829655     0.027298852
      2853.44       1.2847710     0.027329443
      2856.29       1.2857833     0.027307244
      2859.15       1.2862915     0.027251475
      2862.01       1.2868000     0.027195682
      2864.87       1.2873093     0.027139803
      2867.74       1.2886830     0.027113771
      2870.60       1.2931863     0.027195998
      2873.47       1.2976968     0.027278357
      2876.35       1.3022116     0.027360794
      2879.22       1.3067305     0.027443308
      2882.10       1.3199080     0.027689968
      2884.99       1.3347939     0.027969014
      2887.87       1.3496938     0.028248320
      2890.76       1.3646087     0.028527909
      2893.65       1.3801728     0.028831755
      2896.54       1.3964861     0.029163290
      2899.44       1.4128145     0.029495132
      2902.34       1.4291609     0.029827337
      2905.24       1.4448628     0.030150984
      2908.15       1.4559418     0.030413149
      2911.06       1.4670309     0.030675556
      2913.97       1.4781313     0.030938226
      2916.88       1.4892363     0.031201008
      2919.80       1.4998235     0.031405482
      2922.72       1.5102789     0.031594625
      2925.64       1.5207405     0.031783878
      2928.57       1.5312169     0.031973400
      2931.50       1.5363448     0.032078920
      2934.43       1.5354731     0.032090206
      2937.36       1.5346006     0.032101503
      2940.30       1.5337276     0.032112806
      2943.24       1.5330111     0.032119697
      2946.18       1.5330756     0.032104661
      2949.13       1.5331400     0.032089619
      2952.08       1.5332046     0.032074553
      2955.03       1.5332692     0.032059472
      2957.99       1.5287162     0.031981390
      2960.94       1.5235293     0.031894654
      2963.90       1.5183347     0.031807789
      2966.87       1.5131345     0.031720830
      2969.84       1.5064083     0.031582711
      2972.81       1.4986924     0.031411396
      2975.78       1.4909643     0.031239812
      2978.76       1.4832280     0.031068046
      2981.73       1.4736859     0.030857346
      2984.72       1.4607499     0.030573468
      2987.70       1.4478023     0.030289334
      2990.69       1.4348409     0.030004898
      2993.68       1.4206911     0.029704275
      2996.67       1.3966079     0.029269264
      2999.67       1.3724853     0.028833543
      3002.67       1.3483391     0.028397397
      3005.67       1.3241832     0.027961073
      3008.68       1.3028862     0.027631055
      3011.69       1.2819747     0.027315714
      3014.70       1.2610429     0.027000065
      3017.71       1.2401009     0.026684263
      3020.73       1.2273915     0.026399972
      3023.75       1.2188551     0.026131608
      3026.78       1.2103098     0.025862963
      3029.80       1.2017610     0.025594209
      3032.83       1.1930291     0.025355931
      3035.87       1.1840925     0.025152904
      3038.90       1.1751516     0.024949780
      3041.94       1.1661978     0.024746361
      3044.98       1.1614653     0.024628524
      3048.03       1.1675345     0.024729718
      3051.08       1.1736099     0.024831018
      3054.13       1.1796883     0.024932367
      3057.18       1.1855592     0.025034744
      3060.24       1.1897159     0.025144165
      3063.30       1.1938743     0.025253630
      3066.36       1.1980394     0.025363270
      3069.43       1.2022084     0.025473015
      3072.50       1.2000595     0.025413418
      3075.57       1.1976246     0.025346157
      3078.65       1.1951858     0.025278789
      3081.73       1.1927446     0.025211351
      3084.81       1.1889072     0.025163269
      3087.89       1.1847537     0.025119543
      3090.98       1.1805940     0.025075752
      3094.07       1.1764300     0.025031915
      3097.17       1.1780057     0.025068667
      3100.26       1.1821772     0.025141884
      3103.36       1.1863530     0.025215177
      3106.47       1.1905331     0.025288544
      3109.58       1.1957439     0.025381851
      3112.68       1.2017105     0.025489781
      3115.80       1.2076865     0.025597880
      3118.91       1.2136686     0.025706089
      3122.03       1.2174875     0.025764448
      3125.15       1.2189407     0.025768253
      3128.28       1.2203954     0.025772063
      3131.41       1.2218514     0.025775875
      3134.54       1.2237766     0.025799548
      3137.67       1.2264216     0.025853644
      3140.81       1.2290690     0.025907790
      3143.95       1.2317191     0.025961991
      3147.10       1.2363149     0.026053416
      3150.24       1.2449740     0.026222579
      3153.39       1.2536418     0.026391913
      3156.55       1.2623184     0.026561417
      3159.70       1.2694768     0.026703431
      3162.86       1.2725189     0.026770918
      3166.03       1.2755641     0.026838473
      3169.19       1.2786121     0.026906090
      3172.36       1.2810248     0.026960774
      3175.54       1.2812879     0.026971688
      3178.71       1.2815512     0.026982613
      3181.89       1.2818147     0.026993543
      3185.07       1.2815511     0.026996913
      3188.26       1.2791833     0.026970061
      3191.45       1.2768133     0.026943185
      3194.64       1.2744408     0.026916279
      3197.83       1.2722097     0.026894353
      3201.03       1.2705991     0.026894221
      3204.23       1.2689867     0.026894089
      3207.44       1.2673736     0.026893958
      3210.64       1.2664203     0.026895675
      3213.85       1.2683873     0.026905550
      3217.07       1.2703551     0.026915428
      3220.28       1.2723259     0.026925322
      3223.51       1.2714847     0.026890123
      3226.73       1.2593557     0.026673991
      3229.96       1.2472148     0.026457646
      3233.19       1.2350675     0.026241187
      3236.42       1.2255261     0.026069964
      3239.66       1.2248914     0.026053375
      3242.90       1.2242565     0.026036779
      3246.14       1.2236206     0.026020158
      3249.39       1.2216043     0.025982450
      3252.64       1.2158175     0.025887161
      3255.89       1.2100246     0.025791771
      3259.14       1.2042296     0.025696346
      3262.40       1.1982666     0.025599902
      3265.67       1.1919670     0.025501557
      3268.93       1.1856641     0.025403159
      3272.20       1.1793518     0.025304615
      3275.47       1.1756657     0.025242978
      3278.75       1.1760832     0.025239016
      3282.03       1.1765012     0.025235048
      3285.31       1.1769196     0.025231075
      3288.60       1.1791162     0.025264395
      3291.88       1.1833019     0.025339431
      3295.18       1.1874890     0.025414494
      3298.47       1.1916831     0.025489680
      3301.77       1.1882952     0.025417067
      3305.07       1.1791028     0.025231307
      3308.38       1.1698962     0.025045257
      3311.69       1.1606801     0.024859016
      3315.00       1.1562760     0.024782392
      3318.31       1.1541796     0.024758352
      3321.63       1.1520822     0.024734301
      3324.95       1.1499817     0.024710212
      3328.28       1.1477818     0.024692494
      3331.61       1.1455566     0.024676390
      3334.94       1.1433277     0.024660260
      3338.27       1.1410966     0.024644113
      3341.61       1.1426773     0.024668878
      3344.95       1.1445391     0.024696666
      3348.30       1.1464017     0.024724466
      3351.65       1.1480562     0.024750092
      3355.00       1.1472174     0.024749509
      3358.35       1.1463781     0.024748926
      3361.71       1.1455375     0.024748342
      3365.07       1.1428408     0.024686296
      3368.44       1.1342348     0.024428507
      3371.81       1.1256150     0.024170306
      3375.18       1.1169864     0.023911844
      3378.56       1.1136001     0.023791679
      3381.94       1.1176262     0.023867080
      3385.32       1.1216543     0.023942520
      3388.70       1.1256883     0.024018068
      3392.09       1.1264058     0.024028818
      3395.48       1.1249053     0.023996232
      3398.88       1.1234025     0.023963596
      3402.28       1.1218983     0.023930928
      3405.68       1.1244890     0.023976808
      3409.09       1.1281136     0.024042517
      3412.49       1.1317400     0.024108259
      3415.91       1.1354037     0.024174724
      3419.32       1.1415504     0.024289839
      3422.74       1.1477001     0.024405011
      3426.17       1.1538591     0.024520356
      3429.59       1.1588096     0.024615004
      3433.02       1.1598186     0.024642119
      3436.45       1.1608292     0.024669275
      3439.89       1.1618408     0.024696458
      3443.33       1.1616274     0.024709356
      3446.78       1.1600586     0.024706443
      3450.22       1.1584891     0.024703529
      3453.67       1.1569171     0.024700610
      3457.13       1.1603606     0.024767715
      3460.58       1.1657224     0.024861604
      3464.04       1.1710929     0.024955646
      3467.51       1.1764683     0.025049774
      3470.98       1.1794097     0.025099638
      3474.45       1.1823193     0.025148921
      3477.92       1.1852301     0.025198225
      3481.40       1.1879634     0.025271297
      3484.88       1.1901875     0.025411086
      3488.37       1.1924126     0.025550933
      3491.86       1.1946411     0.025690996
      3495.35       1.2018688     0.025813546
      3498.84       1.2131884     0.025921714
      3502.34       1.2245254     0.026030048
      3505.84       1.2358735     0.026138488
      3509.35       1.2391148     0.026180406
      3512.86       1.2409115     0.026210482
      3516.37       1.2427089     0.026240570
      3519.89       1.2447535     0.026279844
      3523.41       1.2480724     0.026366760
      3526.93       1.2513930     0.026453717
      3530.46       1.2547186     0.026540807
      3533.99       1.2596477     0.026648672
      3537.53       1.2662675     0.026778436
      3541.06       1.2728936     0.026908325
      3544.60       1.2795230     0.027038277
      3548.15       1.2825935     0.027134964
      3551.70       1.2849034     0.027224584
      3555.25       1.2872143     0.027314242
      3558.80       1.2899478     0.027399422
      3562.36       1.2947089     0.027462364
      3565.92       1.2994721     0.027525332
      3569.49       1.3042427     0.027588399
      3573.06       1.3057488     0.027582010
      3576.64       1.3043840     0.027514532
      3580.21       1.3030178     0.027446984
      3583.79       1.3016510     0.027379409
      3587.38       1.2961883     0.027283259
      3590.96       1.2902976     0.027184073
      3594.55       1.2844046     0.027084847
      3598.15       1.2781963     0.027005457
      3601.75       1.2712366     0.026974669
      3605.35       1.2642699     0.026943849
      3608.96       1.2572965     0.026913000
      3612.56       1.2555740     0.026825522
      3616.18       1.2562473     0.026712064
      3619.79       1.2569214     0.026598491
      3623.41       1.2570693     0.026487170
      3627.04       1.2523206     0.026397055
      3630.66       1.2475668     0.026306842
      3634.29       1.2428111     0.026216594
      3637.93       1.2401184     0.026187623
      3641.57       1.2393688     0.026216351
      3645.21       1.2386185     0.026245108
      3648.86       1.2378673     0.026273895
      3652.50       1.2410121     0.026352217
      3656.16       1.2443674     0.026433275
      3659.81       1.2477263     0.026514420
      3663.47       1.2513871     0.026588409
      3667.14       1.2555175     0.026651426
      3670.80       1.2596519     0.026714502
      3674.48       1.2637903     0.026777641
      3678.15       1.2713906     0.026916773
      3681.83       1.2796141     0.027069580
      3685.51       1.2878507     0.027222631
      3689.20       1.2925321     0.027299379
      3692.88       1.2894516     0.027209574
      3696.58       1.2863661     0.027119626
      3700.27       1.2832776     0.027029590
      3703.98       1.2842625     0.027067120
      3707.68       1.2863095     0.027137918
      3711.39       1.2883574     0.027208745
      3715.10       1.2889013     0.027231647
      3718.81       1.2856165     0.027132528
      3722.53       1.2823305     0.027033370
      3726.26       1.2790390     0.026934048
      3729.98       1.2744120     0.026839896
      3733.71       1.2694157     0.026747160
      3737.45       1.2644116     0.026654278
      3741.18       1.2550403     0.026484499
      3744.93       1.2353399     0.026132852
      3748.67       1.2156203     0.025780860
      3752.42       1.1958917     0.025428708
      3756.17       1.1935104     0.025383304
      3759.93       1.1949353     0.025405204
      3763.69       1.1963610     0.025427113
      3767.45       1.1932377     0.025372421
      3771.22       1.1818552     0.025178647
      3774.99       1.1704609     0.024984673
      3778.77       1.1590548     0.024790498
      3782.54       1.1522543     0.024607110
      3786.33       1.1459520     0.024424638
      3790.11       1.1396432     0.024241976
      3793.90       1.1356515     0.024129607
      3797.70       1.1343860     0.024099945
      3801.50       1.1331190     0.024070250
      3805.30       1.1318661     0.024041735
      3809.10       1.1311218     0.024055198
      3812.91       1.1303767     0.024068674
      3816.73       1.1296310     0.024082163
      3820.54       1.1275624     0.024069338
      3824.36       1.1246334     0.024039387
      3828.19       1.1216999     0.024009391
      3832.02       1.1176217     0.023968749
      3835.85       1.1088422     0.023884396
      3839.68       1.1000488     0.023799908
      3843.52       1.0912469     0.023715340
      3847.37       1.0915734     0.023676111
      3851.22       1.0942374     0.023648461
      3855.07       1.0969025     0.023620798
      3858.92       1.1019538     0.023680181
      3862.78       1.1104550     0.023865563
      3866.64       1.1189605     0.024051039
      3870.51       1.1274646     0.024237361
      3874.38       1.1355389     0.024442190
      3878.26       1.1436168     0.024647109
      3882.13       1.1517069     0.024852339
      3886.02       1.1606272     0.024975018
      3889.90       1.1699742     0.025055844
      3893.79       1.1793299     0.025136745
      3897.69       1.1862891     0.025203583
      3901.59       1.1878608     0.025238820
      3905.49       1.1894341     0.025274092
      3909.39       1.1910080     0.025309379
      3913.30       1.1898309     0.025327134
      3917.22       1.1885479     0.025344238
      3921.13       1.1872636     0.025361359
      3925.06       1.1927576     0.025433713
      3928.98       1.2022649     0.025538764
      3932.91       1.2117869     0.025643978
      3936.84       1.2179802     0.025719114
      3940.78       1.2165218     0.025725072
      3944.72       1.2150611     0.025731038
      3948.67       1.2135991     0.025737011
      3952.61       1.2067536     0.025612952
      3956.57       1.1998437     0.025487401
      3960.52       1.1929270     0.025361727
      3964.48       1.1889972     0.025289720
      3968.45       1.1864400     0.025242373
      3972.42       1.1838815     0.025195003
      3976.39       1.1794082     0.025114776
      3980.37       1.1719547     0.024983411
      3984.35       1.1644980     0.024851990
      3988.33       1.1564742     0.024704025
      3992.32       1.1438517     0.024420888
      3996.31       1.1312160     0.024137455
      4000.31       1.1185680     0.023853746
      4004.31       1.1085584     0.023627167
      4008.31       1.0990521     0.023411474
      4012.32       1.0895366     0.023195569
      4016.33       1.0861147     0.023130386
      4020.35       1.0872180     0.023177146
      4024.37       1.0883223     0.023223952
      4028.40       1.0880124     0.023233862
      4032.42       1.0846981     0.023165401
      4036.46       1.0813805     0.023096870
      4040.50       1.0785882     0.023036633
      4044.54       1.0820570     0.023075447
      4048.58       1.0855273     0.023114278
      4052.63       1.0890033     0.023153172
      4056.68       1.0885354     0.023140156
      4060.74       1.0873457     0.023117637
      4064.80       1.0861541     0.023095083
      4068.86       1.0863486     0.023112215
      4072.93       1.0873819     0.023153364
      4077.01       1.0884162     0.023194555
      4081.08       1.0882303     0.023201582
      4085.17       1.0862838     0.023159323
      4089.25       1.0843353     0.023117020
      4093.34       1.0833333     0.023092692
      4097.43       1.0859847     0.023137748
      4101.53       1.0886387     0.023182849
      4105.63       1.0912403     0.023227008
      4109.74       1.0902803     0.023207295
      4113.85       1.0893199     0.023187574
      4117.96       1.0883579     0.023167821
      4122.08       1.0855897     0.023114029
      4126.20       1.0824499     0.023053232
      4130.33       1.0793052     0.022992341
      4134.46       1.0769807     0.022965871
      4138.59       1.0750861     0.022957422
      4142.73       1.0731883     0.022948959
      4146.88       1.0701308     0.022893856
      4151.02       1.0658821     0.022790840
      4155.18       1.0616288     0.022687714
      4159.33       1.0574750     0.022611686
      4163.49       1.0535138     0.022588658
      4167.65       1.0495488     0.022565608
      4171.82       1.0460448     0.022528973
      4175.99       1.0444730     0.022435424
      4180.17       1.0428997     0.022341787
      4184.35       1.0411958     0.022250564
      4188.54       1.0374695     0.022198582
      4192.72       1.0337415     0.022146576
      4196.92       1.0300079     0.022094491
      4201.11       1.0208618     0.021957849
      4205.31       1.0113176     0.021814987
      4209.52       1.0017589     0.021671910
      4213.73      0.99822264     0.021585749
      4217.94      0.99604422     0.021512414
      4222.16      0.99386227     0.021438960
      4226.38      0.99459127     0.021428178
      4230.61      0.99651285     0.021443057
      4234.84      0.99843642     0.021457952
      4239.08      0.99043067     0.021299777
      4243.32      0.97609055     0.021031169
      4247.56      0.96173557     0.020762282
      4251.81      0.95369954     0.020627333
      4256.06      0.95140264     0.020614074
      4260.32      0.94910362     0.020600802
      4264.58      0.94932705     0.020615736
      4268.84      0.95270762     0.020665973
      4273.11      0.95608936     0.020716226
      4277.38      0.95697791     0.020738907
      4281.66      0.95368538     0.020715328
      4285.94      0.95039135     0.020691738
      4290.23      0.94632287     0.020660615
      4294.52      0.94056197     0.020613015
      4298.81      0.93479845     0.020565392
      4303.11      0.92853760     0.020470929
      4307.42      0.92089277     0.020244337
      4311.72      0.91323927     0.020017488
      4316.04      0.90491767     0.019805913
      4320.35      0.89424673     0.019649159
      4324.67      0.88355888     0.019492157
      4329.00      0.87483526     0.019354222
      4333.33      0.87482351     0.019301035
      4337.66      0.87481175     0.019247770
      4342.00      0.87368516     0.019183482
      4346.34      0.86673095     0.019061795
      4350.69      0.85976970     0.018939986
      4355.04      0.85308560     0.018823298
      4359.39      0.84806107     0.018737272
      4363.75      0.84303147     0.018651159
      4368.12      0.83854861     0.018569968
      4372.48      0.83754817     0.018520188
      4376.86      0.83654661     0.018470352
      4381.23      0.83506589     0.018414589
      4385.61      0.83062322     0.018322239
      4390.00      0.82617609     0.018229796
      4394.39      0.82351142     0.018192287
      4398.79      0.83098527     0.018466990
      4403.18      0.83846327     0.018741847
      4407.59      0.84688007     0.018990228
      4412.00      0.85987488     0.019106592
      4416.41      0.87287402     0.019222994
      4420.82      0.88401282     0.019325451
      4425.25      0.88737890     0.019369532
      4429.67      0.89074869     0.019413662
      4434.10      0.89439101     0.019467242
      4438.54      0.89892521     0.019551966
      4442.97      0.90346690     0.019636831
      4447.42      0.90974068     0.019756437
      4451.86      0.92051621     0.019966353
      4456.32      0.93130830     0.020176592
      4460.77      0.93858492     0.020322648
      4465.24      0.93875609     0.020338958
      4469.70      0.93892735     0.020355277
      4474.17      0.94263568     0.020451350
      4478.65      0.95182791     0.020671058
      4483.12      0.96102916     0.020890982
      4487.61      0.97022652     0.021104248
      4492.09      0.97942975     0.021310052
      4496.59      0.98864100     0.021516035
      4501.08      0.99333325     0.021599606
      4505.58      0.99420591     0.021579667
      4510.09      0.99507942     0.021559707
      4514.60      0.99968115     0.021647453
      4519.12       1.0064887     0.021798914
      4523.63       1.0132999     0.021950456
      4528.16       1.0159226     0.022002396
      4532.69       1.0169432     0.022016234
      4537.22       1.0179641     0.022030077
      4541.76       1.0225209     0.022085570
      4546.30       1.0278128     0.022149722
      4550.85       1.0331092     0.022213929
      4555.40       1.0285204     0.022131191
      4559.95       1.0233108     0.022039218
      4564.51       1.0187857     0.021960320
      4569.08       1.0249075     0.022084582
      4573.65       1.0310319     0.022208896
      4578.22       1.0339801     0.022277643
      4582.80       1.0232828     0.022107571
      4587.38       1.0125798     0.021937408
      4591.97       1.0026639     0.021770885
      4596.56      0.99439703     0.021612190
      4601.16      0.98612313     0.021453361
      4605.76      0.97934624     0.021309885
      4610.37      0.97425774     0.021183782
      4614.98      0.96916116     0.021057478
      4619.59      0.96125102     0.020914798
      4624.21      0.95162811     0.020762154
      4628.84      0.94199095     0.020609284
      4633.47      0.93403197     0.020441949
      4638.10      0.92653460     0.020270480
      4642.74      0.91902934     0.020098830
      4647.38      0.91194128     0.020076945
      4652.03      0.90486243     0.020062576
      4656.68      0.89860047     0.020033967
      4661.34      0.89800014     0.019907494
      4666.00      0.89739891     0.019780835
      4670.67      0.89484201     0.019642910
      4675.33      0.88796905     0.019480352
      4680.01      0.88108530     0.019317540
