# starting wavelength =        3001.3995
# ending wavelength =        8233.0237
# O2 telluric scale =        0
# O2 telluric shift =        0
# H2O telluric scale =        0
# H2O telluric shift =        0
      3002.67      0.48943782     0.071383099
      3005.67      0.44580761     0.070018873
      3008.68      0.44728876     0.068677413
      3011.69      0.46028984     0.067360212
      3014.70      0.46404523     0.066068569
      3017.71      0.45246760     0.064305324
      3020.73      0.45174133     0.063075886
      3023.75      0.47955141     0.061875439
      3026.78      0.45784634     0.060704745
      3029.80      0.47188037     0.059564472
      3032.83      0.45633876     0.058103652
      3035.87      0.45923590     0.057032122
      3038.90      0.48478166     0.055992247
      3041.94      0.47866624     0.054984037
      3044.98      0.47349777     0.054007482
      3048.03      0.49487892     0.052703435
      3051.08      0.46938133     0.051798458
      3054.13      0.47725540     0.050924126
      3057.18      0.48218145     0.050080015
      3060.24      0.49705284     0.048925605
      3063.30      0.51645836     0.048220576
      3066.36      0.53719571     0.047469500
      3069.43      0.56019980     0.046746191
      3072.50      0.58542623     0.045752019
      3075.57      0.59672868     0.045086419
      3078.65      0.59098451     0.044446228
      3081.73      0.59732130     0.043830771
      3084.81      0.59259640     0.042980412
      3087.89      0.57764003     0.042491068
      3090.98      0.55953398     0.041949235
      3094.07      0.54880536     0.041429183
      3097.17      0.52500952     0.040695352
      3100.26      0.52426696     0.040221788
      3103.36      0.52056043     0.039767746
      3106.47      0.51441723     0.039108491
      3109.58      0.48235978     0.038775849
      3112.68      0.47944379     0.038378441
      3115.80      0.48003972     0.037997648
      3118.91      0.47398815     0.037429032
      3122.03      0.45766626     0.037080120
      3125.15      0.44213841     0.036832817
      3128.28      0.45529343     0.036324716
      3131.41      0.44751984     0.036017836
      3134.54      0.45222778     0.035723213
      3137.67      0.44326897     0.035261370
      3140.81      0.44580744     0.034991655
      3143.95      0.44862492     0.034820939
      3147.10      0.45642409     0.034396883
      3150.24      0.46591487     0.034154848
      3153.39      0.46499126     0.033920705
      3156.55      0.48062222     0.033528087
      3159.70      0.49102421     0.033396767
      3162.86      0.49263249     0.033180832
      3166.03      0.50557275     0.032810561
      3169.19      0.51928288     0.032602189
      3172.36      0.52271266     0.032488065
      3175.54      0.52953647     0.032130996
      3178.71      0.54078870     0.031928875
      3181.89      0.57006664     0.031728335
      3185.07      0.58597311     0.031464954
      3188.26      0.59077681     0.031262046
      3191.45      0.58497583     0.030904745
      3194.64      0.58604995     0.030700317
      3197.83      0.59947230     0.030494183
      3201.03      0.59289644     0.030212664
      3204.23      0.60911830     0.029997522
      3207.44      0.62439951     0.029626466
      3210.64      0.62790282     0.029480013
      3213.85      0.63462223     0.029250220
      3217.07      0.65121126     0.028862672
      3220.28      0.66418610     0.028621810
      3223.51      0.68019389     0.028297463
      3226.73      0.67905429     0.028043941
      3229.96      0.67154303     0.027786466
      3233.19      0.66439887     0.027374709
      3236.42      0.67183320     0.027170227
      3239.66      0.66433820     0.026747571
      3242.90      0.65943632     0.026471855
      3246.14      0.65047665     0.026098167
      3249.39      0.65053783     0.025812891
      3252.64      0.65202540     0.025525400
      3255.89      0.65025204     0.025136461
      3259.14      0.64140570     0.024841765
      3262.40      0.62617906     0.024396640
      3265.67      0.62348397     0.024146247
      3268.93      0.62456187     0.023700014
      3272.20      0.61860514     0.023397559
      3275.47      0.60649174     0.022997550
      3278.75      0.60319277     0.022693207
      3282.03      0.59942080     0.022254906
      3285.31      0.59269639     0.021988975
      3288.60      0.58078899     0.021554715
      3291.88      0.57152579     0.021256079
      3295.18      0.55845509     0.020861080
      3298.47      0.55319467     0.020566018
      3301.77      0.54712930     0.020144779
      3305.07      0.55227318     0.019888477
      3308.38      0.55755066     0.019478281
      3311.69      0.54756848     0.019196495
      3315.00      0.55173632     0.018830284
      3318.31      0.55169427     0.018557330
      3321.63      0.56236217     0.018204697
      3324.95      0.57552102     0.017942248
      3328.28      0.59259851     0.017581369
      3331.61      0.59552296     0.017354867
      3334.94      0.60143460     0.017011636
      3338.27      0.60668661     0.016777403
      3341.61      0.61121851     0.016474122
      3344.95      0.61633340     0.016254403
      3348.30      0.61776452     0.015971619
      3351.65      0.62068458     0.015767584
      3355.00      0.62771162     0.015506710
      3358.35      0.62922944     0.015319439
      3361.71      0.63266063     0.015054865
      3365.07      0.63534969     0.014831707
      3368.44      0.64132518     0.014671051
      3371.81      0.64783865     0.014472357
      3375.18      0.64956201     0.014330324
      3378.56      0.65860276     0.014130634
      3381.94      0.66729391     0.014033608
      3385.32      0.66955759     0.013857198
      3388.70      0.67287222     0.013720799
      3392.09      0.67664033     0.013627825
      3395.48      0.68316901     0.013516322
      3398.88      0.68539714     0.013442029
      3402.28      0.68852535     0.013354893
      3405.68      0.69784354     0.013247084
      3409.09      0.69905047     0.013235259
      3412.49      0.70752322     0.013148256
      3415.91      0.71323749     0.013155777
      3419.32      0.71184481     0.013088333
      3422.74      0.71417835     0.013029834
      3426.17      0.72329074     0.013065266
      3429.59      0.73331067     0.013024265
      3433.02      0.74175411     0.013036186
      3436.45      0.74906364     0.013052100
      3439.89      0.75880330     0.013081806
      3443.33      0.75744236     0.013074284
      3446.78      0.76591995     0.013157227
      3450.22      0.77553515     0.013162846
      3453.67      0.78181223     0.013260199
      3457.13      0.78735442     0.013277652
      3460.58      0.78994687     0.013354817
      3464.04      0.78661975     0.013471641
      3467.51      0.79715789     0.013505704
      3470.98      0.79899414     0.013602067
      3474.45      0.79848136     0.013676426
      3477.92      0.80125511     0.013782485
      3481.40      0.79948694     0.013830462
      3484.88      0.79944003     0.013944468
      3488.37      0.79767901     0.014032318
      3491.86      0.79398380     0.014152526
      3495.35      0.79725533     0.014212068
      3498.84      0.80222749     0.014369831
      3502.34      0.80666284     0.014496875
      3505.84      0.80840780     0.014559170
      3509.35      0.81104557     0.014721820
      3512.86      0.81999547     0.014783332
      3516.37      0.81701565     0.014912127
      3519.89      0.82172601     0.014969911
      3523.41      0.82982027     0.015133275
      3526.93      0.83259930     0.015258057
      3530.46      0.84333754     0.015309366
      3533.99      0.84929168     0.015427747
      3537.53      0.86640082     0.015513919
      3541.06      0.87702125     0.015624872
      3544.60      0.88513738     0.015731415
      3548.15      0.89961466     0.015764564
      3551.70      0.91091158     0.015904281
      3555.25      0.91805402     0.015926999
      3558.80      0.93363139     0.016011846
      3562.36      0.95667842     0.016090181
      3565.92      0.96659509     0.016142332
      3569.49      0.97236931     0.016207553
      3573.06      0.97827469     0.016265582
      3576.64      0.98230887     0.016251927
      3580.21      0.98896979     0.016295086
      3583.79      0.99565045     0.016322395
      3587.38       1.0083037     0.016351745
      3590.96       1.0075839     0.016373841
      3594.55       1.0067021     0.016329267
      3598.15       1.0101831     0.016338179
      3601.75       1.0136204     0.016396990
      3605.35       1.0117454     0.016335387
      3608.96       1.0094797     0.016325438
      3612.56       1.0018019     0.016309431
      3616.18      0.99969107     0.016234264
      3619.79      0.99499008     0.016206916
      3623.41      0.99060146     0.016233231
      3627.04      0.99441709     0.016146098
      3630.66      0.99596530     0.016104200
      3634.29      0.99682203     0.016057833
      3637.93      0.99556755     0.016007287
      3641.57      0.99388546     0.015904760
      3645.21      0.99259990     0.015908752
      3648.86      0.98685457     0.015847534
      3652.50      0.98919909     0.015737101
      3656.16      0.99130042     0.015670744
      3659.81      0.99776935     0.015601909
      3663.47       1.0002900     0.015530899
      3667.14       1.0078849     0.015415027
      3670.80       1.0145149     0.015340391
      3674.48       1.0207600     0.015323824
      3678.15       1.0359076     0.015246592
      3681.83       1.0404762     0.015128323
      3685.51       1.0581846     0.015049512
      3689.20       1.0778371     0.014970379
      3692.88       1.0950955     0.014891208
      3696.58       1.1095329     0.014772505
      3700.27       1.0698570     0.020818784
      3703.98       1.0887407     0.020700008
      3707.68       1.1021588     0.020582871
      3711.39       1.1176290     0.020467716
      3715.10       1.1371661     0.020354878
      3718.81       1.1457317     0.020244703
      3722.53       1.1821222     0.020017922
      3726.26       1.2077159     0.019914370
      3729.98       1.2167507     0.019814347
      3733.71       1.2320995     0.019854682
      3737.45       1.2320587     0.019759190
      3741.18       1.2335626     0.019667973
      3744.93       1.2104965     0.019462995
      3748.67       1.1992961     0.019380653
      3752.42       1.1756414     0.019302719
      3756.17       1.1369263     0.019229115
      3759.93       1.1119517     0.019159781
      3763.69       1.0793871     0.019094622
      3767.45       1.0467671     0.019033480
      3771.22       1.0213115     0.018859811
      3774.99      0.98715271     0.018804837
      3778.77      0.96310980     0.018753543
      3782.54      0.94996013     0.018705793
      3786.33      0.92907987     0.018661425
      3790.11      0.92728001     0.018620302
      3793.90      0.93791467     0.018582278
      3797.70      0.94047434     0.018547188
      3801.50      0.94198740     0.018514900
      3805.30      0.93803876     0.018370478
      3809.10      0.94193959     0.018343189
      3812.91      0.94638603     0.018318264
      3816.73      0.94395813     0.018295564
      3820.54      0.94137003     0.018274940
      3824.36      0.92569864     0.018256278
      3828.19      0.90981109     0.018239397
      3832.02      0.90338042     0.018224159
      3835.85      0.88331859     0.018210474
      3839.68      0.87591319     0.018428443
      3843.52      0.86579111     0.018622096
      3847.37      0.86234132     0.018209096
      3851.22      0.87157111     0.018162447
      3855.07      0.87761640     0.018290230
      3858.92      0.88025758     0.018509239
      3862.78      0.89817037     0.018768768
      3866.64      0.90814697     0.019029066
      3870.51      0.91979989     0.019255322
      3874.38      0.93825036     0.019417452
      3878.26      0.93558200     0.019493348
      3882.13      0.96314302     0.019447351
      3886.02      0.98245345     0.019143025
      3889.90       1.0028349     0.018929868
      3893.79       1.0220152     0.018673130
      3897.69       1.0415228     0.018517063
      3901.59       1.0703732     0.018154999
      3905.49       1.0943370     0.017995582
      3909.39       1.1164824     0.017979462
      3913.30       1.1491882     0.018247068
      3917.22       1.1910219     0.018296826
      3921.13       1.2354786     0.017909302
      3925.06       1.2743452     0.017894322
      3928.98       1.3112519     0.017878114
      3932.91       1.3394279     0.017860671
      3936.84       1.3627070     0.017732138
      3940.78       1.3853640     0.017710948
      3944.72       1.4036032     0.017688488
      3948.67       1.4205151     0.017664823
      3952.61       1.4282746     0.017639971
      3956.57       1.4437926     0.017613935
      3960.52       1.4622993     0.017586768
      3964.48       1.4808843     0.017451123
      3968.45       1.4933479     0.017421789
      3972.42       1.4950583     0.017391421
      3976.39       1.4982061     0.017360041
      3980.37       1.4985444     0.017428124
      3984.35       1.4869478     0.017392651
      3988.33       1.4822138     0.017249067
      3992.32       1.4778889     0.017211794
      3996.31       1.4765038     0.017173649
      4000.31       1.4668868     0.017134654
      4004.31       1.4666406     0.017094844
      4008.31       1.4665838     0.016945547
      4012.32       1.4543781     0.016902224
      4016.33       1.4539408     0.016956619
      4020.35       1.4342652     0.016911432
      4024.37       1.4176817     0.016865583
      4028.40       1.4059056     0.016712864
      4032.42       1.3950950     0.016663608
      4036.46       1.3764414     0.016613758
      4040.50       1.3542756     0.016563356
      4044.54       1.3328594     0.016505246
      4048.58       1.3139880     0.016451114
      4052.63       1.2995419     0.016396495
      4056.68       1.2907506     0.016341468
      4060.74       1.2659983     0.016185075
      4064.80       1.2570337     0.016129530
      4068.86       1.2306570     0.016162151
      4072.93       1.2254877     0.016102870
      4077.01       1.2185736     0.015943326
      4081.08       1.2159753     0.015883910
      4085.17       1.2020081     0.015824357
      4089.25       1.1882242     0.015848694
      4093.34       1.1847306     0.016122047
      4097.43       1.1846563     0.015936127
      4101.53       1.1900616     0.015595384
      4105.63       1.1938423     0.015457685
      4109.74       1.1915510     0.015632765
      4113.85       1.1806087     0.015805295
      4117.96       1.1937563     0.015928361
      4122.08       1.2068005     0.016094536
      4126.20       1.2250676     0.016303631
      4130.33       1.2426518     0.016251116
      4134.46       1.2487292     0.016181204
      4138.59       1.2364995     0.016008411
      4142.73       1.2256818     0.015749974
      4146.88       1.2128776     0.015462071
      4151.02       1.2059923     0.015160785
      4155.18       1.1948092     0.014796474
      4159.33       1.1861413     0.014609542
      4163.49       1.1781441     0.014450350
      4167.65       1.1740250     0.014364098
      4171.82       1.1596461     0.014616797
      4175.99       1.1625745     0.014439445
      4180.17       1.1629102     0.014133697
      4184.35       1.1594249     0.014082228
      4188.54       1.1617241     0.014019766
      4192.72       1.1628328     0.013970896
      4196.92       1.1702323     0.013925038
      4201.11       1.1593140     0.013869424
      4205.31       1.1617929     0.013826930
      4209.52       1.1520925     0.013703496
      4213.73       1.1408388     0.013740160
      4217.94       1.1234023     0.013624410
      4222.16       1.1185936     0.013590147
      4226.38       1.1141897     0.013635322
      4230.61       1.1068885     0.013528473
      4234.84       1.1118065     0.013503228
      4239.08       1.1180078     0.013480825
      4243.32       1.1215627     0.013461178
      4247.56       1.1247108     0.013371098
      4251.81       1.1302105     0.013434505
      4256.06       1.1484578     0.013351724
      4260.32       1.1569927     0.013348199
      4264.58       1.1600418     0.013421795
      4268.84       1.1694433     0.013351977
      4273.11       1.1699000     0.013434695
      4277.38       1.1788453     0.013372456
      4281.66       1.1731733     0.013387464
      4285.94       1.1805350     0.013409220
      4290.23       1.1838851     0.013430751
      4294.52       1.1734759     0.013461403
      4298.81       1.1698319     0.013489071
      4303.11       1.1633658     0.013447388
      4307.42       1.1571064     0.013561267
      4311.72       1.1485427     0.013525799
      4316.04       1.1501746     0.013646129
      4320.35       1.1481271     0.013616127
      4324.67       1.1421497     0.013742411
      4329.00       1.1384286     0.013717087
      4333.33       1.1352726     0.013780502
      4337.66       1.1257492     0.013827437
      4342.00       1.1185848     0.013810163
      4346.34       1.1085163     0.013945905
      4350.69       1.1070537     0.013931620
      4355.04       1.0999674     0.014071257
      4359.39       1.0994489     0.014059381
      4363.75       1.0793728     0.014132988
      4368.12       1.0684124     0.014192200
      4372.48       1.0651878     0.014267757
      4376.86       1.0367172     0.014328851
      4381.23       1.0252290     0.014405582
      4385.61       1.0051398     0.014468097
      4390.00      0.99236945     0.014545228
      4394.39      0.98472415     0.014535032
      4398.79      0.97783146     0.014685486
      4403.18      0.96760483     0.014673692
      4407.59      0.95368275     0.014825146
      4412.00      0.95074092     0.014811059
      4416.41      0.94756069     0.014888196
      4420.82      0.95259617     0.015037360
      4425.25      0.96441257     0.015020377
      4429.67      0.97511606     0.015094916
      4434.10      0.99812437     0.015148249
      4438.54       1.0116144     0.015218957
      4442.97       1.0269493     0.015196438
      4447.42       1.0437081     0.015337079
      4451.86       1.0567882     0.015311850
      4456.32       1.0765931     0.015372659
      4460.77       1.0797267     0.015508930
      4465.24       1.0911412     0.015476097
      4469.70       1.1002236     0.015530416
      4474.17       1.1099818     0.015572124
      4478.65       1.1114340     0.015620784
      4483.12       1.1117137     0.015667919
      4487.61       1.1201432     0.015703316
      4492.09       1.1231729     0.015744436
      4496.59       1.1552084     0.015693645
      4501.08       1.1817534     0.015731213
      4505.58       1.2083908     0.015845767
      4510.09       1.2414221     0.015786955
      4514.60       1.2606250     0.015815991
      4519.12       1.2974673     0.015842852
      4523.63       1.3170575     0.015856416
      4528.16       1.3453145     0.015876418
      4532.69       1.3740091     0.015894002
      4537.22       1.3999315     0.015819462
      4541.76       1.4281025     0.015911399
      4546.30       1.4455157     0.015919204
      4550.85       1.4577584     0.015836986
      4555.40       1.4654257     0.015836996
      4559.95       1.4609274     0.015917459
      4564.51       1.4546550     0.015827655
      4569.08       1.4607774     0.015817182
      4573.65       1.4645201     0.015803650
      4578.22       1.4693714     0.015704181
      4582.80       1.4921361     0.015769126
      4587.38       1.5142692     0.015744499
      4591.97       1.5305193     0.015716609
      4596.56       1.5331602     0.015604557
      4601.16       1.5462102     0.015570534
      4605.76       1.5595588     0.015617378
      4610.37       1.5649990     0.015495826
      4614.98       1.5743104     0.015451045
      4619.59       1.5836128     0.015403494
      4624.21       1.5909456     0.015353559
      4628.84       1.5939940     0.015225656
      4633.47       1.5834093     0.015254001
      4638.10       1.5785633     0.015198693
      4642.74       1.5663906     0.015143409
      4647.38       1.5356313     0.015088979
      4652.03       1.5233414     0.014962842
      4656.68       1.5028564     0.014911256
      4661.34       1.4784244     0.014862966
      4666.00       1.4623248     0.014818824
      4670.67       1.4516725     0.014706613
      4675.33       1.4429548     0.014751507
      4680.01       1.4237317     0.014722333
      4684.69       1.4028221     0.014700576
      4689.38       1.3879189     0.014687080
      4694.07       1.3649762     0.014682691
      4698.76       1.3486878     0.014611717
      4703.46       1.3184237     0.014626958
      4708.16       1.3055499     0.014653634
      4712.87       1.2952398     0.014692583
      4717.58       1.2818490     0.014744602
      4722.30       1.2722592     0.014810503
      4727.03       1.2638584     0.014806926
      4731.75       1.2476263     0.015033215
      4736.48       1.2270520     0.015205348
      4741.22       1.2133755     0.015152977
      4745.96       1.1831724     0.015284448
      4750.71       1.1601525     0.015530998
      4755.46       1.1421474     0.015856288
      4760.22       1.1215135     0.016269947
      4764.97       1.1070333     0.016582339
      4769.74       1.0873905     0.017006698
      4774.51       1.0788611     0.017428397
      4779.29       1.0664004     0.017749309
      4784.07       1.0781808     0.018101958
      4788.85       1.0892988     0.018386838
      4793.64       1.1057208     0.018627205
      4798.43       1.1463820     0.018834787
      4803.23       1.1900672     0.019032183
      4808.03       1.2135030     0.019253906
      4812.84       1.2337995     0.019552373
      4817.66       1.2472319     0.020016951
      4822.48       1.2739565     0.020844151
      4827.30       1.2772874     0.021582233
      4832.12       1.2764858     0.021640931
      4836.96       1.2553208     0.022250393
      4841.79       1.2401729     0.022702282
      4846.63       1.2297849     0.023360810
      4851.48       1.1986711     0.024046798
      4856.33       1.1924122     0.024760099
      4861.19       1.1712378     0.025500639
      4866.05       1.1740553     0.026211706
      4870.92       1.1682399     0.027003722
      4875.79       1.2067603     0.027822257
      4880.66       1.2220519     0.028667172
      4885.55       1.2551256     0.029538292
      4890.43       1.2795619     0.030684874
      4895.32       1.3062843     0.031615484
      4900.22       1.3003175     0.032571936
      4905.12       1.3070333     0.033488175
      4910.02       1.3109546     0.034491365
      4914.94       1.3315554     0.035519593
      4919.85       1.3155308     0.036572783
      4924.77       1.3213364     0.037650681
      4929.70       1.2850525     0.038753197
      4934.62       1.2607695     0.039880224
      4939.56       1.2463415     0.041198006
      4944.50       1.2400524     0.042757681
      4949.44       1.2731271     0.044413659
      4954.39       1.3279553     0.032867770
      4959.35       1.3274741     0.034498257
      4964.31       1.3444946     0.036351891
      4969.27       1.3298419     0.038472955
      4974.24       1.3178093     0.040910569
      4979.22       1.3010760     0.043725286
      4984.20       1.2845176     0.045920226
      4989.18       1.2826222     0.049513077
      4994.17       1.2821607     0.053678821
      4999.16       1.3188907     0.058506547
      5004.16       1.3314589     0.064097449
      5009.17       1.3475934     0.069563749
      5014.18       1.3327979     0.076877550
      5019.19       1.3581010     0.085277777
      5024.21       1.3285511     0.094865624
      5029.23       1.3416063      0.10571896
      5034.26       1.3516345      0.11789032
      5039.30       1.3275364      0.12934599
      5044.34       1.3255070      0.14355020
      5049.39       1.3141658      0.14844299
      5054.43       1.3096652      0.12813439
      5059.49       1.2886591      0.11606030
      5064.55       1.3379386      0.11038021
      5069.61       1.2959662      0.11128179
      5074.68       1.1619502      0.17402471
      5079.76       1.1506391      0.17740231
      5084.84       1.1450456      0.17858788
      5089.92       1.1378245      0.18174502
      5095.01       1.1356389      0.18498929
      5100.11       1.1613697      0.19456846
      5105.21       1.1666716      0.19809302
      5110.31       1.1667592      0.19928116
      5115.42       1.1809029      0.20254907
      5120.54       1.1906352      0.20591281
      5125.66       1.2051199      0.20937596
      5130.79       1.2287373      0.21986569
      5135.92       1.2365229      0.22099617
      5141.05       1.2504310      0.22436558
      5146.20       1.2621346      0.22784122
      5151.34       1.2715819      0.23142673
      5156.49       1.2782112      0.24265108
      5161.65       1.2817825      0.24365083
      5166.81       1.2888945      0.24711748
      5171.98       1.2945229      0.25070104
      5177.15       1.3038501      0.25440632
      5182.33       1.3173749      0.25823772
      5187.51       1.3548497      0.26716473
      5192.70       1.3662934      0.27072524
      5197.89       1.3683308      0.27441854
      5203.09       1.3740819      0.27824747
      5208.29       1.3730900      0.27878999
      5213.50       1.3905989      0.29145640
      5218.72       1.3844495      0.29511834
      5223.93       1.3861751      0.29892932
      5229.16       1.3881816      0.30289121
      5234.39       1.3849664      0.30318857
      5239.62       1.3819564      0.31645801
      5244.86       1.3738001      0.32023358
      5250.11       1.3747379      0.32417509
      5255.36       1.3915236      0.32411643
      5260.61       1.4143808      0.32833600
      5265.87       1.4354074      0.34211221
      5271.14       1.4585013      0.34601911
      5276.41       1.4931385      0.35011122
      5281.69       1.5286279      0.34980182
      5286.97       1.5571331      0.35419948
      5292.26       1.5706396      0.36837121
      5297.55       1.5753025      0.37243733
      5302.85       1.5886190      0.37174431
      5308.15       1.5917669      0.37615871
      5313.46       1.5955744      0.39117627
      5318.77       1.5884018      0.39521173
      5324.09       1.5798802      0.39411776
      5329.42       1.5743493      0.39854645
      5334.75       1.5656976      0.40318084
      5340.08       1.5383442      0.41838100
      5345.42       1.5312997      0.41687405
      5350.77       1.5258297      0.42131933
      5356.12       1.5225578      0.42598614
      5361.48       1.5159501      0.44189327
      5366.83       1.5126229      0.43997095
      5372.20       1.5047051      0.44443549
      5377.58       1.5012708      0.44914091
      5382.95       1.4973547      0.45409708
      5388.34       1.4812396      0.46336272
      5393.72       1.4748016      0.46785522
      5399.12       1.4661800      0.47260868
      5404.52       1.4549844      0.47763466
      5409.92       1.4328662      0.48700861
      5415.33       1.4227228      0.49156032
      5420.75       1.4085223      0.49635668
      5426.17       1.3925123      0.50146633
      5431.60       1.3736516      0.51087428
      5437.03       1.3662754      0.51546299
      5442.47       1.3619883      0.52035861
      5447.91       1.3562306      0.51699554
      5453.36       1.3439656      0.53492786
      5458.81       1.3421193      0.53959411
      5464.27       1.3484169      0.54459282
      5469.73       1.3486676      0.54061765
      5475.20       1.3504079      0.55914525
      5480.68       1.3503246      0.56391511
      5486.16       1.3552967      0.56026950
      5491.65       1.3544533      0.56435886
      5497.14       1.3636999      0.58351186
      5502.64       1.3543849      0.58841660
      5508.14       1.3424516      0.58401134
      5513.65       1.3318179      0.58820987
      5519.16       1.3276435      0.60802157
      5524.68       1.3085210      0.60388358
      5530.20       1.2922680      0.60782615
      5535.73       1.2731523      0.61216895
      5541.27       1.2590039      0.63267887
      5546.81       1.2288263      0.62761165
      5552.36       1.1977529      0.63171302
      5557.91       1.1659707      0.65241910
      5563.47       1.1474686      0.64753686
      5569.04       1.1305359      0.65138597
      5574.60       1.1108391      0.65569253
      5580.18       1.0911483      0.66756517
      5585.76       1.0721079      0.67115471
      5591.35       1.0587262      0.67522968
      5596.94       1.0460223      0.69689670
      5602.53       1.0392630      0.69098221
      5608.14       1.0295173      0.69482330
      5613.75       1.0204163      0.69917851
      5619.36       1.0179368      0.71083256
      5624.98       1.0116485      0.71443772
      5630.60       1.0087910      0.71858824
      5636.23       1.0115776      0.73066949
      5641.87       1.0005656      0.73404075
      5647.51      0.98744716      0.73798822
      5653.16      0.96643026      0.73189682
      5658.82      0.94840179      0.75359315
      5664.47      0.94370913      0.75734692
      5670.14      0.93520613      0.75074681
      5675.81      0.92222730      0.77306669
      5681.48      0.90847329      0.77663175
      5687.17      0.88962454      0.76953012
      5692.85      0.88090838      0.79242584
      5698.55      0.86894611      0.79581046
      5704.25      0.85787460      0.78821991
      5709.95      0.84952168      0.79286478
      5715.66      0.83728553      0.81485863
      5721.38      0.82096588      0.80679294
      5727.10      0.81222276      0.81134816
      5732.83      0.80609381      0.83374733
      5738.56      0.80770646      0.82522508
      5744.30      0.80171578      0.82970630
      5750.04      0.78991741      0.85245096
      5755.79      0.78744113      0.84349560
      5761.55      0.78255840      0.84792124
      5767.31      0.78208621      0.87094475
      5773.08      0.78064840      0.86158545
      5778.85      0.77809030      0.86597650
      5784.63      0.77399240      0.88921547
      5790.41      0.77036543      0.87947973
      5796.21      0.76686936      0.88385921
      5802.00      0.77087312      0.90724437
      5807.81      0.77557814      0.89716366
      5813.61      0.77847676      0.90155897
      5819.43      0.77929732      0.92501870
      5825.25      0.78477703      0.91462875
      5831.07      0.79020748      0.91906718
      5836.90      0.80397115      0.92819102
      5842.74      0.81515748      0.93186872
      5848.58      0.82255549      0.93638194
      5854.43      0.82153240      0.94512973
      5860.29      0.82386793      0.94888151
      5866.15      0.82934106      0.95350434
      5872.01      0.83184328      0.96180515
      5877.89      0.83965740      0.96566785
      5883.76      0.84993365      0.95414737
      5889.65      0.85516535      0.97822360
      5895.54      0.86183187      0.98223406
      5901.43      0.87244377      0.96990013
      5907.34      0.87795392      0.99439064
      5913.24      0.88907375      0.99859094
      5919.16      0.90187410      0.98537675
      5925.08      0.91187793       1.0103201
      5931.00      0.91788444      0.99794838
      5936.93      0.92342322       1.0005957
      5942.87      0.93208226       1.0260295
      5948.81      0.93015604       1.0126870
      5954.76      0.92293404       1.0375775
      5960.72      0.91680095       1.0250279
      5966.68      0.90955194       1.0271598
      5972.64      0.90233265       1.0525763
      5978.62      0.89295137       1.0389606
      5984.60      0.88714384       1.0413909
      5990.58      0.88404079       1.0509594
      5996.57      0.88058938       1.0526352
      6002.57      0.87860289       1.0780757
      6008.57      0.87070539       1.0640369
      6014.58      0.86279526       1.0660840
      6020.60      0.85086540       1.0755873
      6026.62      0.85162999       1.0768775
      6032.65      0.85165580       1.0793426
      6038.68      0.84344741       1.0877744
      6044.72      0.84571486       1.0895172
      6050.76      0.86613561       1.0987622
      6056.81      0.87596512       1.0997619
      6062.87      0.87859169       1.1020040
      6068.93      0.88196359       1.1100583
      6075.00      0.88814845       1.1115902
      6081.08      0.89043395       1.1203800
      6087.16      0.89540184       1.1211924
      6093.25      0.89748579       1.1064964
      6099.34      0.90731127       1.1307924
      6105.44      0.91687280       1.1322264
      6111.54      0.92027885       1.1403672
      6117.66      0.92041170       1.1411063
      6123.78      0.91540150       1.1259789
      6129.90      0.90870241       1.1499305
      6136.03      0.90632080       1.1339607
      6142.17      0.90549417       1.1586718
      6148.31      0.90353667       1.1594672
      6154.46      0.90905141       1.1440463
      6160.61      0.92182019       1.1674453
      6166.77      0.93560105       1.1512404
      6172.94      0.93189609       1.1752918
      6179.11      0.92339701       1.1582927
      6185.29      0.91433114       1.1607004
      6191.48      0.90527333       1.1651808
      6197.67      0.89397979       1.1670595
      6203.87      0.87808921       1.1902583
      6210.07      0.85802388       1.1732389
      6216.28      0.84647589       1.1969672
      6222.50      0.83001803       1.1792183
      6228.72      0.81570943       1.1814673
      6234.95      0.79433979       1.1849779
      6241.19      0.78291922       1.1867413
      6247.42      0.77091921       1.1904978
      6253.67      0.77007598       1.1917826
      6259.93      0.77962615       1.1957561
      6266.19      0.79346440       1.1965742
      6272.46      0.81492715       1.1988977
      6278.73      0.84837626       1.2010969
      6285.01      0.87811385       1.2029848
      6291.29      0.90685411       1.2053307
      6297.58      0.93474718       1.2067967
      6303.88      0.96742599       1.2092600
      6310.19      0.99844785       1.2103173
      6316.50       1.0387090       1.2128647
      6322.81       1.0605936       1.2135274
      6329.14       1.0819028       1.1937323
      6335.47       1.0979293       1.2164117
      6341.80       1.0956088       1.1966402
      6348.14       1.0864310       1.2189551
      6354.49       1.0536906       1.1991869
      6360.85       1.0355853       1.2211418
      6367.21       1.0276534       1.2013546
      6373.57       1.0197427       1.2229589
      6379.95       1.0172949       1.2031269
      6386.33       1.0111597       1.2243908
      6392.72       1.0106820       1.2044923
      6399.11       1.0104528       1.2032220
      6405.51       1.0122684       1.2054453
      6411.92       1.0140869       1.2039015
      6418.32       1.0277593       1.2059693
      6424.74       1.0450535       1.2041709
      6431.17       1.0698234       1.2060482
      6437.60       1.0895182       1.2040175
      6444.04       1.1066688       1.2056777
      6450.48       1.1103229       1.2034347
      6456.94       1.0966456       1.2048524
      6463.39       1.0924755       1.2024112
      6469.85       1.0639607       1.2035604
      6476.33       1.0513505       1.2009425
      6482.80       1.0563838       1.2017890
      6489.28       1.0558083       1.1990205
      6495.77       1.0459537       1.1995412
      6502.27       1.0453139       1.1966366
      6508.77       1.0620292       1.1968024
      6515.28       1.0669337       1.1937878
      6521.80       1.0787853       1.1935767
      6528.32       1.0803775       1.1904703
      6534.85       1.0814498       1.1898513
      6541.38       1.0777157       1.1866795
      6547.92       1.0777164       1.1856338
      6554.47       1.0638625       1.1824114
      6561.03       1.0460987       1.1809111
      6567.59       1.0234700       1.1588489
      6574.16      0.99388190       1.1756916
      6580.73      0.96673453       1.1536241
      6587.31      0.94237753       1.1699653
      6593.90      0.91102130       1.1479229
      6600.50      0.88617333       1.1637416
      6607.10      0.86375030       1.1417450
      6613.70      0.83180721       1.1570166
      6620.32      0.81773525       1.1350910
      6626.94      0.81857847       1.1497888
      6633.57      0.82139701       1.1279610
      6640.20      0.81599680       1.1232808
      6646.84      0.81004924       1.1203549
      6653.49      0.80328220       1.1151096
      6660.14      0.79697807       1.1122759
      6666.80      0.79202856       1.1064488
      6673.47      0.78837387       1.1037230
      6680.14      0.78275347       1.0972984
      6686.82      0.77747752       1.0947012
      6693.51      0.79422119       1.0876645
      6700.20      0.80731959       1.0816097
      6706.90      0.78947940       1.0775490
      6713.61      0.75175247       1.0708415
      6720.32      0.72017648       1.0669539
      6727.05      0.68471059       1.0595850
      6733.77      0.64616394       1.0558840
      6740.51      0.59319582       1.0478407
      6747.25      0.54477781       1.0250433
      6754.00      0.50237419       1.0356147
      6760.75      0.46529692       1.0124336
      6767.51      0.43103380       1.0229099
      6774.28      0.40744487       1.0143039
      6781.05      0.40380331       1.0097289
      6787.84      0.41656541       1.0003978
      6794.62      0.45417156      0.97733705
      6801.42      0.48054488      0.98601358
      6808.22      0.50455175      0.96256253
      6815.03      0.54624279      0.97115382
      6821.85      0.58073450      0.94731142
      6828.67      0.62012398      0.93802390
      6835.50      0.64453147      0.94495542
      6842.33      0.66646408      0.92154106
      6849.17      0.69337405      0.92838480
      6856.02      0.70533794      0.90458748
      6862.88      0.70542761      0.89429715
      6869.74      0.70848348      0.88715902
      6876.61      0.70193188      0.87608591
      6883.49      0.69325884      0.88121996
      6890.37      0.69040624      0.85740824
      6897.27      0.68147966      0.84598536
      6904.16      0.68066243      0.83825822
      6911.07      0.67644309      0.82603524
      6917.98      0.67695603      0.80334286
      6924.89      0.67846512      0.80561597
      6931.82      0.66771157      0.79294353
      6938.75      0.66971144      0.78472155
      6945.69      0.67991423      0.77123571
      6952.64      0.68851050      0.74850629
      6959.59      0.69298306      0.74905759
      6966.55      0.69948489      0.73502998
      6973.52      0.71235293      0.72639561
      6980.49      0.71448832      0.71155006
      6987.47      0.71722612      0.68889081
      6994.46      0.72665623      0.68758307
      7001.46      0.73249822      0.67210677
      7008.46      0.73918542      0.64909443
      7015.46      0.74111785      0.64681676
      7022.48      0.74345792      0.62430453
      7029.51      0.74286354      0.60733159
      7036.53      0.75437219      0.60400120
      7043.57      0.76043289      0.58119985
      7050.62      0.74948874      0.56349913
      7057.66      0.74838738      0.55449280
      7064.72      0.73869793      0.53598161
      7071.79      0.74575419      0.53045007
      7078.86      0.74763748      0.50785079
      7085.94      0.72623945      0.48850680
      7093.03      0.71407547      0.48172229
      7100.12      0.70507609      0.45886755
      7107.22      0.70479583      0.43858324
      7114.33      0.70441553      0.42848752
      7121.44      0.71741778      0.40729682
      7128.56      0.72826630      0.38591666
      7135.69      0.73556343      0.37513123
      7142.83      0.74938968      0.35273215
      7149.97      0.76222504      0.32999339
      7157.12      0.77703717      0.31839847
      7164.28      0.79780850      0.29438896
      7171.44      0.82905529      0.26973148
      7178.62      0.83137284      0.25698843
      7185.80      0.84842409      0.23031741
      7192.98      0.85207634      0.20195548
      7200.17      0.77995753      0.17014744
      7207.38      0.81012974      0.15453116
      7214.58      0.83636014      0.12702205
      7221.80      0.86374823      0.10274706
      7229.02      0.85386616     0.093982186
      7236.25      0.87113479     0.075035049
      7243.49      0.91374572     0.060946075
      7250.73      0.93774064     0.055574627
      7257.98      0.95596725     0.042684194
      7265.24      0.95776013     0.033242840
      7272.51      0.95847683     0.029349970
      7279.78      0.95782616     0.023143953
      7287.06      0.95211890     0.019931167
      7294.35      0.94138462     0.018633643
      7301.64      0.93196362     0.018165178
      7308.94      0.92139118     0.017984716
      7316.25      0.91303989     0.017894280
      7323.57      0.89399146     0.017758377
      7330.89      0.88008120     0.017510650
      7338.22      0.86474560     0.017181610
      7345.56      0.85516789     0.016914680
      7352.91      0.83685279     0.016879591
      7360.26      0.82599219     0.016889540
      7367.62      0.81492682     0.016906537
      7374.99      0.81493463     0.016877621
      7382.37      0.82970885     0.016884672
      7389.75      0.83814672     0.016898466
      7397.14      0.84634460     0.016647555
      7404.53      0.84175017     0.016880562
      7411.94      0.84168629     0.016890913
      7419.35      0.84290320     0.016648012
      7426.77      0.84223628     0.016648513
      7434.20      0.83450105     0.016884445
      7441.63      0.81733743     0.016897344
      7449.07      0.80607363     0.016647523
      7456.52      0.79818303     0.016879569
      7463.98      0.78018042     0.016888426
      7471.45      0.76882789     0.016648736
      7478.92      0.75566636     0.016647787
      7486.40      0.73831716     0.016881572
      7493.88      0.70749595     0.016891842
      7501.38      0.69223435     0.016648013
      7508.88      0.67093649     0.016648300
      7516.39      0.65643048     0.016653521
      7523.91      0.64605193     0.016651577
      7531.43      0.63811739     0.016647733
      7538.96      0.62320099     0.016648675
      7546.50      0.59767804     0.016654291
      7554.05      0.57048355     0.016651120
      7561.60      0.54599276     0.016647682
      7569.16      0.52080598     0.016648728
      7576.73      0.48690701     0.016654197
      7584.31      0.47133985     0.016651385
      7591.89      0.46117400     0.016647768
      7599.49      0.46022221     0.016648431
      7607.09      0.45356798     0.016406791
      7614.70      0.44776007     0.016415231
      7622.31      0.44848366     0.016648121
      7629.93      0.44799453     0.016647930
      7637.56      0.45850587     0.016405298
      7645.20      0.47691490     0.016412481
      7652.85      0.50041356     0.016648985
      7660.50      0.52500504     0.016647546
      7668.16      0.55181368     0.016403531
      7675.83      0.58503470     0.016409131
      7683.50      0.61362131     0.016418074
      7691.19      0.63691120     0.016647770
      7698.88      0.65477983     0.016648184
      7706.58      0.67875598     0.016405602
      7714.29      0.69989834     0.016412402
      7722.00      0.72287097     0.016422293
      7729.73      0.74155847     0.016647523
      7737.45      0.73751965     0.016402752
      7745.19      0.73191921     0.016407082
      7752.94      0.73383165     0.016414308
      7760.69      0.73127255     0.016424388
      7768.45      0.73326680     0.016401403
      7776.22      0.74758533     0.016403046
      7784.00      0.74577034     0.016407398
      7791.78      0.73667331     0.016414395
      7799.57      0.72931136     0.016424060
      7807.37      0.76055480     0.011521099
      7815.18      0.75941329     0.011521320
      7822.99      0.75877486     0.011599536
      7830.82      0.75186744     0.011600617
      7838.65      0.74514077     0.011521431
      7846.49      0.73635435     0.011521117
      7854.34      0.73035084     0.011521191
      7862.19      0.72050571     0.011521644
      7870.05      0.71030975     0.011600056
      7877.93      0.69624748     0.011521756
      7885.80      0.67857762     0.011521250
      7893.69      0.66250866     0.011521099
      7901.58      0.64999229     0.011521291
      7909.49      0.63567145     0.011521813
      7917.40      0.62475375     0.011442359
      7925.31      0.61415481     0.011443487
      7933.24      0.60097448     0.011521229
      7941.17      0.59140512     0.011521099
      7949.11      0.58166158     0.011521271
      7957.06      0.57077827     0.011441464
      7965.02      0.55101328     0.011442182
      7972.98      0.53818066     0.011443168
      7980.96      0.53314061     0.011444401
      7988.94      0.52081041     0.011445880
      7996.93      0.51403815     0.011440903
      8004.93      0.50591013     0.011441184
      8012.93      0.48581221     0.011441703
      8020.95      0.47091597     0.011442445
      8028.97      0.46213664     0.011443405
      8036.99      0.45264139     0.011366534
      8045.03      0.44722704     0.011366364
      8053.08      0.43818259     0.011366397
      8061.13      0.43743758     0.011366625
      8069.20      0.43355433     0.011367042
      8077.26      0.43858210     0.011442188
      8085.34      0.43683368     0.011532167
      8093.43      0.43985271     0.011714213
      8101.52      0.44335031     0.011646000
      8109.62      0.44899659     0.011840706
      8117.73      0.45029108     0.012060606
      8125.85      0.45102033     0.012312013
      8133.98      0.45287369     0.012622413
      8142.11      0.45149753     0.012995050
      8150.25      0.45125169     0.013443802
      8158.41      0.45115085     0.013992612
      8166.56      0.45009515     0.014672768
      8174.73      0.44599276     0.015526613
      8182.91      0.44620728     0.016607735
      8191.09      0.45072228     0.017607453
      8199.28      0.45704543     0.019256624
      8207.48      0.46750260     0.021358875
      8215.69      0.47862900     0.024035942
      8223.91      0.48818601     0.027438186
      8232.13      0.49319595     0.031750297
