# starting wavelength =        2551.1580
# ending wavelength =        6775.9058
# O2 telluric scale =        0
# O2 telluric shift =        0
# H2O telluric scale =        0
# H2O telluric shift =        0
      2551.23      0.30375595     0.042092824
      2553.78      0.32852194     0.041405043
      2556.34      0.33588406     0.040729570
      2558.89      0.32808641     0.040068677
      2561.45      0.32024557     0.039424542
      2564.01      0.33119902     0.038799172
      2566.58      0.35846769     0.038194411
      2569.14      0.35457870     0.037491945
      2571.71      0.31804456     0.036936472
      2574.28      0.30894292     0.036405716
      2576.86      0.30840430     0.035900569
      2579.44      0.32026475     0.035421672
      2582.01      0.33681337     0.034861677
      2584.60      0.35022431     0.034439703
      2587.18      0.36580067     0.034044305
      2589.77      0.36945374     0.033675143
      2592.36      0.38288901     0.033240394
      2594.95      0.39211983     0.032924083
      2597.55      0.39050773     0.032631557
      2600.14      0.39357419     0.032361676
      2602.74      0.40908857     0.032032805
      2605.35      0.43307304     0.031805888
      2607.95      0.43895997     0.031597031
      2610.56      0.45610779     0.031404547
      2613.17      0.48301897     0.031149424
      2615.79      0.49468356     0.030985129
      2618.40      0.49759492     0.030831687
      2621.02      0.48392245     0.030617460
      2623.64      0.48014002     0.030480172
      2626.26      0.48805894     0.030347953
      2628.89      0.51154019     0.030144816
      2631.52      0.52695140     0.030016801
      2634.15      0.52458423     0.029887887
      2636.79      0.51820571     0.029685729
      2639.42      0.51808222     0.029595313
      2642.06      0.51978042     0.029450163
      2644.70      0.49663702     0.029223371
      2647.35      0.50096934     0.029057063
      2650.00      0.50635461     0.028800467
      2652.65      0.50312417     0.028607974
      2655.30      0.49597602     0.028401248
      2657.96      0.48641455     0.028140868
      2660.61      0.47748776     0.027900657
      2663.27      0.48416238     0.027563525
      2665.94      0.49846539     0.027291110
      2668.60      0.47547611     0.027004252
      2671.27      0.45039101     0.026621237
      2673.94      0.41825938     0.026337779
      2676.62      0.41961469     0.025929081
      2679.29      0.42255369     0.025593757
      2681.97      0.43933035     0.025165934
      2684.66      0.43639158     0.024817378
      2687.34      0.43472157     0.024407534
      2690.03      0.43460052     0.024053352
      2692.72      0.42008044     0.023624829
      2695.41      0.42315262     0.023275372
      2698.11      0.42070845     0.022930203
      2700.81      0.43575182     0.022534279
      2703.51      0.44938618     0.022128698
      2706.21      0.46542535     0.021808159
      2708.92      0.48086704     0.021449148
      2711.62      0.48462354     0.021153324
      2714.34      0.49269462     0.020813244
      2717.05      0.49123902     0.020548493
      2719.77      0.48924553     0.020259652
      2722.49      0.49612731     0.020030259
      2725.21      0.49638184     0.019764103
      2727.94      0.51435817     0.019595412
      2730.66      0.52840056     0.019375713
      2733.39      0.53708579     0.019184100
      2736.13      0.53626930     0.019079055
      2738.86      0.54023789     0.018934260
      2741.60      0.53836043     0.018850614
      2744.34      0.54351098     0.018778126
      2747.09      0.54365803     0.018703901
      2749.84      0.55125831     0.018683778
      2752.59      0.55657522     0.018684945
      2755.34      0.55521174     0.018704613
      2758.09      0.56197443     0.018712627
      2760.85      0.56350658     0.018778310
      2763.61      0.57612765     0.018851529
      2766.38      0.58171089     0.018955422
      2769.14      0.58447540     0.019037724
      2771.91      0.57785826     0.019154491
      2774.69      0.56345916     0.019305882
      2777.46      0.56380396     0.019421073
      2780.24      0.56977080     0.019622344
      2783.02      0.58173365     0.019756449
      2785.80      0.58762606     0.019951005
      2788.59      0.59025844     0.020103047
      2791.38      0.58407966     0.020279214
      2794.17      0.58643733     0.020489236
      2796.96      0.58679556     0.020644327
      2799.76      0.58375031     0.020883058
      2802.56      0.61016895     0.026016704
      2805.36      0.60047404     0.026200890
      2808.17      0.60909413     0.026472207
      2810.98      0.62329580     0.026693665
      2813.79      0.62236665     0.026938553
      2816.60      0.62461320     0.027071790
      2819.42      0.61561246     0.027348024
      2822.24      0.61913593     0.027447579
      2825.06      0.59780907     0.027623261
      2827.88      0.60649296     0.027779701
      2830.71      0.58917910     0.027895626
      2833.54      0.59732057     0.028015214
      2836.38      0.59589015     0.028028648
      2839.21      0.59392382     0.028111821
      2842.05      0.62166388     0.028177969
      2844.90      0.62925174     0.028221076
      2847.74      0.64682707     0.028256608
      2850.59      0.65284729     0.028194721
      2853.44      0.65621442     0.028203023
      2856.29      0.64616726     0.028198515
      2859.15      0.63832863     0.028103437
      2862.01      0.65548230     0.028156358
      2864.87      0.65192685     0.028119511
      2867.74      0.66095456     0.027998676
      2870.60      0.67334368     0.027944291
      2873.47      0.67330300     0.027882564
      2876.35      0.67192026     0.027814350
      2879.22      0.65290263     0.027667676
      2882.10      0.64587344     0.027662891
      2884.99      0.64061758     0.027619563
      2887.87      0.64781232     0.027439027
      2890.76      0.63793301     0.027342413
      2893.65      0.64152856     0.027257012
      2896.54      0.64959077     0.027178607
      2899.44      0.64580744     0.027036365
      2902.34      0.65172556     0.026961680
      2905.24      0.65292296     0.026884565
      2908.15      0.65937356     0.026802823
      2911.06      0.66596968     0.026646763
      2913.97      0.67600861     0.026550994
      2916.88      0.68236277     0.026446640
      2919.80      0.67568421     0.026333129
      2922.72      0.68397689     0.026211341
      2925.64      0.67775459     0.026014579
      2928.57      0.67486778     0.025874939
      2931.50      0.67395894     0.025727534
      2934.43      0.68355184     0.025573465
      2937.36      0.68915251     0.025414095
      2940.30      0.67645192     0.025251013
      2943.24      0.66665865     0.025029346
      2946.18      0.67278490     0.024864181
      2949.13      0.67034441     0.024700658
      2952.08      0.66067021     0.024540973
      2955.03      0.66776072     0.024387574
      2957.99      0.67521461     0.024243241
      2960.94      0.67705400     0.024029787
      2963.90      0.68604225     0.023849974
      2966.87      0.68131196     0.023588878
      2969.84      0.67100081     0.023350223
      2972.81      0.67240821     0.023159768
      2975.78      0.67332776     0.022966729
      2978.76      0.67701319     0.022771934
      2981.73      0.68265043     0.022576332
      2984.72      0.67658901     0.022380938
      2987.70      0.67592445     0.022186854
      2990.69      0.67032986     0.021924575
      2993.68      0.68105154     0.021737541
      2996.67      0.68724036     0.021555370
      2999.67      0.67304925     0.021379220
      3002.67      0.66947648     0.021210122
      3005.67      0.66554085     0.021049583
      3008.68      0.66175001     0.020833226
      3011.69      0.66558565     0.020693460
      3014.70      0.65969921     0.020565171
      3017.71      0.65344445     0.020449339
      3020.73      0.65900863     0.020346926
      3023.75      0.65617433     0.020203261
      3026.78      0.66031576     0.020131892
      3029.80      0.66836178     0.020076649
      3032.83      0.67973928     0.020038278
      3035.87      0.67754532     0.019965827
      3038.90      0.68486769     0.019963780
      3041.94      0.69125930     0.020031923
      3044.98      0.69199752     0.020021628
      3048.03      0.68315224     0.020075701
      3051.08      0.68975392     0.020147215
      3054.13      0.68556760     0.020235502
      3057.18      0.68983315     0.020296319
      3060.24      0.68659259     0.020415609
      3063.30      0.70536281     0.020548226
      3066.36      0.70570030     0.020713767
      3069.43      0.70562900     0.020869028
      3072.50      0.70310274     0.021032539
      3075.57      0.69970313     0.021161154
      3078.65      0.69274733     0.021334350
      3081.73      0.69462286     0.021466352
      3084.81      0.70539025     0.021712320
      3087.89      0.70504415     0.021885909
      3090.98      0.70723036     0.022009193
      3094.07      0.70875279     0.022171953
      3097.17      0.72063886     0.022326551
      3100.26      0.71218925     0.022489727
      3103.36      0.71744795     0.022618658
      3106.47      0.72121052     0.022680242
      3109.58      0.72327705     0.022809011
      3112.68      0.73992156     0.022868964
      3115.80      0.75011778     0.022914951
      3118.91      0.74160551     0.022891550
      3122.03      0.73695741     0.022911518
      3125.15      0.72782865     0.022973864
      3128.28      0.72339271     0.022894166
      3131.41      0.72198802     0.022855314
      3134.54      0.73253052     0.022730396
      3137.67      0.75195435     0.022701990
      3140.81      0.75115319     0.022531162
      3143.95      0.75067930     0.022339601
      3147.10      0.74421288     0.022247727
      3150.24      0.74920408     0.022019017
      3153.39      0.76009188     0.021849031
      3156.55      0.76575001     0.021646507
      3159.70      0.77133331     0.021459782
      3162.86      0.77895985     0.021206160
      3166.03      0.79667946     0.021054792
      3169.19      0.79606136     0.020805566
      3172.36      0.79816665     0.020601659
      3175.54      0.79248138     0.020478625
      3178.71      0.79890534     0.020230809
      3181.89      0.79971916     0.020113421
      3185.07      0.81266955     0.019932417
      3188.26      0.81537142     0.019825923
      3191.45      0.82977331     0.019763436
      3194.64      0.83957238     0.019646026
      3197.83      0.83146693     0.019547537
      3201.03      0.82459217     0.019516391
      3204.23      0.82809138     0.019497352
      3207.44      0.81917169     0.019451395
      3210.64      0.82181297     0.019534964
      3213.85      0.82739314     0.019498111
      3217.07      0.82375700     0.019536642
      3220.28      0.82378807     0.019587330
      3223.51      0.80942202     0.019661991
      3226.73      0.80124649     0.019699327
      3229.96      0.79857300     0.019839817
      3233.19      0.80104513     0.019895194
      3236.42      0.79960416     0.020012115
      3239.66      0.79343967     0.020135691
      3242.90      0.78977541     0.020246702
      3246.14      0.80026416     0.020379845
      3249.39      0.79716622     0.020457702
      3252.64      0.78540586     0.020602176
      3255.89      0.81438204     0.020690143
      3259.14      0.82245652     0.020892870
      3262.40      0.83382409     0.020963361
      3265.67      0.85193215     0.021014001
      3268.93      0.86206223     0.021114402
      3272.20      0.86357185     0.021145898
      3275.47      0.86272359     0.021274826
      3278.75      0.84686265     0.021348713
      3282.03      0.83243165     0.021357982
      3285.31      0.83946198     0.021422011
      3288.60      0.82955404     0.021485482
      3291.88      0.83816781     0.021491370
      3295.18      0.84614312     0.021495587
      3298.47      0.84690741     0.021568390
      3301.77      0.84271949     0.021524819
      3305.07      0.83409170     0.021526149
      3308.38      0.83543813     0.021518115
      3311.69      0.83095031     0.021450402
      3315.00      0.83044760     0.021425685
      3318.31      0.83655083     0.021393473
      3321.63      0.84289278     0.021354428
      3324.95      0.85008672     0.021260012
      3328.28      0.86406051     0.021209899
      3331.61      0.87630873     0.021155000
      3334.94      0.88544112     0.021095963
      3338.27      0.90375091     0.020986836
      3341.61      0.93253367     0.020921502
      3344.95      0.92946236     0.020853830
      3348.30      0.94071860     0.020784353
      3351.65      0.94353941     0.020713546
      3355.00      0.94286206     0.020596822
      3358.35      0.92523295     0.020564523
      3361.71      0.91774959     0.020466153
      3365.07      0.91221032     0.020382401
      3368.44      0.91017197     0.020309851
      3371.81      0.91885529     0.020245685
      3375.18      0.92114325     0.020144723
      3378.56      0.92708397     0.020090556
      3381.94      0.93562752     0.020038751
      3385.32      0.93813552     0.019987987
      3388.70      0.94232696     0.019886744
      3392.09      0.95565033     0.019835250
      3395.48      0.95649133     0.019782551
      3398.88      0.95864931     0.019728409
      3402.28      0.97280130     0.019672952
      3405.68      0.98719111     0.019615821
      3409.09      0.99294991     0.019557868
      3412.49       1.0006682     0.019456439
      3415.91       1.0065097     0.019352807
      3419.32      0.99965292     0.019297878
      3422.74       1.0094386     0.019246005
      3426.17       1.0153422     0.019198625
      3429.59       1.0096913     0.019157387
      3433.02       1.0008303     0.019078777
      3436.45      0.99346864     0.019056177
      3439.89      0.99307181     0.019046129
      3443.33      0.99427892     0.019051365
      3446.78      0.99811800     0.019033140
      3450.22      0.99458697     0.019005668
      3453.67      0.99315562     0.019022403
      3457.13      0.99166482     0.019093106
      3460.58       1.0073919     0.019088389
      3464.04       1.0125753     0.019133825
      3467.51       1.0354238     0.019189734
      3470.98       1.0446355     0.019219081
      3474.45       1.0517870     0.019298045
      3477.92       1.0615385     0.019389056
      3481.40       1.0713185     0.019492660
      3484.88       1.0844439     0.019573302
      3488.37       1.1114062     0.019703603
      3491.86       1.1146420     0.019813586
      3495.35       1.1201707     0.020027154
      3498.84       1.1217092     0.020200360
      3502.34       1.1150403     0.020353818
      3505.84       1.1079396     0.020553948
      3509.35       1.1042121     0.020766393
      3512.86       1.1019498     0.020987034
      3516.37       1.0965201     0.021264411
      3519.89       1.0844054     0.021461056
      3523.41       1.0736016     0.021706596
      3526.93       1.0792054     0.021961645
      3530.46       1.0796917     0.022188412
      3533.99       1.0802054     0.022515397
      3537.53       1.0776227     0.022739059
      3541.06       1.0765432     0.022989222
      3544.60       1.0739313     0.023186350
      3548.15       1.0894998     0.023477877
      3551.70       1.0909289     0.023633144
      3555.25       1.0935607     0.023809038
      3558.80       1.1010097     0.023972512
      3562.36       1.1028006     0.024086833
      3565.92       1.1099527     0.024110718
      3569.49       1.1310384     0.024149734
      3573.06       1.1332007     0.024151359
      3576.64       1.1465852     0.024052479
      3580.21       1.1535209     0.023975805
      3583.79       1.1501276     0.023850641
      3587.38       1.1537157     0.023706146
      3590.96       1.1530278     0.023513860
      3594.55       1.1648754     0.023319436
      3598.15       1.1511852     0.023040894
      3601.75       1.1405190     0.022795819
      3605.35       1.1294270     0.022573017
      3608.96       1.1334526     0.022238707
      3612.56       1.1172260     0.021962248
      3616.18       1.1168464     0.021718739
      3619.79       1.1247118     0.021455179
      3623.41       1.1164383     0.021177066
      3627.04       1.1095149     0.021037957
      3630.66       1.1148092     0.020774657
      3634.29       1.1081949     0.020588534
      3637.93       1.0907403     0.020459130
      3641.57       1.0848882     0.020356169
      3645.21       1.0664003     0.020262524
      3648.86       1.0548916     0.020288908
      3652.50       1.0539357     0.020280506
      3656.16       1.0536341     0.020359865
      3659.81       1.0543745     0.020441417
      3663.47       1.0460489     0.020643886
      3667.14       1.0391938     0.020809929
      3670.80       1.0317652     0.021071267
      3674.48       1.0301648     0.021367721
      3678.15       1.0015567     0.021725415
      3681.83       1.0154834     0.022009348
      3685.51       1.0277444     0.022387849
      3689.20       1.0354811     0.022822996
      3692.88       1.0377102     0.023233701
      3696.58       1.0582877     0.023750347
      3700.27       1.0790781     0.024209702
      3703.98       1.0844468     0.024802804
      3707.68       1.0964576     0.025384783
      3711.39       1.1290255     0.025881046
      3715.10       1.1397215     0.026474015
      3718.81       1.1330124     0.027068387
      3722.53       1.1374265     0.027460122
      3726.26       1.1511082     0.027953337
      3729.98       1.1254646     0.028381912
      3733.71       1.1261678     0.028659542
      3737.45       1.1102023     0.028970358
      3741.18       1.1051065     0.029275775
      3744.93       1.0943874     0.029386920
      3748.67       1.0892518     0.029533201
      3752.42       1.0871005     0.029638081
      3756.17       1.0713724     0.029714523
      3759.93       1.0384883     0.029712034
      3763.69       1.0276543     0.029779557
      3767.45      0.99094578     0.029874064
      3771.22      0.96888772     0.030024501
      3774.99      0.97468186     0.030023998
      3778.77       1.0090099     0.029874901
      3782.54       1.0196922     0.029820977
      3786.33       1.0226039     0.029822802
      3790.11       1.0464175     0.029919823
      3793.90       1.0662290     0.029860339
      3797.70       1.0790583     0.029839776
      3801.50       1.1069899     0.029791251
      3805.30       1.1336063     0.029832905
      3809.10       1.1265951     0.029898816
      3812.91       1.1467913     0.029984712
      3816.73       1.1493679     0.030086129
      3820.54       1.1484457     0.030139349
      3824.36       1.1468141     0.030256258
      3828.19       1.1108855     0.030373144
      3832.02       1.1292397     0.030484395
      3835.85       1.1152977     0.030517463
      3839.68       1.1180031     0.030604316
      3843.52       1.1403139     0.030601968
      3847.37       1.1380413     0.030633342
      3851.22       1.1769774     0.030633573
      3855.07       1.1687529     0.030599031
      3858.92       1.1935399     0.030526606
      3862.78       1.2194838     0.030340750
      3866.64       1.2187957     0.030182655
      3870.51       1.2312055     0.029980726
      3874.38       1.2444050     0.029734538
      3878.26       1.2682900     0.029362321
      3882.13       1.2942288     0.029027268
      3886.02       1.3018719     0.028652520
      3889.90       1.3172901     0.028150284
      3893.79       1.3331575     0.027611477
      3897.69       1.3316559     0.027048666
      3901.59       1.3140831     0.026343492
      3905.49       1.3177861     0.025697165
      3909.39       1.3311377     0.025021331
      3913.30       1.3579828     0.024307669
      3917.22       1.3447186     0.023548514
      3921.13       1.3538729     0.022814683
      3925.06       1.3422414     0.022197743
      3928.98       1.3332575     0.021404449
      3932.91       1.3542456     0.020608409
      3936.84       1.3434025     0.019960048
      3940.78       1.3681845     0.019359772
      3944.72       1.3539929     0.018728212
      3948.67       1.3504365     0.018213002
      3952.61       1.3623905     0.017682525
      3956.57       1.3662954     0.017246900
      3960.52       1.3698004     0.016797994
      3964.48       1.3625712     0.016442099
      3968.45       1.3547351     0.016086405
      3972.42       1.3480313     0.015835684
      3976.39       1.3490712     0.015542921
      3980.37       1.3454052     0.015337537
      3984.35       1.3403194     0.015165099
      3988.33       1.3338606     0.015050316
      3992.32       1.3252785     0.014945428
      3996.31       1.3091904     0.014930586
      4000.31       1.2957139     0.014903628
      4004.31       1.2886686     0.014910771
      4008.31       1.2906921     0.015008789
      4012.32       1.2878567     0.015086936
      4016.33       1.2898738     0.015235183
      4020.35       1.2773877     0.015363599
      4024.37       1.2727344     0.015525966
      4028.40       1.2545426     0.015736698
      4032.42       1.2632041     0.015895348
      4036.46       1.2666638     0.016097983
      4040.50       1.2641449     0.016331394
      4044.54       1.2607841     0.016522564
      4048.58       1.2392186     0.016715184
      4052.63       1.2492690     0.016970313
      4056.68       1.2400665     0.017153774
      4060.74       1.2444649     0.017374993
      4064.80       1.2625823     0.017565544
      4068.86       1.2652458     0.017769528
      4072.93       1.2818877     0.017913771
      4077.01       1.2949255     0.018044245
      4081.08       1.2976855     0.018155286
      4085.17       1.3065640     0.018251108
      4089.25       1.3079388     0.018272906
      4093.34       1.2999650     0.018303081
      4097.43       1.2978070     0.018299167
      4101.53       1.2971867     0.018260943
      4105.63       1.2860713     0.018152058
      4109.74       1.2784565     0.018044256
      4113.85       1.2872408     0.017902781
      4117.96       1.2678690     0.017700037
      4122.08       1.2627554     0.017520581
      4126.20       1.2617919     0.017245611
      4130.33       1.2561043     0.016966591
      4134.46       1.2526451     0.016661406
      4138.59       1.2646011     0.016318241
      4142.73       1.2475697     0.015977399
      4146.88       1.2214114     0.015625709
      4151.02       1.2082954     0.015252983
      4155.18       1.1936817     0.014895586
      4159.33       1.1908455     0.014541966
      4163.49       1.1709521     0.014187364
      4167.65       1.1737589     0.013854683
      4171.82       1.1604075     0.013538013
      4175.99       1.1324574     0.013228414
      4180.17       1.1228643     0.012953204
      4184.35       1.1168493     0.012702428
      4188.54       1.1108268     0.012477939
      4192.72       1.1120623     0.012269631
      4196.92       1.1121586     0.012100024
      4201.11       1.1089864     0.011959257
      4205.31       1.1099500     0.011847399
      4209.52       1.1042536     0.011764167
      4213.73       1.0989390     0.011691506
      4217.94       1.0977855     0.011662452
      4222.16       1.0972839     0.011659572
      4226.38       1.0917978     0.011681760
      4230.61       1.0857074     0.011727852
      4234.84       1.0807231     0.011810016
      4239.08       1.0858697     0.011875962
      4243.32       1.1000855     0.011955677
      4247.56       1.1080681     0.012084394
      4251.81       1.1019632     0.012234159
      4256.06       1.1110065     0.012403086
      4260.32       1.1202224     0.012589171
      4264.58       1.1253420     0.012778378
      4268.84       1.1237374     0.012992242
      4273.11       1.1218089     0.013216552
      4277.38       1.1233179     0.013448889
      4281.66       1.1097341     0.013671262
      4285.94       1.1018491     0.013911264
      4290.23       1.1037221     0.014153019
      4294.52       1.1023456     0.014505423
      4298.81       1.1023918     0.014627550
      4303.11       1.1074825     0.014819372
      4307.42       1.0894249     0.015035439
      4311.72       1.0860738     0.015243384
      4316.04       1.0684590     0.015476069
      4320.35       1.0482873     0.015703744
      4324.67       1.0384663     0.015899355
      4329.00       1.0235457     0.016091903
      4333.33      0.99891128     0.016257488
      4337.66      0.97795871     0.016358110
      4342.00      0.97247583     0.016451938
      4346.34      0.99921093     0.016544998
      4350.69       1.0017962     0.016460453
      4355.04       1.0182901     0.016386318
      4359.39       1.0243010     0.016229887
      4363.75       1.0352212     0.016067163
      4368.12       1.0450601     0.015826722
      4372.48       1.0390830     0.015663024
      4376.86       1.0213009     0.015372526
      4381.23       1.0208883     0.015097429
      4385.61       1.0382698     0.014837795
      4390.00       1.0749254     0.014561424
      4394.39       1.0973860     0.014323901
      4398.79       1.1353057     0.014133567
      4403.18       1.1624882     0.013945985
      4407.59       1.1985704     0.013753144
      4412.00       1.2279076     0.013451904
      4416.41       1.2590151     0.013249928
      4420.82       1.2809256     0.013017928
      4425.25       1.2870114     0.012837520
      4429.67       1.3097213     0.012617967
      4434.10       1.3393320     0.012403958
      4438.54       1.3656811     0.012246985
      4442.97       1.3825212     0.012055469
      4447.42       1.4011390     0.011904102
      4451.86       1.4105418     0.011751534
      4456.32       1.4244035     0.011599367
      4460.77       1.4226280     0.011485277
      4465.24       1.4179826     0.011375675
      4469.70       1.4170126     0.011267256
      4474.17       1.4040437     0.011192241
      4478.65       1.3888625     0.011139309
      4483.12       1.3705866     0.011083644
      4487.61       1.3506086     0.011066774
      4492.09       1.3509805     0.011024942
      4496.59       1.3564207     0.011015284
      4501.08       1.3740016     0.010998083
      4505.58       1.3711740     0.011009175
      4510.09       1.3713811     0.011008514
      4514.60       1.3743631     0.011053171
      4519.12       1.3664030     0.011064409
      4523.63       1.3782944     0.011100573
      4528.16       1.3696071     0.011118405
      4532.69       1.3701408     0.011157196
      4537.22       1.3716850     0.011211813
      4541.76       1.3767057     0.011224230
      4546.30       1.3947520     0.011251750
      4550.85       1.4129943     0.011249124
      4555.40       1.4261533     0.011258040
      4559.95       1.4315190     0.011254597
      4564.51       1.4265078     0.011217583
      4569.08       1.4180301     0.011184992
      4573.65       1.4250227     0.011135857
      4578.22       1.4198982     0.011052051
      4582.80       1.4125678     0.010969543
      4587.38       1.4170682     0.010881518
      4591.97       1.4103080     0.010743618
      4596.56       1.4131220     0.010612901
      4601.16       1.4069692     0.010473861
      4605.76       1.3991162     0.010314500
      4610.37       1.3904524     0.010160814
      4614.98       1.3871243     0.010001012
      4619.59       1.3723403    0.0098365917
      4624.21       1.3676499    0.0096601108
      4628.84       1.3575168    0.0094920004
      4633.47       1.3489989    0.0093244919
      4638.10       1.3401751    0.0091593493
      4642.74       1.3447111    0.0089982878
      4647.38       1.3334225    0.0088325889
      4652.03       1.3220148    0.0086981938
      4656.68       1.3146068    0.0085285660
      4661.34       1.3089705    0.0083962784
      4666.00       1.3070757    0.0082778747
      4670.67       1.3044962    0.0081730730
      4675.33       1.2992864    0.0080817146
      4680.01       1.2923141    0.0080049893
      4684.69       1.2844410    0.0079180919
      4689.38       1.2734898    0.0078643958
      4694.07       1.2763213    0.0078270897
      4698.76       1.2637630    0.0078058646
      4703.46       1.2518024    0.0077886892
      4708.16       1.2414707    0.0077862584
      4712.87       1.2298795    0.0078033113
      4717.58       1.2195660    0.0078324102
      4722.30       1.2069664    0.0078637062
      4727.03       1.1918136    0.0079169626
      4731.75       1.1815137    0.0079816173
      4736.48       1.1723293    0.0080480416
      4741.22       1.1558325    0.0081353224
      4745.96       1.1488627    0.0082321761
      4750.71       1.1395410    0.0083312369
      4755.46       1.1306740    0.0084477667
      4760.22       1.1255563    0.0085738648
      4764.97       1.1232308    0.0087232466
      4769.74       1.1062719    0.0088699600
      4774.51       1.1028169    0.0089960281
      4779.29       1.1049707    0.0091441453
      4784.07       1.1062451    0.0092868793
      4788.85       1.1169689    0.0094417066
      4793.64       1.1236967    0.0096003127
      4798.43       1.1298814    0.0097789682
      4803.23       1.1304828    0.0099493268
      4808.03       1.1302459     0.010208990
      4812.84       1.1322078     0.010288797
      4817.66       1.1376447     0.010380546
      4822.48       1.1350292     0.010548862
      4827.30       1.1378345     0.010713171
      4832.12       1.1462573     0.010906615
      4836.96       1.1517371     0.011131832
      4841.79       1.1552975     0.011396275
      4846.63       1.1576439     0.011663110
      4851.48       1.1605182     0.011938113
      4856.33       1.1625437     0.012263227
      4861.19       1.1595045     0.012581992
      4866.05       1.1628393     0.012905138
      4870.92       1.1786601     0.013294432
      4875.79       1.1767305     0.013630042
      4880.66       1.1689609     0.013970880
      4885.55       1.1711614     0.014366830
      4890.43       1.1761812     0.014731931
      4895.32       1.1642243     0.015112227
      4900.22       1.1626613     0.015560838
      4905.12       1.1642712     0.016009656
      4910.02       1.1780217     0.016482868
      4914.94       1.1835028     0.017019425
      4919.85       1.1803255     0.017752419
      4924.77       1.1716213     0.018620953
      4929.70       1.1637236     0.019955822
      4934.62       1.1766060     0.021145820
      4939.56       1.1826596     0.021590657
      4944.50       1.1945624     0.022763868
      4949.44       1.2005824     0.024111161
      4954.39       1.2066104     0.025476185
      4959.35       1.2172560     0.026955281
      4964.31       1.2094534     0.028454867
      4969.27       1.2117958     0.030195392
      4974.24       1.2095148     0.032290916
      4979.22       1.2212305     0.034187679
      4984.20       1.2041373     0.036062557
      4989.18       1.2070798     0.037671912
      4994.17       1.1996420     0.039253620
      4999.16       1.1885865     0.040530351
      5004.16       1.1935081     0.041275319
      5009.17       1.1829814     0.041632971
      5014.18       1.1849876     0.041364323
      5019.19       1.1751752     0.040411852
      5024.21       1.1891908     0.038645763
      5029.23       1.2009449     0.036161935
      5034.26       1.2121920     0.032410961
      5039.30       1.2272975     0.029496853
      5044.34       1.2155540     0.024653446
      5049.39       1.1530577     0.021159803
      5054.43       1.1860386     0.018595617
      5059.49       1.1547630     0.016531026
      5064.55       1.1619268     0.014866943
      5069.61       1.1604403     0.014061297
      5074.68       1.1759034     0.012876962
      5079.76       1.1751276     0.012484560
      5084.84       1.1757649     0.011591963
      5089.92       1.1763718     0.010314766
      5095.01       1.1756698    0.0088768834
      5100.11       1.1798775    0.0075189260
      5105.21       1.1821144    0.0063004249
      5110.31       1.1856234    0.0041806293
      5115.42       1.1890955    0.0037113099
      5120.54       1.1933633    0.0034729846
      5125.66       1.1974563    0.0034234488
      5130.79       1.2027435    0.0035023593
      5135.92       1.2089239    0.0038075909
      5141.05       1.2135626    0.0045578621
      5146.20       1.2184390    0.0049270498
      5151.34       1.2230869    0.0053704936
      5156.49       1.2297728    0.0058131836
      5161.65       1.2349097    0.0062253098
      5166.81       1.2376666    0.0066393911
      5171.98       1.2439606    0.0071441159
      5177.15       1.2452317    0.0073408959
      5182.33       1.2407574    0.0079665309
      5187.51       1.2488950    0.0088361041
      5192.70       1.2376548    0.0097543272
      5197.89       1.2373209     0.010752673
      5203.09       1.2670133     0.011984926
      5208.29       1.2830794     0.012357135
      5213.50       1.2704282     0.012860780
      5218.72       1.2807117     0.012667078
      5223.93       1.3006488     0.012426004
      5229.16       1.3285927     0.012003642
      5234.39       1.3410988     0.011449982
      5239.62       1.3420795     0.010926823
      5244.86       1.3491706     0.010357424
      5250.11       1.3437239    0.0098762427
      5255.36       1.3403067    0.0094785707
      5260.61       1.3369186    0.0090941845
      5265.87       1.3369636    0.0088119038
      5271.14       1.3351119    0.0086039127
      5276.41       1.3289995    0.0085124961
      5281.69       1.3283673    0.0084836299
      5286.97       1.3203082    0.0085146880
      5292.26       1.3162476    0.0086379298
      5297.55       1.3136253    0.0088143578
      5302.85       1.3097709    0.0090674240
      5308.15       1.3007551    0.0093391564
      5313.46       1.3011867    0.0095870913
      5318.77       1.2891510    0.0098995408
      5324.09       1.2849058     0.010204335
      5329.42       1.2807710     0.010475800
      5334.75       1.2864696     0.010754393
      5340.08       1.2960660     0.010975376
      5345.42       1.2977419     0.011187583
      5350.77       1.2913299     0.011352968
      5356.12       1.3032507     0.011444628
      5361.48       1.3065854     0.011459782
      5366.83       1.3143822     0.011449211
      5372.20       1.3019218     0.011382807
      5377.58       1.3011920     0.011301229
      5382.95       1.3010292     0.011211193
      5388.34       1.2841532     0.011112881
      5393.72       1.2823791     0.010996921
      5399.12       1.2886946     0.010889137
      5404.52       1.2832082     0.010814239
      5409.92       1.2774762     0.010759441
      5415.33       1.2709298     0.010758718
      5420.75       1.2761930     0.010763260
      5426.17       1.2601076     0.010837899
      5431.60       1.2641392     0.010939966
      5437.03       1.2683523     0.011061149
      5442.47       1.2716572     0.011231500
      5447.91       1.2657117     0.011425457
      5453.36       1.2686771     0.011604564
      5458.81       1.2651185     0.011813486
      5464.27       1.2642262     0.012018514
      5469.73       1.2552144     0.012162911
      5475.20       1.2549841     0.012249563
      5480.68       1.2583750     0.012305930
      5486.16       1.2516020     0.012266289
      5491.65       1.2458414     0.012126806
      5497.14       1.2521331     0.011914882
      5502.64       1.2471440     0.011604294
      5508.14       1.2511318     0.011233815
      5513.65       1.2395876     0.010805707
      5519.16       1.2302647     0.010297817
      5524.68       1.2133204    0.0098114585
      5530.20       1.2073676    0.0093227363
      5535.73       1.1987051    0.0088506781
      5541.27       1.1831544    0.0083688208
      5546.81       1.1616650    0.0079437244
      5552.36       1.1577917    0.0075534158
      5557.91       1.1437206    0.0072029429
      5563.47       1.1344741    0.0068738806
      5569.04       1.1253780    0.0066222425
      5574.60       1.1146628    0.0064121151
      5580.18       1.1071645    0.0062382586
      5585.76       1.0938351    0.0061290605
      5591.35       1.0843152    0.0060664386
      5596.94       1.0744209    0.0060390231
      5602.53       1.0674369    0.0060579893
      5608.14       1.0616612    0.0061068328
      5613.75       1.0547853    0.0061837123
      5619.36       1.0493732    0.0062755450
      5624.98       1.0473534    0.0063943011
      5630.60       1.0357789    0.0065140805
      5636.23       1.0270544    0.0066373409
      5641.87       1.0163440    0.0067733028
      5647.51       1.0099013    0.0068911362
      5653.16       1.0041356    0.0070339600
      5658.82      0.99818767    0.0071298221
      5664.47      0.99346082    0.0072447994
      5670.14      0.99150425    0.0073526804
      5675.81      0.98742281    0.0074516601
      5681.48      0.97439289    0.0075699915
      5687.17      0.96004471    0.0076721070
      5692.85      0.95362973    0.0077719857
      5698.55      0.94959606    0.0078716682
      5704.25      0.94243915    0.0079818019
      5709.95      0.93986162    0.0081258248
      5715.66      0.93937670    0.0082735033
      5721.38      0.93293981    0.0084165879
      5727.10      0.93494459    0.0086063661
      5732.83      0.92741442    0.0087829564
      5738.56      0.92452133    0.0089939799
      5744.30      0.92233803    0.0091940292
      5750.04      0.92260207    0.0093730463
      5755.79      0.91286616    0.0095888064
      5761.55      0.90294513    0.0097926593
      5767.31      0.89764378    0.0099520035
      5773.08      0.89703632     0.010119544
      5778.85      0.89480057     0.010251218
      5784.63      0.89554255     0.010355684
      5790.41      0.90728902     0.010492925
      5796.21      0.91853147     0.010355952
      5802.00      0.92140156     0.010204570
      5807.81      0.90932489    0.0099813038
      5813.61      0.90522763    0.0097162183
      5819.43      0.90992366    0.0093981587
      5825.25      0.90693528    0.0091034110
      5831.07      0.90708663    0.0087694286
      5836.90      0.89992975    0.0084362993
      5842.74      0.90267527    0.0080892141
      5848.58      0.89320446    0.0077848597
      5854.43      0.88816716    0.0075170500
      5860.29      0.88802284    0.0072878627
      5866.15      0.89058736    0.0070950115
      5872.01      0.88383886    0.0069740688
      5877.89      0.87913022    0.0069279994
      5883.76      0.87643886    0.0069683913
      5889.65      0.87664486    0.0070857970
      5895.54      0.87987928    0.0071109382
      5901.43      0.88150388    0.0072645409
      5907.34      0.88079259    0.0074812065
      5913.24      0.88792363    0.0077177133
      5919.16      0.89855584    0.0079270698
      5925.08      0.91570667    0.0082077258
      5931.00      0.91590693    0.0084959878
      5936.93      0.91646599    0.0087921285
      5942.87      0.91445025    0.0090962443
      5948.81      0.91449515    0.0092217426
      5954.76      0.91496897    0.0093746083
      5960.72      0.90951004    0.0095148358
      5966.68      0.91320877    0.0095923763
      5972.64      0.91366455    0.0096804374
      5978.62      0.90456259    0.0096066525
      5984.60      0.89175272    0.0094954019
      5990.58      0.88242630    0.0093752431
      5996.57      0.87534176    0.0092383610
      6002.57      0.85849784    0.0091232134
      6008.57      0.85629788    0.0090349059
      6014.58      0.84772035    0.0089731768
      6020.60      0.83494058    0.0088986541
      6026.62      0.82993477    0.0088568303
      6032.65      0.83199923    0.0088745851
      6038.68      0.83624085    0.0089250421
      6044.72      0.83970194    0.0090248756
      6050.76      0.83891617    0.0091929417
      6056.81      0.85210452    0.0093655424
      6062.87      0.86257028    0.0095440250
      6068.93      0.87016256    0.0097378590
      6075.00      0.87549213    0.0099302203
      6081.08      0.87644763     0.010041596
      6087.16      0.87365035     0.010137942
      6093.25      0.87871852     0.010219713
      6099.34      0.88554024     0.010307306
      6105.44      0.88723949     0.010257088
      6111.54      0.88066920     0.010143533
      6117.66      0.86369062     0.010013618
      6123.78      0.84632980    0.0098991693
      6129.90      0.83326620    0.0096935450
      6136.03      0.82758596    0.0094170859
      6142.17      0.82938483    0.0091677395
      6148.31      0.82311820    0.0088848213
      6154.46      0.80436428    0.0085743628
      6160.61      0.78783002    0.0083165587
      6166.77      0.77529594    0.0080617196
      6172.94      0.76207635    0.0078158353
      6179.11      0.75783061    0.0075974790
      6185.29      0.75468533    0.0073997068
      6191.48      0.74246500    0.0072613089
      6197.67      0.73688038    0.0071485374
      6203.87      0.73263795    0.0070613216
      6210.07      0.72428781    0.0070045149
      6216.28      0.72389647    0.0069537936
      6222.50      0.72767995    0.0069185324
      6228.72      0.71466809    0.0068712031
      6234.95      0.71337491    0.0068265650
      6241.19      0.71419525    0.0066969954
      6247.42      0.73857447    0.0065736942
      6253.67      0.75456509    0.0064147005
      6259.93      0.76379784    0.0062408293
      6266.19      0.77412265    0.0060193597
      6272.46      0.77642079    0.0058063036
      6278.73      0.78974038    0.0055861837
      6285.01      0.80174448    0.0053646610
      6291.29      0.81436354    0.0051433775
      6297.58      0.82454512    0.0049286923
      6303.88      0.83581036    0.0047183229
      6310.19      0.84686953    0.0045384736
      6316.50      0.85737232    0.0043885551
      6322.81      0.86757141    0.0042812893
      6329.14      0.87627743    0.0042198154
      6335.47      0.88451219    0.0042220248
      6341.80      0.89091188    0.0042816051
      6348.14      0.89609593    0.0043976998
      6354.49      0.90095845    0.0045889690
      6360.85      0.90628005    0.0048516091
      6367.21      0.90890995    0.0051805163
      6373.57      0.91219673    0.0055706923
      6379.95      0.91339112    0.0060342201
      6386.33      0.91465042    0.0064586405
      6392.72      0.90881424    0.0069808062
      6399.11      0.92147076    0.0076069889
      6405.51      0.94019585    0.0082795202
      6411.92      0.95122335    0.0090188072
      6418.32      0.94278234    0.0098289286
      6424.74      0.95107764     0.010743423
      6431.17      0.94577845     0.011665509
      6437.60      0.94433737     0.012640334
      6444.04      0.95869819     0.013588472
      6450.48      0.95524264     0.014485414
      6456.94      0.96342080     0.015286812
      6463.39      0.97272730     0.015948262
      6469.85      0.98545185     0.016430147
      6476.33       1.0020178     0.016735115
      6482.80      0.98698726     0.016898501
      6489.28      0.97252776     0.017392842
      6495.77      0.98020089     0.016659106
      6502.27      0.97073454     0.016139206
      6508.77      0.97479253     0.015702965
      6515.28      0.96903714     0.015404406
      6521.80      0.97470412     0.014782648
      6528.32      0.97576891     0.014193105
      6534.85      0.97596314     0.013640175
      6541.38      0.96491343     0.013127955
      6547.92      0.96140177     0.012613313
      6554.47      0.95410123     0.012136330
      6561.03      0.94049627     0.011697783
      6567.59      0.92621790     0.011251662
      6574.16      0.90453935     0.010717414
      6580.73      0.88982043     0.010384309
      6587.31      0.87246009     0.010072070
      6593.90      0.85039524    0.0098068275
      6600.50      0.83938167    0.0095756043
      6607.10      0.82658001    0.0094129662
      6613.70      0.81575523    0.0093044743
      6620.32      0.79839463    0.0092293186
      6626.94      0.79470035    0.0091772339
      6633.57      0.78233755    0.0091987240
      6640.20      0.76922312    0.0092606906
      6646.84      0.77471664    0.0093985286
      6653.49      0.75795389    0.0095965746
      6660.14      0.77115797    0.0096758037
      6666.80      0.77581505    0.0096631880
      6673.47      0.76366549    0.0097758250
      6680.14      0.76541814    0.0099113886
      6686.82      0.76301518     0.010104984
      6693.51      0.76351121     0.010113045
      6700.20      0.76112575     0.010209946
      6706.90      0.75607893     0.010312465
      6713.61      0.74826243     0.010437124
      6720.32      0.74005173     0.010518485
      6727.05      0.74093023     0.010506757
      6733.77      0.73240136     0.010511784
      6740.51      0.72668671     0.010519729
      6747.25      0.71265982     0.010551132
      6754.00      0.70876542     0.010597505
      6760.75      0.71101414     0.010617922
      6767.51      0.70415493     0.010700550
      6774.28      0.70168163     0.010823680
