# starting wavelength =        2616.5070
# ending wavelength =        8635.3271
# O2 telluric scale =        0
# O2 telluric shift =        0
# H2O telluric scale =        0
# H2O telluric shift =        0
      2618.40      0.48412277      0.22137789
      2621.02      0.54381829      0.21501004
      2623.64      0.55944582      0.20936567
      2626.26      0.54346374      0.20381574
      2628.89      0.55842103      0.19767091
      2631.52      0.56313169      0.19179660
      2634.15      0.52904702      0.18567207
      2636.79      0.52783391      0.17932148
      2639.42      0.55597216      0.17501791
      2642.06      0.57569768      0.16967052
      2644.70      0.54010007      0.16310716
      2647.35      0.50072656      0.15772472
      2650.00      0.49284812      0.15234663
      2652.65      0.46329603      0.14541295
      2655.30      0.50516505      0.13964696
      2657.96      0.51932982      0.13449960
      2660.61      0.54565658      0.12964886
      2663.27      0.53404950      0.12517796
      2665.94      0.46562794      0.12093754
      2668.60      0.45339667      0.11696454
      2671.27      0.47039346      0.11316139
      2673.94      0.52854920      0.10971632
      2676.62      0.59241632      0.10663584
      2679.29      0.68191424      0.10415459
      2681.97      0.70653948      0.10278741
      2684.66      0.76943384      0.10133336
      2687.34      0.80211862      0.10169450
      2690.03      0.80639786     0.099748941
      2692.72      0.86081135     0.096639718
      2695.41      0.94097538     0.095773448
      2698.11      0.94869047     0.093137272
      2700.81      0.98933864     0.090611140
      2703.51       1.0203978     0.088581857
      2706.21       1.0634907     0.087747858
      2708.92       1.1165420     0.088387520
      2711.62       1.1419519     0.085924768
      2714.34       1.1916767     0.083125574
      2717.05       1.2399671     0.080816770
      2719.77       1.2866684     0.078597645
      2722.49       1.3149621     0.076721632
      2725.21       1.3491030     0.074855949
      2727.94       1.3607382     0.073238555
      2730.66       1.4088180     0.072023021
      2733.39       1.4620688     0.070965736
      2736.13       1.4623010     0.070186009
      2738.86       1.4557961     0.069446667
      2741.60       1.4586882     0.068737321
      2744.34       1.4857725     0.068021381
      2747.09       1.5012982     0.067385332
      2749.84       1.5265788     0.066772255
      2752.59       1.5532562     0.066037634
      2755.34       1.5469047     0.065696583
      2758.09       1.5724540     0.064661164
      2760.85       1.6147067     0.063500010
      2763.61       1.6227983     0.062956316
      2766.38       1.6504277     0.063204050
      2769.14       1.6744096     0.063762817
      2771.91       1.6912592     0.062128278
      2774.69       1.6798961     0.058396591
      2777.46       1.7177131     0.056364431
      2780.24       1.7766641     0.055259553
      2783.02       1.8279403     0.054397476
      2785.80       1.8623736     0.053715853
      2788.59       1.8721345     0.053430347
      2791.38       1.8892200     0.053377273
      2794.17       1.9342065     0.053760764
      2796.96       1.9757273     0.055237648
      2799.76       2.0216169     0.054530816
      2802.56       2.0993927     0.054115835
      2805.36       2.1251049     0.054125085
      2808.17       2.1748265     0.054430809
      2810.98       2.2476638     0.054643636
      2813.79       2.2965919     0.055681254
      2816.60       2.3344393     0.055529096
      2819.42       2.3701090     0.055473481
      2822.24       2.3830527     0.054907663
      2825.06       2.4026852     0.054087469
      2827.88       2.4401596     0.052958002
      2830.71       2.4424047     0.051786099
      2833.54       2.4533460     0.050421244
      2836.38       2.4414825     0.048221174
      2839.21       2.4156476     0.047305700
      2842.05       2.3936987     0.047067584
      2844.90       2.3561957     0.047211180
      2847.74       2.3009441     0.046240867
      2850.59       2.2852917     0.045609909
      2853.44       2.2480935     0.044452390
      2856.29       2.1990355     0.043794336
      2859.15       2.1877960     0.043528815
      2862.01       2.1660594     0.043685997
      2864.87       2.1242821     0.043982083
      2867.74       2.0478610     0.044186972
      2870.60       1.9834778     0.044348316
      2873.47       1.9396194     0.044568847
      2876.35       1.9097238     0.045430397
      2879.22       1.9004518     0.046103008
      2882.10       1.8767419     0.044970871
      2884.99       1.8431978     0.043748255
      2887.87       1.7685329     0.042912378
      2890.76       1.7056360     0.042222156
      2893.65       1.6745925     0.040875750
      2896.54       1.6658894     0.039945542
      2899.44       1.6425279     0.039229388
      2902.34       1.6197400     0.038385264
      2905.24       1.6147482     0.037584738
      2908.15       1.6248898     0.036945360
      2911.06       1.6176705     0.036341149
      2913.97       1.6382658     0.035817555
      2916.88       1.6228477     0.035566686
      2919.80       1.6283685     0.036375645
      2922.72       1.6231089     0.036652918
      2925.64       1.6394540     0.035004350
      2928.57       1.6337949     0.033942434
      2931.50       1.6584144     0.033210671
      2934.43       1.6524178     0.032750635
      2937.36       1.6665793     0.032425362
      2940.30       1.6714528     0.032400998
      2943.24       1.6728282     0.033060891
      2946.18       1.6748315     0.032787153
      2949.13       1.6835378     0.032216986
      2952.08       1.6770134     0.032639917
      2955.03       1.6719470     0.033242763
      2957.99       1.6602064     0.034193603
      2960.94       1.6270389     0.034949101
      2963.90       1.5980952     0.036173179
      2966.87       1.6016001     0.036784309
      2969.84       1.5946318     0.037238074
      2972.81       1.5980315     0.038583181
      2975.78       1.6164190     0.038717874
      2978.76       1.6148734     0.039979195
      2981.73       1.6505850     0.036922163
      2984.72       1.6418102     0.035653969
      2987.70       1.6416230     0.035158936
      2990.69       1.6457843     0.035115040
      2993.68       1.6504930     0.035385332
      2996.67       1.6717770     0.035035396
      2999.67       1.6725407     0.034536452
      3002.67       1.6783928     0.034344958
      3005.67       1.6991249     0.034350171
      3008.68       1.6901287     0.033971625
      3011.69       1.6820086     0.034245926
      3014.70       1.6584583     0.034366500
      3017.71       1.6327506     0.033539745
      3020.73       1.6304117     0.032395977
      3023.75       1.6006550     0.032380147
      3026.78       1.5843046     0.032000113
      3029.80       1.5680900     0.031778459
      3032.83       1.5376027     0.031383238
      3035.87       1.5289653     0.031651653
      3038.90       1.4998301     0.032030059
      3041.94       1.4674702     0.034637913
      3044.98       1.4536076     0.035982396
      3048.03       1.4162721     0.036369561
      3051.08       1.3939544     0.035891710
      3054.13       1.3644638     0.035945570
      3057.18       1.3458055     0.036515551
      3060.24       1.3287297     0.037675990
      3063.30       1.3150144     0.039287828
      3066.36       1.3061841     0.036069308
      3069.43       1.2851391     0.033881879
      3072.50       1.2651734     0.033790097
      3075.57       1.2408214     0.034361640
      3078.65       1.2099982     0.032205648
      3081.73       1.1777461     0.031022621
      3084.81       1.1677776     0.030798089
      3087.89       1.1590714     0.031115440
      3090.98       1.1423554     0.032354559
      3094.07       1.1450247     0.034491084
      3097.17       1.1663251     0.034274840
      3100.26       1.1663983     0.033596707
      3103.36       1.1709308     0.033720921
      3106.47       1.1755242     0.033449338
      3109.58       1.1861080     0.032937461
      3112.68       1.1823369     0.032239281
      3115.80       1.1888918     0.032424072
      3118.91       1.2079598     0.031817181
      3122.03       1.2378946     0.030536071
      3125.15       1.2403335     0.031106603
      3128.28       1.2483100     0.029947905
      3131.41       1.2610513     0.029319210
      3134.54       1.2496018     0.029239220
      3137.67       1.2399562     0.029538273
      3140.81       1.2356807     0.028280008
      3143.95       1.2208311     0.027751923
      3147.10       1.2185575     0.027146937
      3150.24       1.2051256     0.026510852
      3153.39       1.1911439     0.026619600
      3156.55       1.1832424     0.026352253
      3159.70       1.1775185     0.025137441
      3162.86       1.1698660     0.025101403
      3166.03       1.1717174     0.024819613
      3169.19       1.1583349     0.024120571
      3172.36       1.1623220     0.023827305
      3175.54       1.1523061     0.024848897
      3178.71       1.1555841     0.025081520
      3181.89       1.1609957     0.024704332
      3185.07       1.1642649     0.024850947
      3188.26       1.1664696     0.025390482
      3191.45       1.1774237     0.026032080
      3194.64       1.1665279     0.027653149
      3197.83       1.1864227     0.027696826
      3201.03       1.1828097     0.027412926
      3204.23       1.1815048     0.027404705
      3207.44       1.1907227     0.027326830
      3210.64       1.1665988     0.026837819
      3213.85       1.1547749     0.027245456
      3217.07       1.1608002     0.026921176
      3220.28       1.1373782     0.025700859
      3223.51       1.1310475     0.025777750
      3226.73       1.1207841     0.026517410
      3229.96       1.1124974     0.025334889
      3233.19       1.1075225     0.024692044
      3236.42       1.0860207     0.025963740
      3239.66       1.0746820     0.026106632
      3242.90       1.0847587     0.025932370
      3246.14       1.0771138     0.026531338
      3249.39       1.0713331     0.027288629
      3252.64       1.0720038     0.028368436
      3255.89       1.0588971     0.030469016
      3259.14       1.0550199     0.029032533
      3262.40       1.0585055     0.028557643
      3265.67       1.0784046     0.028534133
      3268.93       1.0838467     0.028206457
      3272.20       1.0701856     0.027454917
      3275.47       1.0687362     0.027852887
      3278.75       1.0620658     0.026045339
      3282.03       1.0533753     0.025270129
      3285.31       1.0556192     0.025570186
      3288.60       1.0699507     0.025398005
      3291.88       1.0604156     0.024665134
      3295.18       1.0746511     0.024250618
      3298.47       1.0827156     0.024817571
      3301.77       1.0772965     0.025660588
      3305.07       1.0864310     0.025194185
      3308.38       1.0963944     0.025288311
      3311.69       1.0962107     0.024983402
      3315.00       1.0902686     0.023848641
      3318.31       1.0941932     0.022926228
      3321.63       1.1118583     0.022330682
      3324.95       1.1152335     0.021703304
      3328.28       1.1269196     0.021393472
      3331.61       1.1314010     0.021943455
      3334.94       1.1375732     0.021183544
      3338.27       1.1445984     0.021062207
      3341.61       1.1509447     0.021378181
      3344.95       1.1655213     0.022312893
      3348.30       1.1789858     0.022981724
      3351.65       1.1904034     0.022555940
      3355.00       1.1995021     0.023056470
      3358.35       1.2313552     0.023602367
      3361.71       1.2439280     0.024722491
      3365.07       1.2621814     0.024796117
      3368.44       1.2862841     0.025016656
      3371.81       1.3162923     0.025693858
      3375.18       1.3141300     0.026463397
      3378.56       1.3300693     0.027053531
      3381.94       1.3398085     0.027747748
      3385.32       1.3568055     0.028421591
      3388.70       1.3624625     0.028306843
      3392.09       1.3770612     0.028008232
      3395.48       1.3990519     0.027129135
      3398.88       1.4029227     0.026676423
      3402.28       1.4068451     0.026456276
      3405.68       1.4175471     0.026611680
      3409.09       1.4155317     0.025730137
      3412.49       1.4229026     0.024730459
      3415.91       1.4337329     0.024509594
      3419.32       1.4521894     0.024448754
      3422.74       1.4863594     0.025149478
      3426.17       1.4970695     0.025094232
      3429.59       1.4959454     0.024514681
      3433.02       1.5122771     0.024592763
      3436.45       1.5480771     0.024131752
      3439.89       1.5528522     0.023453004
      3443.33       1.5734572     0.023824376
      3446.78       1.5952732     0.023051961
      3450.22       1.6235977     0.022721541
      3453.67       1.6438897     0.022573951
      3457.13       1.6530969     0.022684432
      3460.58       1.6764285     0.022835742
      3464.04       1.6715338     0.023133180
      3467.51       1.6806902     0.023476676
      3470.98       1.6912682     0.024806027
      3474.45       1.6815177     0.024761235
      3477.92       1.6950041     0.024579221
      3481.40       1.7155695     0.024282232
      3484.88       1.7367666     0.023956391
      3488.37       1.7356570     0.023479999
      3491.86       1.7291402     0.023022161
      3495.35       1.7283084     0.023256884
      3498.84       1.7621609     0.022691545
      3502.34       1.7653587     0.021918730
      3505.84       1.7651527     0.021786706
      3509.35       1.7698777     0.022361176
      3512.86       1.7738919     0.022056079
      3516.37       1.7783210     0.022186899
      3519.89       1.7748613     0.022264956
      3523.41       1.7647947     0.023068554
      3526.93       1.7668937     0.023301731
      3530.46       1.7417590     0.023047427
      3533.99       1.7404652     0.023101845
      3537.53       1.7344426     0.023299504
      3541.06       1.7229391     0.023402558
      3544.60       1.7224622     0.024144471
      3548.15       1.7231171     0.023492927
      3551.70       1.7205085     0.023358374
      3555.25       1.6990046     0.023933921
      3558.80       1.7052662     0.023995092
      3562.36       1.7273853     0.024691129
      3565.92       1.7263052     0.024083473
      3569.49       1.7222351     0.023845940
      3573.06       1.7384480     0.023850948
      3576.64       1.7181372     0.023772988
      3580.21       1.7287135     0.023565727
      3583.79       1.7251108     0.023292669
      3587.38       1.7214581     0.023160297
      3590.96       1.7240454     0.023192320
      3594.55       1.7286959     0.022189015
      3598.15       1.7360635     0.021389131
      3601.75       1.7330959     0.021000585
      3605.35       1.7252248     0.021057196
      3608.96       1.7225750     0.021165521
      3612.56       1.7188247     0.021496609
      3616.18       1.7070225     0.021214448
      3619.79       1.7042191     0.021899684
      3623.41       1.6862924     0.022731585
      3627.04       1.6898018     0.022869258
      3630.66       1.6825914     0.023251595
      3634.29       1.6674270     0.024097146
      3637.93       1.6745663     0.024901012
      3641.57       1.6767678     0.025715592
      3645.21       1.6537341     0.027032402
      3648.86       1.6634541     0.028504668
      3652.50       1.6706621     0.028183721
      3656.16       1.6676936     0.027392706
      3659.81       1.6815694     0.027564386
      3663.47       1.6866227     0.026795764
      3667.14       1.6961119     0.026819182
      3670.80       1.6951883     0.027410095
      3674.48       1.6962893     0.026946641
      3678.15       1.7127326     0.026320864
      3681.83       1.7247694     0.026427052
      3685.51       1.7085693     0.028360332
      3689.20       1.7154897     0.032352495
      3692.88       1.7127235     0.033919203
      3696.58       1.7124420     0.028934147
      3700.27       1.7076569     0.028876605
      3703.98       1.6958324     0.029122457
      3707.68       1.7342885     0.028674012
      3711.39       1.7567332     0.028054917
      3715.10       1.7632684     0.027951161
      3718.81       1.8009687     0.030519771
      3722.53       1.8179191     0.026924000
      3726.26       1.8299374     0.025928068
      3729.98       1.8353132     0.025500258
      3733.71       1.8356918     0.024282907
      3737.45       1.8477442     0.023447039
      3741.18       1.8541467     0.022302777
      3744.93       1.8697512     0.021054113
      3748.67       1.8798787     0.020443334
      3752.42       1.8823649     0.020369882
      3756.17       1.8809768     0.021087742
      3759.93       1.8816297     0.020538788
      3763.69       1.8830840     0.020494986
      3767.45       1.8766161     0.021199646
      3771.22       1.8648533     0.021335977
      3774.99       1.8488575     0.021743053
      3778.77       1.8629234     0.022184219
      3782.54       1.8602636     0.022905319
      3786.33       1.8422905     0.023562725
      3790.11       1.8329688     0.024016662
      3793.90       1.8043089     0.024363302
      3797.70       1.7910105     0.023912665
      3801.50       1.7646741     0.022992978
      3805.30       1.7499317     0.022656365
      3809.10       1.7411521     0.022041386
      3812.91       1.7261425     0.020934929
      3816.73       1.7210105     0.020333140
      3820.54       1.7099425     0.020465489
      3824.36       1.7049617     0.020784955
      3828.19       1.7025186     0.020553991
      3832.02       1.6878690     0.020072032
      3835.85       1.6864994     0.020196168
      3839.68       1.6729289     0.020810851
      3843.52       1.6751496     0.020237092
      3847.37       1.6647421     0.019953896
      3851.22       1.6652806     0.019538526
      3855.07       1.6565255     0.019401856
      3858.92       1.6482590     0.019083964
      3862.78       1.6327261     0.018634149
      3866.64       1.6191889     0.018375921
      3870.51       1.6135005     0.018214023
      3874.38       1.6114694     0.018159776
      3878.26       1.6063579     0.018481258
      3882.13       1.5992518     0.018558535
      3886.02       1.5891113     0.018222184
      3889.90       1.5827497     0.018519402
      3893.79       1.5809989     0.018692627
      3897.69       1.5734000     0.018731840
      3901.59       1.5571072     0.019009358
      3905.49       1.5473892     0.019310085
      3909.39       1.5507179     0.019775625
      3913.30       1.5479354     0.020396014
      3917.22       1.5412485     0.020605983
      3921.13       1.5286309     0.020858568
      3925.06       1.5232504     0.021045933
      3928.98       1.5250330     0.020948004
      3932.91       1.5260165     0.020773885
      3936.84       1.5195505     0.020581582
      3940.78       1.5246037     0.020111374
      3944.72       1.5332241     0.020087799
      3948.67       1.5464044     0.020086943
      3952.61       1.5461418     0.020495152
      3956.57       1.5381815     0.020429049
      3960.52       1.5379788     0.020682266
      3964.48       1.5428948     0.021449457
      3968.45       1.5459014     0.022323864
      3972.42       1.5363736     0.021780304
      3976.39       1.5443378     0.022250055
      3980.37       1.5458439     0.022297074
      3984.35       1.5319808     0.022029931
      3988.33       1.5328365     0.022814538
      3992.32       1.5206140     0.022432670
      3996.31       1.5253106     0.022403020
      4000.31       1.5305801     0.021749596
      4004.31       1.5492190     0.021924586
      4008.31       1.5571507     0.022360141
      4012.32       1.5558443     0.023190840
      4016.33       1.5508388     0.023959835
      4020.35       1.5341161     0.021988452
      4024.37       1.5440531     0.021822162
      4028.40       1.5416508     0.022336464
      4032.42       1.5407766     0.021851396
      4036.46       1.5420499     0.021936171
      4040.50       1.5450989     0.022759240
      4044.54       1.5476703     0.024002433
      4048.58       1.5370631     0.023149630
      4052.63       1.5348064     0.023283777
      4056.68       1.5200822     0.023533780
      4060.74       1.5061945     0.023337510
      4064.80       1.4903034     0.023954594
      4068.86       1.4704072     0.023690288
      4072.93       1.4695748     0.024044969
      4077.01       1.4506885     0.023123394
      4081.08       1.4377322     0.022441781
      4085.17       1.4214769     0.022744303
      4089.25       1.3883565     0.023874380
      4093.34       1.3904373     0.022912367
      4097.43       1.3901314     0.022219432
      4101.53       1.4043942     0.021840015
      4105.63       1.3950960     0.021521597
      4109.74       1.4026961     0.021005404
      4113.85       1.4125332     0.020866224
      4117.96       1.4304505     0.021916424
      4122.08       1.4136160     0.020668861
      4126.20       1.4058252     0.020071951
      4130.33       1.4058880     0.019409099
      4134.46       1.3933821     0.019166358
      4138.59       1.3769180     0.018790582
      4142.73       1.3553647     0.018738029
      4146.88       1.3395906     0.018930540
      4151.02       1.3165513     0.019787242
      4155.18       1.2967257     0.019462536
      4159.33       1.2808270     0.019605570
      4163.49       1.2682460     0.019899259
      4167.65       1.2507727     0.020347313
      4171.82       1.2460792     0.020892309
      4175.99       1.2397565     0.020863983
      4180.17       1.2383118     0.020322565
      4184.35       1.2216184     0.020075284
      4188.54       1.2200560     0.020588447
      4192.72       1.2086013     0.020229533
      4196.92       1.2055465     0.020870426
      4201.11       1.1979012     0.021750905
      4205.31       1.2131735     0.020148296
      4209.52       1.2120029     0.020879891
      4213.73       1.2052673     0.022393394
      4217.94       1.2070679     0.022138391
      4222.16       1.2182453     0.022056948
      4226.38       1.2219526     0.022836421
      4230.61       1.2175956     0.023366468
      4234.84       1.2117928     0.024569315
      4239.08       1.2162044     0.024837953
      4243.32       1.2181771     0.025403385
      4247.56       1.2178380     0.025666128
      4251.81       1.2293768     0.025177225
      4256.06       1.2446198     0.024060223
      4260.32       1.2619345     0.023097424
      4264.58       1.2690993     0.022398588
      4268.84       1.2717080     0.022551205
      4273.11       1.2822463     0.021476235
      4277.38       1.3052216     0.021598253
      4281.66       1.3285086     0.020358124
      4285.94       1.3433872     0.019164004
      4290.23       1.3463064     0.018932545
      4294.52       1.3609401     0.018811961
      4298.81       1.3664273     0.018337800
      4303.11       1.3728853     0.017909213
      4307.42       1.3763031     0.017748422
      4311.72       1.3838559     0.017611686
      4316.04       1.3855157     0.017863316
      4320.35       1.4081277     0.017985273
      4324.67       1.4000234     0.018363239
      4329.00       1.4091968     0.018524196
      4333.33       1.4232820     0.018396248
      4337.66       1.4462055     0.018359421
      4342.00       1.4627437     0.018266205
      4346.34       1.4813266     0.018251853
      4350.69       1.4929425     0.018244559
      4355.04       1.5170314     0.018699243
      4359.39       1.5427405     0.018354184
      4363.75       1.5791516     0.018232522
      4368.12       1.6027530     0.018209847
      4372.48       1.6168101     0.018549296
      4376.86       1.6417056     0.018655476
      4381.23       1.6627269     0.018829727
      4385.61       1.6803177     0.019306933
      4390.00       1.7026370     0.020376703
      4394.39       1.7244450     0.019720354
      4398.79       1.7367691     0.019859518
      4403.18       1.7541824     0.020637913
      4407.59       1.7319903     0.020913327
      4412.00       1.7406822     0.021333853
      4416.41       1.7512563     0.021644850
      4420.82       1.7583011     0.022752855
      4425.25       1.7531443     0.022626200
      4429.67       1.7610654     0.022787863
      4434.10       1.7636877     0.023133515
      4438.54       1.7680741     0.023730432
      4442.97       1.7620948     0.022814565
      4447.42       1.7737405     0.022565161
      4451.86       1.7627989     0.022623257
      4456.32       1.7423572     0.022276138
      4460.77       1.7351226     0.022248550
      4465.24       1.7177204     0.022248932
      4469.70       1.7062321     0.024007559
      4474.17       1.6979108     0.023393224
      4478.65       1.6939655     0.022879945
      4483.12       1.6766604     0.023019305
      4487.61       1.6491501     0.023711678
      4492.09       1.6186764     0.023540750
      4496.59       1.6032405     0.023336947
      4501.08       1.5923946     0.023520788
      4505.58       1.5703314     0.024227689
      4510.09       1.5574345     0.023446577
      4514.60       1.5539346     0.023434978
      4519.12       1.5469639     0.023658198
      4523.63       1.5310873     0.024025435
      4528.16       1.5258116     0.024524912
      4532.69       1.5160004     0.025602246
      4537.22       1.4844968     0.026294065
      4541.76       1.4714128     0.025929369
      4546.30       1.4504663     0.026626830
      4550.85       1.4326356     0.027585967
      4555.40       1.4402007     0.028382695
      4559.95       1.4327809     0.029232510
      4564.51       1.4255602     0.030047444
      4569.08       1.4009823     0.030368710
      4573.65       1.3667950     0.030709371
      4578.22       1.3437935     0.030829448
      4582.80       1.3283004     0.030871775
      4587.38       1.3428594     0.030317310
      4591.97       1.3411466     0.029542770
      4596.56       1.3372325     0.028753471
      4601.16       1.3337998     0.028068295
      4605.76       1.3329530     0.027673192
      4610.37       1.3353508     0.027376270
      4614.98       1.3354118     0.027386645
      4619.59       1.3209484     0.028008004
      4624.21       1.3128554     0.027345258
      4628.84       1.3203685     0.027397111
      4633.47       1.3091530     0.027654607
      4638.10       1.2846144     0.027373699
      4642.74       1.2531904     0.027523002
      4647.38       1.2377929     0.027652169
      4652.03       1.2151696     0.027784017
      4656.68       1.2061938     0.028125688
      4661.34       1.2112546     0.028436559
      4666.00       1.2196800     0.028987118
      4670.67       1.2246396     0.029300908
      4675.33       1.2463642     0.029318008
      4680.01       1.2506190     0.029262407
      4684.69       1.2502183     0.029223954
      4689.38       1.2574508     0.029077643
      4694.07       1.2567032     0.028891304
      4698.76       1.2460420     0.028812185
      4703.46       1.2352084     0.028740553
      4708.16       1.2304559     0.028661030
      4712.87       1.2292633     0.028887780
      4717.58       1.2273243     0.029191355
      4722.30       1.1901883     0.029700121
      4727.03       1.1697981     0.029584465
      4731.75       1.1401528     0.030081986
      4736.48       1.1322014     0.030193380
      4741.22       1.1126452     0.030320357
      4745.96       1.0943169     0.030588746
      4750.71       1.0797731     0.030584811
      4755.46       1.0600835     0.030745915
      4760.22       1.0471434     0.030595060
      4764.97       1.0477954     0.030381784
      4769.74       1.0273151     0.030160349
      4774.51       1.0156892     0.030139435
      4779.29       1.0011839     0.029890408
      4784.07      0.99522134     0.029494188
      4788.85      0.98938353     0.029022052
      4793.64      0.98620025     0.028666730
      4798.43      0.98630158     0.028341910
      4803.23      0.98920547     0.028340274
      4808.03      0.99191165     0.028275185
      4812.84      0.99714786     0.028262999
      4817.66      0.99693244     0.028226568
      4822.48      0.98974922     0.028231197
      4827.30      0.98447915     0.028264514
      4832.12      0.97502027     0.028344082
      4836.96      0.95679314     0.028413015
      4841.79      0.95311195     0.028435530
      4846.63      0.94691588     0.028226467
      4851.48      0.95102324     0.028161775
      4856.33      0.94728837     0.028058121
      4861.19      0.93367981     0.028118906
      4866.05      0.93353371     0.027977991
      4870.92      0.93584390     0.027701162
      4875.79      0.93578291     0.027611078
      4880.66      0.92989397     0.027569961
      4885.55      0.93197066     0.027614411
      4890.43      0.93847912     0.027897360
      4895.32      0.94813129     0.028196423
      4900.22      0.96007271     0.027751024
      4905.12      0.96963548     0.027837027
      4910.02      0.97588401     0.028130468
      4914.94      0.98233193     0.028701783
      4919.85      0.99120487     0.029387530
      4924.77      0.99840563     0.029777992
      4929.70      0.99799542     0.030379358
      4934.62       1.0131446     0.030808324
      4939.56       1.0226653     0.031019606
      4944.50       1.0419248     0.030949007
      4949.44       1.0391966     0.030611232
      4954.39       1.0351390     0.030086280
      4959.35       1.0406811     0.029285278
      4964.31       1.0440653     0.028910323
      4969.27       1.0532905     0.028271529
      4974.24       1.0694162     0.027770211
      4979.22       1.0850562     0.027580830
      4984.20       1.1016482     0.027851864
      4989.18       1.1179911     0.027830889
      4994.17       1.1318789     0.027366225
      4999.16       1.1500287     0.027015318
      5004.16       1.1726655     0.026916877
      5009.17       1.1881905     0.026857897
      5014.18       1.2101059     0.026807889
      5019.19       1.2188227     0.026762638
      5024.21       1.2295183     0.026712363
      5029.23       1.2363250     0.026651811
      5034.26       1.2527190     0.026592082
      5039.30       1.2638060     0.026533802
      5044.34       1.2643795     0.026469379
      5049.39       1.2717361     0.026401514
      5054.43       1.2831456     0.026332787
      5059.49       1.2871513     0.026099831
      5064.55       1.2970855     0.026024912
      5069.61       1.3036136     0.025956316
      5074.68       1.3116959     0.025897889
      5079.76       1.3256079     0.025808539
      5084.84       1.3367263     0.025691095
      5089.92       1.3502982     0.025605683
      5095.01       1.3586909     0.025568619
      5100.11       1.3691895     0.025565989
      5105.21       1.3675984     0.025579386
      5110.31       1.3685423     0.025600070
      5115.42       1.3700577     0.025617261
      5120.54       1.3704179     0.025437834
      5125.66       1.3657562     0.025394396
      5130.79       1.3734263     0.025341739
      5135.92       1.3697344     0.025278580
      5141.05       1.3749275     0.025200130
      5146.20       1.3829290     0.025106817
      5151.34       1.3807746     0.025002943
      5156.49       1.3731641     0.024905778
      5161.65       1.3759690     0.024817422
      5166.81       1.3781959     0.024757107
      5171.98       1.3846058     0.024728939
      5177.15       1.3883002     0.024696838
      5182.33       1.3892507     0.024486768
      5187.51       1.3925013     0.024429709
      5192.70       1.3890847     0.024402958
      5197.89       1.3936169     0.024405639
      5203.09       1.3830419     0.024415414
      5208.29       1.3776424     0.024435955
      5213.50       1.3778950     0.024499394
      5218.72       1.3761816     0.024513189
      5223.93       1.3734138     0.024359790
      5229.16       1.3742808     0.024614280
      5234.39       1.3691488     0.024686803
      5239.62       1.3687513     0.024610673
      5244.86       1.3587709     0.024622795
      5250.11       1.3472810     0.024734746
      5255.36       1.3382665     0.025100258
      5260.61       1.3323450     0.025199513
      5265.87       1.3199261     0.025124461
      5271.14       1.3113845     0.025301189
      5276.41       1.3102623     0.025564435
      5281.69       1.3141369     0.025841316
      5286.97       1.3097721     0.026216486
      5292.26       1.3096431     0.026053735
      5297.55       1.3076086     0.025984983
      5302.85       1.3036382     0.025828765
      5308.15       1.3031979     0.025576917
      5313.46       1.3081054     0.025332632
      5318.77       1.3136734     0.024886521
      5324.09       1.3171712     0.024607128
      5329.42       1.3213002     0.024414987
      5334.75       1.3153841     0.024348736
      5340.08       1.3091383     0.023884404
      5345.42       1.3041487     0.023701719
      5350.77       1.3006697     0.023672316
      5356.12       1.2973037     0.023896315
      5361.48       1.2948981     0.023818862
      5366.83       1.2876094     0.023541789
      5372.20       1.2846340     0.023524263
      5377.58       1.2812103     0.023514443
      5382.95       1.2699339     0.023397595
      5388.34       1.2607433     0.023421945
      5393.72       1.2533011     0.023373020
      5399.12       1.2423629     0.023487505
      5404.52       1.2348059     0.023324039
      5409.92       1.2246071     0.023289287
      5415.33       1.2196746     0.023266743
      5420.75       1.2124540     0.023252318
      5426.17       1.2069075     0.023216959
      5431.60       1.1978198     0.023166836
      5437.03       1.1905786     0.023103309
      5442.47       1.1856316     0.022886538
      5447.91       1.1864998     0.022927666
      5453.36       1.1932231     0.022827893
      5458.81       1.1920130     0.022565926
      5464.27       1.1931508     0.022454141
      5469.73       1.1954790     0.022336796
      5475.20       1.1925191     0.022341378
      5480.68       1.1876701     0.022077451
      5486.16       1.1874243     0.021957753
      5491.65       1.1878936     0.021710796
      5497.14       1.1865598     0.021729075
      5502.64       1.1851427     0.021648091
      5508.14       1.1821019     0.021443494
      5513.65       1.1713908     0.021492590
      5519.16       1.1634372     0.021446123
      5524.68       1.1504194     0.021305248
      5530.20       1.1458034     0.021305816
      5535.73       1.1338677     0.021433411
      5541.27       1.1249272     0.021339322
      5546.81       1.1175535     0.021380301
      5552.36       1.1140412     0.021442801
      5557.91       1.1107756     0.021501397
      5563.47       1.0952857     0.021548863
      5569.04       1.0965521     0.021490779
      5574.60       1.0920933     0.021687929
      5580.18       1.0848945     0.021766395
      5585.76       1.0828380     0.021709498
      5591.35       1.0855388     0.021884911
      5596.94       1.0846352     0.021791798
      5602.53       1.0807454     0.021815335
      5608.14       1.0829796     0.021841719
      5613.75       1.0835959     0.021843051
      5619.36       1.0800128     0.021958949
      5624.98       1.0817925     0.021806771
      5630.60       1.0826806     0.021776460
      5636.23       1.0834955     0.021733632
      5641.87       1.0803488     0.021681141
      5647.51       1.0744760     0.021489653
      5653.16       1.0691591     0.021532002
      5658.82       1.0681055     0.021314824
      5664.47       1.0613989     0.021222229
      5670.14       1.0499749     0.021096853
      5675.81       1.0480418     0.021205972
      5681.48       1.0365020     0.021134793
      5687.17       1.0245078     0.020780405
      5692.85       1.0195534     0.020578353
      5698.55       1.0185040     0.020759302
      5704.25       1.0067042     0.020924256
      5709.95      0.99280523     0.021246527
      5715.66      0.99180013     0.021205874
      5721.38      0.98833812     0.021568912
      5727.10      0.97730001     0.021696114
      5732.83      0.97513485     0.021936005
      5738.56      0.96971899     0.022219302
      5744.30      0.95847978     0.022420653
      5750.04      0.95910030     0.022642459
      5755.79      0.95309455     0.022751988
      5761.55      0.94734453     0.022824477
      5767.31      0.94968015     0.022826082
      5773.08      0.94781971     0.022813330
      5778.85      0.94125768     0.022807520
      5784.63      0.93072054     0.022980308
      5790.41      0.92570684     0.022639921
      5796.21      0.92596920     0.022325930
      5802.00      0.92243512     0.022060272
      5807.81      0.92245672     0.021949843
      5813.61      0.91853083     0.021989031
      5819.43      0.91167298     0.021994115
      5825.25      0.91075947     0.021827666
      5831.07      0.91918231     0.021718911
      5836.90      0.92159352     0.021868334
      5842.74      0.92143054     0.021754401
      5848.58      0.92766474     0.021858824
      5854.43      0.93297749     0.021845159
      5860.29      0.93913754     0.021691804
      5866.15      0.93963517     0.021759576
      5872.01      0.94135487     0.021569665
      5877.89      0.93902079     0.021483964
      5883.76      0.93297785     0.021396183
      5889.65      0.92250144     0.021260273
      5895.54      0.90882039     0.021146280
      5901.43      0.89730080     0.021010285
      5907.34      0.88351808     0.020772098
      5913.24      0.86545122     0.020754084
      5919.16      0.85254679     0.020630826
      5925.08      0.83475469     0.020402130
      5931.00      0.81693318     0.020400190
      5936.93      0.80364180     0.020186705
      5942.87      0.79298494     0.020073728
      5948.81      0.78170175     0.020097720
      5954.76      0.77124571     0.019960779
      5960.72      0.76608129     0.019925146
      5966.68      0.75768603     0.019914591
      5972.64      0.75480804     0.019902833
      5978.62      0.75508188     0.019923653
      5984.60      0.75015623     0.019883659
      5990.58      0.75134831     0.020063310
      5996.57      0.75309209     0.020106389
      6002.57      0.75404853     0.020321607
      6008.57      0.75304141     0.020581504
      6014.58      0.76068492     0.020789952
      6020.60      0.76623577     0.020979083
      6026.62      0.76549124     0.021146698
      6032.65      0.76595243     0.021278800
      6038.68      0.76187548     0.021447020
      6044.72      0.76395458     0.021648028
      6050.76      0.76342516     0.021617604
      6056.81      0.76107223     0.021720393
      6062.87      0.76362489     0.021937355
      6068.93      0.75991750     0.021966046
      6075.00      0.75321422     0.022143141
      6081.08      0.75449798     0.022248601
      6087.16      0.76447438     0.022313087
      6093.25      0.76719389     0.022318234
      6099.34      0.77328374     0.022305634
      6105.44      0.77976252     0.022129353
      6111.54      0.79088931     0.021888338
      6117.66      0.79370152     0.021892938
      6123.78      0.80308576     0.021795327
      6129.90      0.81951816     0.021514465
      6136.03      0.82108930     0.021302060
      6142.17      0.82339504     0.021076271
      6148.31      0.82665026     0.020866315
      6154.46      0.83253084     0.020683026
      6160.61      0.84034642     0.020507028
      6166.77      0.84072303     0.020265804
      6172.94      0.84153254     0.020088788
      6179.11      0.84596385     0.019839590
      6185.29      0.84994140     0.019697716
      6191.48      0.85199150     0.019585553
      6197.67      0.85996811     0.019608115
      6203.87      0.86345512     0.019546819
      6210.07      0.86902634     0.019430998
      6216.28      0.87203590     0.019447908
      6222.50      0.87101343     0.019423332
      6228.72      0.87399621     0.019483173
      6234.95      0.87212570     0.019580797
      6241.19      0.87273466     0.019606080
      6247.42      0.87491071     0.019727069
      6253.67      0.87520685     0.019969786
      6259.93      0.87487344     0.020134606
      6266.19      0.87159296     0.020312624
      6272.46      0.86563456     0.020360101
      6278.73      0.86367497     0.020552949
      6285.01      0.85975317     0.020756559
      6291.29      0.85949931     0.020973343
      6297.58      0.85249759     0.021154774
      6303.88      0.85014195     0.021347123
      6310.19      0.84109100     0.021779150
      6316.50      0.83595261     0.022107750
      6322.81      0.83303925     0.022294665
      6329.14      0.82576643     0.022202825
      6335.47      0.81475998     0.022617114
      6341.80      0.81295077     0.023223597
      6348.14      0.81002795     0.024136642
      6354.49      0.81170516     0.025396697
      6360.85      0.81299541     0.026991133
      6367.21      0.82416581     0.028852565
      6373.57      0.83690905     0.030412391
      6379.95      0.83805596     0.032028996
      6386.33      0.83972661     0.033260530
      6392.72      0.85062458     0.033789024
      6399.11      0.85766517     0.033374871
      6405.51      0.86392190     0.032300303
      6411.92      0.87646813     0.030640215
      6418.32      0.86665507     0.028669147
      6424.74      0.86033593     0.026844891
      6431.17      0.84548670     0.025391212
      6437.60      0.84598034     0.024414517
      6444.04      0.83921626     0.023434415
      6450.48      0.83369076     0.022625672
      6456.94      0.83147757     0.022321134
      6463.39      0.83342321     0.022043917
      6469.85      0.83369528     0.021788987
      6476.33      0.83385196     0.021617189
      6482.80      0.83713688     0.021315630
      6489.28      0.84369420     0.021197386
      6495.77      0.85150014     0.021143812
      6502.27      0.84922805     0.021085984
      6508.77      0.85256765     0.021065107
      6515.28      0.86337529     0.021117478
      6521.80      0.87227649     0.021211260
      6528.32      0.87764583     0.021318460
      6534.85      0.88460909     0.021398696
      6541.38      0.87764433     0.021350683
      6547.92      0.87198651     0.021462969
      6554.47      0.87201554     0.021640837
      6561.03      0.86649337     0.021860948
      6567.59      0.85866884     0.022034509
      6574.16      0.86013474     0.022274358
      6580.73      0.85573023     0.022466653
      6587.31      0.85104474     0.022565848
      6593.90      0.84306883     0.022762094
      6600.50      0.84002600     0.023007403
      6607.10      0.83649986     0.023148283
      6613.70      0.82939520     0.023464230
      6620.32      0.82822178     0.023456046
      6626.94      0.82148437     0.023484092
      6633.57      0.82675434     0.023476771
      6640.20      0.83302512     0.023568266
      6646.84      0.83109986     0.023549413
      6653.49      0.82668359     0.023428985
      6660.14      0.82429715     0.023392148
      6666.80      0.81924630     0.023401947
      6673.47      0.81809507     0.023434577
      6680.14      0.81805299     0.023241071
      6686.82      0.81054668     0.023169777
      6693.51      0.81002426     0.023129881
      6700.20      0.80779699     0.023108176
      6706.90      0.79678275     0.022811749
      6713.61      0.78584839     0.022639048
      6720.32      0.77380267     0.022555081
      6727.05      0.76641186     0.022382084
      6733.77      0.75214540     0.022093035
      6740.51      0.74361953     0.021931137
      6747.25      0.74008962     0.021773316
      6754.00      0.73901048     0.021688055
      6760.75      0.73146404     0.021468032
      6767.51      0.72370281     0.021391325
      6774.28      0.71814569     0.021262288
      6781.05      0.71235165     0.021115968
      6787.84      0.71642447     0.021199082
      6794.62      0.71442956     0.021275865
      6801.42      0.71599835     0.021238962
      6808.22      0.71232068     0.021345119
      6815.03      0.71015927     0.021461152
      6821.85      0.70123790     0.021711118
      6828.67      0.69405318     0.021983026
      6835.50      0.68508293     0.022314301
      6842.33      0.67028281     0.022472136
      6849.17      0.66612087     0.022837123
      6856.02      0.66405677     0.022941952
      6862.88      0.65889208     0.023106464
      6869.74      0.65916255     0.023332529
      6876.61      0.66358030     0.023330975
      6883.49      0.67151383     0.023356829
      6890.37      0.66450221     0.023319040
      6897.27      0.66672528     0.023208402
      6904.16      0.66366930     0.023122418
      6911.07      0.65824714     0.023009806
      6917.98      0.65696510     0.023132758
      6924.89      0.65272872     0.023187684
      6931.82      0.65098724     0.023438875
      6938.75      0.64296253     0.023580191
      6945.69      0.63247347     0.023412344
      6952.64      0.62560355     0.023453882
      6959.59      0.61822625     0.023600946
      6966.55      0.61228606     0.023766473
      6973.52      0.60388196     0.023663443
      6980.49      0.60631159     0.023707099
      6987.47      0.60397805     0.023448102
      6994.46      0.60353971     0.023309202
      7001.46      0.60490114     0.023326843
      7008.46      0.60655625     0.023135770
      7015.46      0.60393612     0.022980585
      7022.48      0.60095818     0.022866248
      7029.51      0.60357720     0.022687752
      7036.53      0.59297376     0.022632397
      7043.57      0.57746087     0.022400514
      7050.62      0.57545368     0.022427236
      7057.66      0.57877019     0.022336490
      7064.72      0.57909149     0.022444399
      7071.79      0.57550257     0.022171653
      7078.86      0.57274155     0.021991727
      7085.94      0.57671311     0.021816106
      7093.03      0.57925506     0.021681673
      7100.12      0.58681835     0.021535274
      7107.22      0.58672237     0.021386474
      7114.33      0.59497929     0.021244874
      7121.44      0.59953298     0.020998941
      7128.56      0.59680515     0.021048901
      7135.69      0.60284998     0.020979386
      7142.83      0.60570469     0.020902827
      7149.97      0.60698115     0.020863347
      7157.12      0.61460355     0.020820407
      7164.28      0.62012618     0.020975073
      7171.44      0.61530380     0.020953922
      7178.62      0.61060520     0.021052125
      7185.80      0.61146039     0.021052662
      7192.98      0.60820854     0.021207346
      7200.17      0.59728556     0.021436970
      7207.38      0.58898079     0.021446263
      7214.58      0.58010504     0.021598446
      7221.80      0.57640427     0.021749473
      7229.02      0.57237252     0.021962401
      7236.25      0.56429430     0.022029471
      7243.49      0.55592810     0.022266907
      7250.73      0.55082879     0.022268120
      7257.98      0.54677308     0.022352271
      7265.24      0.54197923     0.022493514
      7272.51      0.54798667     0.022418760
      7279.78      0.55414472     0.022455693
      7287.06      0.56492695     0.022395909
      7294.35      0.57058673     0.022312871
      7301.64      0.57158413     0.022149677
      7308.94      0.56455963     0.022245827
      7316.25      0.55546321     0.022300232
      7323.57      0.54756943     0.022317331
      7330.89      0.54527862     0.022614125
      7338.22      0.54158936     0.022795732
      7345.56      0.52725469     0.022557968
      7352.91      0.50905106     0.022522276
      7360.26      0.50044421     0.022430471
      7367.62      0.48841207     0.022585989
      7374.99      0.47537804     0.022554189
      7382.37      0.47141891     0.022493993
      7389.75      0.46148935     0.022291952
      7397.14      0.45403793     0.022137287
      7404.53      0.45694831     0.022095190
      7411.94      0.46144992     0.021972336
      7419.35      0.45928664     0.021787287
      7426.77      0.46156831     0.021651604
      7434.20      0.45373801     0.021432110
      7441.63      0.45609638     0.021412441
      7449.07      0.45621407     0.021246286
      7456.52      0.45745776     0.021041593
      7463.98      0.46386746     0.021098114
      7471.45      0.47373260     0.021292552
      7478.92      0.47192170     0.021334714
      7486.40      0.46683057     0.021133033
      7493.88      0.46534347     0.021103969
      7501.38      0.47617385     0.021098818
      7508.88      0.47747476     0.021180575
      7516.39      0.48181276     0.021171295
      7523.91      0.47978416     0.021335406
      7531.43      0.47596801     0.021356977
      7538.96      0.47388081     0.021478204
      7546.50      0.48087726     0.021543120
      7554.05      0.48069067     0.021637037
      7561.60      0.47558492     0.021558405
      7569.16      0.48361732     0.021588572
      7576.73      0.48885849     0.021711593
      7584.31      0.49293832     0.021847998
      7591.89      0.49227026     0.022011815
      7599.49      0.49508564     0.022227801
      7607.09      0.49473268     0.022614345
      7614.70      0.49705386     0.022979945
      7622.31      0.49860911     0.023328811
      7629.93      0.49770215     0.023388604
      7637.56      0.49769968     0.023605771
      7645.20      0.50455999     0.023729743
      7652.85      0.49924755     0.023811587
      7660.50      0.49652053     0.023856941
      7668.16      0.48387099     0.023805918
      7675.83      0.47925574     0.023728094
      7683.50      0.47258011     0.023584161
      7691.19      0.46744867     0.023282975
      7698.88      0.46238267     0.023037603
      7706.58      0.45413450     0.022769064
      7714.29      0.44772376     0.022472394
      7722.00      0.44319623     0.022230165
      7729.73      0.44537554     0.022143142
      7737.45      0.44378868     0.022106885
      7745.19      0.43609353     0.022076350
      7752.94      0.41743171     0.021924326
      7760.69      0.40299937     0.021937028
      7768.45      0.38878179     0.022067151
      7776.22      0.37347896     0.022383761
      7784.00      0.36539420     0.023006494
      7791.78      0.35786868     0.023805536
      7799.57      0.34866237     0.024590396
      7807.37      0.33830150     0.025543206
      7815.18      0.32488630     0.026634974
      7822.99      0.32012988     0.027701393
      7830.82      0.31830580     0.028565904
      7838.65      0.32189551     0.029069980
      7846.49      0.32719131     0.029076649
      7854.34      0.32157122     0.028581012
      7862.19      0.32149430     0.027967469
      7870.05      0.33173190     0.027286407
      7877.93      0.33946991     0.026852297
      7885.80      0.33236129     0.026866547
      7893.69      0.32601379     0.026961965
      7901.58      0.31371004     0.026810244
      7909.49      0.30023937     0.027415158
      7917.40      0.28578408     0.027692209
      7925.31      0.27817165     0.028398696
      7933.24      0.28461981     0.029278641
      7941.17      0.27879012     0.029940719
      7949.11      0.26849626     0.029763418
      7957.06      0.26313703     0.029482755
      7965.02      0.27003466     0.029659559
      7972.98      0.27659213     0.029629589
      7980.96      0.28422401     0.029655063
      7988.94      0.29178661     0.029518578
      7996.93      0.29502920     0.029522667
      8004.93      0.29051557     0.029275146
      8012.93      0.29748667     0.029277009
      8020.95      0.30820522     0.029044368
      8028.97      0.31236807     0.029250304
      8036.99      0.32419466     0.028944810
      8045.03      0.33233106     0.028776032
      8053.08      0.33387530     0.028281935
      8061.13      0.32595299     0.028093164
      8069.20      0.31717207     0.028032582
      8077.26      0.31137453     0.027672752
      8085.34      0.31371319     0.027634473
      8093.43      0.31007412     0.027542112
      8101.52      0.30630955     0.027370463
      8109.62      0.29734340     0.027340187
      8117.73      0.30158472     0.027287489
      8125.85      0.30888968     0.027369238
      8133.98      0.30593556     0.027293562
      8142.11      0.30600177     0.027093194
      8150.25      0.30513010     0.027128000
      8158.41      0.30544974     0.027128777
      8166.56      0.30680253     0.027201002
      8174.73      0.30417986     0.027167819
      8182.91      0.31429608     0.027195138
      8191.09      0.31160426     0.027178989
      8199.28      0.31695049     0.027062189
      8207.48      0.31729754     0.026908024
      8215.69      0.32441577     0.026907569
      8223.91      0.31870100     0.026738604
      8232.13      0.31106467     0.026687489
      8240.36      0.31218193     0.026659750
      8248.60      0.30911754     0.026673895
      8256.85      0.29876052     0.026544295
      8265.11      0.29330467     0.026623861
      8273.37      0.28216749     0.026670333
      8281.65      0.27868336     0.026810814
      8289.93      0.27360555     0.027064244
      8298.22      0.27002538     0.027181366
      8306.52      0.26572263     0.027408593
      8314.83      0.26526244     0.027637681
      8323.14      0.26831779     0.028044601
      8331.46      0.26847419     0.028463095
      8339.80      0.26559329     0.028829894
      8348.13      0.26026211     0.029008234
      8356.48      0.26004949     0.029393054
      8364.84      0.26131336     0.029708792
      8373.21      0.26343836     0.030215217
      8381.58      0.26302000     0.030617377
      8389.96      0.26630980     0.031248873
      8398.35      0.26478676     0.031729781
      8406.75      0.27331285     0.032466456
      8415.16      0.27665619     0.033140796
      8423.57      0.26229372     0.033848778
      8432.00      0.27138440     0.034575383
      8440.43      0.27354279     0.035570461
      8448.87      0.26720834     0.036524219
      8457.32      0.26739362     0.037807036
      8465.78      0.25404242     0.038814031
      8474.25      0.25028036     0.040247613
      8482.72      0.25412867     0.041726017
      8491.20      0.25328695     0.043330361
      8499.69      0.24652937     0.044619363
      8508.19      0.22494550     0.046268760
      8516.70      0.20999604     0.048007963
      8525.22      0.19771941     0.050374605
      8533.75      0.19193087     0.053301523
      8542.28      0.19136287     0.056737067
      8550.82      0.19102002     0.061139046
      8559.37      0.17847121     0.065753628
      8567.93      0.16716908     0.071567218
      8576.50      0.15440614     0.079023914
      8585.08      0.15205626     0.088562193
      8593.66      0.14504528      0.10058136
      8602.26      0.13743402      0.11488851
      8610.86      0.13039028      0.13429165
      8619.47      0.11946331      0.15971737
      8628.09      0.10584967      0.19089462
