# starting wavelength =        3471.0821
# ending wavelength =        7284.0500
# O2 telluric scale =        0
# O2 telluric shift =        0
# H2O telluric scale =        0
# H2O telluric shift =        0
      3474.45      0.72131244     0.058034044
      3477.92      0.70818652     0.056925872
      3481.40      0.71222300     0.055974393
      3484.88      0.71327334     0.055152121
      3488.37      0.72148709     0.054686400
      3491.86      0.67829835     0.054428258
      3495.35      0.67506520     0.054238113
      3498.84      0.65284652     0.054327968
      3502.34      0.67084305     0.054150881
      3505.84      0.66863905     0.053879776
      3509.35      0.68083394     0.053971559
      3512.86      0.68482552     0.053783547
      3516.37      0.72860730     0.053881428
      3519.89      0.73376731     0.053339548
      3523.41      0.73842272     0.053433727
      3526.93      0.71433531     0.053526824
      3530.46      0.69479150     0.052989864
      3533.99      0.69110733     0.053084509
      3537.53      0.69550644     0.052898581
      3541.06      0.70692247     0.053002625
      3544.60      0.69162236     0.052737667
      3548.15      0.67620530     0.052558802
      3551.70      0.68825174     0.052653624
      3555.25      0.64216271     0.052760640
      3558.80      0.60154925     0.052214092
      3562.36      0.60022709     0.052318467
      3565.92      0.60239655     0.052422793
      3569.49      0.60548794     0.051878848
      3573.06      0.60936535     0.051983411
      3576.64      0.62031176     0.052091645
      3580.21      0.59216230     0.051917742
      3583.79      0.58305480     0.051653272
      3587.38      0.58195643     0.051766374
      3590.96      0.57073820     0.051580603
      3594.55      0.55143933     0.051329694
      3598.15      0.56285047     0.051441402
      3601.75      0.57195200     0.051266063
      3605.35      0.60041996     0.051375315
      3608.96      0.60427980     0.051125503
      3612.56      0.58554118     0.050938987
      3616.18      0.58360093     0.051068721
      3619.79      0.53241238     0.050807493
      3623.41      0.51613673     0.050935138
      3627.04      0.51113577     0.050748576
      3630.66      0.51203203     0.050499711
      3634.29      0.47914728     0.050624828
      3637.93      0.49301368     0.050452125
      3641.57      0.48455638     0.050190706
      3645.21      0.46669511     0.050323755
      3648.86      0.46776202     0.050458566
      3652.50      0.47453781     0.050288220
      3656.16      0.50014931     0.050025215
      3659.81      0.51525792     0.050162794
      3663.47      0.51696527     0.049980818
      3667.14      0.51082508     0.049728653
      3670.80      0.55286486     0.049876313
      3674.48      0.58028684     0.050019197
      3678.15      0.59959351     0.049446098
      3681.83      0.61243122     0.049584532
      3685.51      0.63609748     0.049747524
      3689.20      0.65094742     0.049488244
      3692.88      0.69499348     0.049646744
      3696.58      0.69079100     0.049058001
      3700.27      0.73669476     0.049211005
      3703.98      0.75367439     0.049375796
      3707.68      0.72280747     0.049122530
      3711.39      0.70178329     0.048945971
      3715.10      0.67718049     0.049102206
      3718.81      0.67779437     0.048858611
      3722.53      0.66899551     0.049027026
      3726.26      0.65415009     0.049202488
      3729.98      0.63201033     0.048597415
      3733.71      0.62551119     0.048766839
      3737.45      0.62259001     0.048959196
      3741.18      0.61716748     0.048701547
      3744.93      0.62064203     0.048889240
      3748.67      0.60114715     0.048271864
      3752.42      0.55862319     0.048452452
      3756.17      0.54039380     0.048654105
      3759.93      0.55180266     0.048398223
      3763.69      0.53196499     0.048597784
      3767.45      0.54817113     0.048805108
      3771.22      0.55297347     0.048159472
      3774.99      0.54377480     0.048375053
      3778.77      0.57710980     0.048117916
      3782.54      0.56275764     0.048328691
      3786.33      0.59974131     0.048551703
      3790.11      0.60944148     0.048298185
      3793.90      0.59603949     0.048125028
      3797.70      0.62716725     0.047864799
      3801.50      0.62015006     0.048084230
      3805.30      0.61705183     0.048329115
      3809.10      0.59652216     0.048070826
      3812.91      0.59247027     0.048309467
      3816.73      0.63814482     0.047641102
      3820.54      0.59602624     0.047387876
      3824.36      0.60917947     0.047221442
      3828.19      0.63204182     0.046961948
      3832.02      0.64056636     0.046713902
      3835.85      0.67619303     0.046546689
      3839.68      0.71064154     0.046290065
      3843.52      0.71448898     0.046046123
      3847.37      0.75451436     0.045878731
      3851.22      0.79701358     0.045627347
      3855.07      0.82175104     0.044987771
      3858.92      0.84651566     0.044758860
      3862.78      0.89374004     0.044972612
      3866.64      0.89388568     0.044340036
      3870.51      0.92072607     0.044113538
      3874.38      0.92390167     0.044324717
      3878.26      0.95230611     0.043701988
      3882.13      0.95128251     0.043475667
      3886.02      0.98618990     0.043685751
      3889.90       1.0078372     0.043069604
      3893.79       1.0158898     0.042844864
      3897.69       1.0588307     0.042627975
      3901.59       1.0804907     0.042444775
      3905.49       1.0808783     0.042220579
      3909.39       1.0845305     0.042003499
      3913.30       1.0737769     0.041423359
      3917.22       1.0678794     0.041604440
      3921.13       1.0833549     0.041386808
      3925.06       1.0532048     0.040820647
      3928.98       1.0208419     0.040598401
      3932.91       1.0311092     0.040779073
      3936.84       1.0497927     0.040567300
      3940.78       1.0225735     0.040006485
      3944.72       1.0016108     0.039789170
      3948.67      0.98328722     0.039967483
      3952.61      0.97288957     0.039423019
      3956.57      0.96083616     0.039205502
      3960.52      0.98765111     0.038993443
      3964.48      0.99131036     0.038851639
      3968.45       1.0562747     0.038632878
      3972.42       1.0915074     0.038419283
      3976.39       1.1097121     0.038210609
      3980.37       1.1189547     0.038071551
      3984.35       1.1462414     0.037856272
      3988.33       1.1738346     0.037645774
      3992.32       1.1867573     0.037441505
      3996.31       1.2025785     0.036928171
      4000.31       1.2181349     0.037094796
      4004.31       1.2642355     0.036886750
      4008.31       1.2964783     0.036684603
      4012.32       1.2913083     0.036179779
      4016.33       1.2547079     0.035986605
      4020.35       1.2236971     0.036142461
      4024.37       1.1804516     0.035942144
      4028.40       1.1873484     0.035445595
      4032.42       1.1680440     0.035253376
      4036.46       1.1566593     0.035065765
      4040.50       1.1673242     0.034881045
      4044.54       1.1750411     0.034725147
      4048.58       1.1640809     0.034534372
      4052.63       1.1686568     0.034347050
      4056.68       1.1726871     0.034162541
      4060.74       1.1872872     0.033698481
      4064.80       1.1934383     0.033510156
      4068.86       1.1759065     0.033643078
      4072.93       1.1528933     0.033459306
      4077.01       1.1210986     0.033278585
      4081.08       1.1044786     0.032829277
      4085.17       1.0694208     0.032644869
      4089.25       1.0442827     0.032463246
      4093.34       1.0019928     0.032592715
      4097.43      0.97784035     0.032414080
      4101.53      0.94997192     0.031982361
      4105.63      0.94994060     0.031801651
      4109.74      0.92268809     0.031623123
      4113.85      0.89419150     0.031446214
      4117.96      0.89304979     0.031271778
      4122.08      0.88634015     0.030848998
      4126.20      0.89107800     0.030981672
      4130.33      0.90344779     0.030805619
      4134.46      0.93330625     0.030631132
      4138.59      0.94400832     0.030459050
      4142.73      0.93386840     0.030289123
      4146.88      0.94082864     0.029878454
      4151.02      0.91328022     0.029712404
      4155.18      0.91329681     0.029548396
      4159.33      0.90753217     0.029386188
      4163.49      0.90525850     0.029225395
      4167.65      0.90527573     0.029337448
      4171.82      0.88908532     0.029172477
      4175.99      0.88665022     0.028775759
      4180.17      0.88091885     0.028614973
      4184.35      0.87893366     0.028455768
      4188.54      0.86052005     0.028298029
      4192.72      0.83071574     0.028141237
      4196.92      0.82572236     0.027985537
      4201.11      0.83112067     0.027831237
      4205.31      0.83912994     0.027678392
      4209.52      0.85903565     0.027306448
      4213.73      0.88111151     0.027153065
      4217.94      0.87616331     0.027000704
      4222.16      0.88117000     0.026849631
      4226.38      0.89958110     0.026699341
      4230.61      0.88447103     0.026796160
      4234.84      0.88211755     0.026646810
      4239.08      0.86663192     0.026498704
      4243.32      0.85185791     0.026351786
      4247.56      0.85667605     0.026204961
      4251.81      0.85894516     0.025863349
      4256.06      0.86736779     0.025717701
      4260.32      0.85835812     0.025573373
      4264.58      0.85146311     0.025429167
      4268.84      0.84032714     0.025286725
      4273.11      0.84820842     0.025144987
      4277.38      0.83847696     0.025004489
      4281.66      0.85194646     0.024864051
      4285.94      0.85715454     0.024725339
      4290.23      0.87279657     0.024587232
      4294.52      0.87648335     0.024450290
      4298.81      0.86466763     0.024313378
      4303.11      0.85840108     0.024178142
      4307.42      0.84578612     0.024043443
      4311.72      0.83147238     0.023724575
      4316.04      0.81859940     0.023592227
      4320.35      0.80704037     0.023461185
      4324.67      0.80101939     0.023330783
      4329.00      0.82237207     0.023201518
      4333.33      0.81799552     0.023072387
      4337.66      0.81858839     0.022944495
      4342.00      0.81211269     0.022817215
      4346.34      0.82228013     0.022691011
      4350.69      0.81555927     0.022564876
      4355.04      0.82905144     0.022440214
      4359.39      0.82519466     0.022117431
      4363.75      0.83839576     0.021995555
      4368.12      0.82769308     0.021873940
      4372.48      0.82016492     0.021753588
      4376.86      0.81244948     0.021633405
      4381.23      0.80733395     0.021514784
      4385.61      0.80591562     0.021396458
      4390.00      0.81042427     0.021279470
      4394.39      0.81166725     0.021162738
      4398.79      0.80575010     0.021047090
      4403.18      0.79802243     0.020932055
      4407.59      0.80110252     0.020818424
      4412.00      0.80634135     0.020705098
      4416.41      0.79894371     0.020592869
      4420.82      0.80492111     0.020294435
      4425.25      0.81550994     0.020183259
      4429.67      0.82240901     0.020072850
      4434.10      0.83085216     0.019963372
      4438.54      0.85047211     0.019854674
      4442.97      0.86357184     0.019746896
      4447.42      0.87962362     0.019787804
      4451.86      0.89845009     0.019681206
      4456.32      0.90589873     0.019574951
      4460.77      0.92647585     0.019470330
      4465.24      0.96702441     0.019196486
      4469.70      0.97192331     0.019091924
      4474.17      0.98616355     0.018988160
      4478.65       1.0036250     0.018885850
      4483.12       1.0337178     0.018784046
      4487.61       1.0569120     0.018683264
      4492.09       1.0646216     0.018583346
      4496.59       1.0690100     0.018484896
      4501.08       1.0775887     0.018228892
      4505.58       1.0913590     0.018133091
      4510.09       1.1150606     0.018038258
      4514.60       1.1261295     0.018072816
      4519.12       1.1429314     0.017976488
      4523.63       1.1572092     0.017881315
      4528.16       1.1823305     0.017634378
      4532.69       1.2006840     0.017542231
      4537.22       1.2121112     0.017451363
      4541.76       1.2195912     0.017361467
      4546.30       1.2365747     0.017272725
      4550.85       1.2571586     0.017185270
      4555.40       1.2556605     0.017068178
      4559.95       1.2874788     0.016979740
      4564.51       1.3133048     0.016892676
      4569.08       1.3475206     0.016806993
      4573.65       1.3718347     0.016722352
      4578.22       1.3904919     0.016492937
      4582.80       1.4019986     0.016407816
      4587.38       1.4137992     0.016324433
      4591.97       1.4244652     0.016361132
      4596.56       1.4261758     0.016279662
      4601.16       1.4129229     0.016059775
      4605.76       1.4159935     0.015977737
      4610.37       1.4129526     0.015897156
      4614.98       1.4022604     0.015818197
      4619.59       1.3821653     0.015724315
      4624.21       1.3637753     0.015644145
      4628.84       1.3456897     0.015565554
      4633.47       1.3308200     0.015488312
      4638.10       1.3108484     0.015412301
      4642.74       1.2978951     0.015211024
      4647.38       1.2959454     0.015245804
      4652.03       1.2815641     0.015170314
      4656.68       1.2920647     0.015096570
      4661.34       1.2870933     0.014900147
      4666.00       1.2794931     0.014830351
      4670.67       1.2705033     0.014864025
      4675.33       1.2491064     0.014792451
      4680.01       1.2319857     0.014601051
      4684.69       1.2064543     0.014533788
      4689.38       1.1811313     0.014467848
      4694.07       1.1671907     0.014380215
      4698.76       1.1419540     0.014313555
      4703.46       1.1095512     0.014248507
      4708.16       1.0895770     0.014185340
      4712.87       1.0686784     0.014000729
      4717.58       1.0418431     0.014036946
      4722.30       1.0295351     0.013974758
      4727.03       1.0258739     0.013796635
      4731.75       1.0203879     0.013733965
      4736.48       1.0200320     0.013771584
      4741.22       1.0190467     0.013599122
      4745.96       1.0128930     0.013537772
      4750.71      0.99730747     0.013478041
      4755.46      0.99549134     0.013408034
      4760.22      0.98881695     0.013347893
      4764.97      0.97976587     0.013289681
      4769.74      0.97466671     0.013128070
      4774.51      0.96330209     0.013164131
      4779.29      0.96006175     0.013107465
      4784.07      0.95454625     0.012948713
      4788.85      0.95273637     0.012986575
      4793.64      0.96200795     0.012931098
      4798.43      0.97824509     0.012775697
      4803.23      0.98743407     0.012724876
      4808.03       1.0002757     0.012760703
      4812.84       1.0194525     0.012608499
      4817.66       1.0227344     0.012559586
      4822.48       1.0346448     0.012596160
      4827.30       1.0339349     0.012447094
      4832.12       1.0347508     0.012400226
      4836.96       1.0170820     0.012339170
      4841.79       1.0066526     0.012291920
      4846.63      0.99811894     0.012246728
      4851.48      0.98027230     0.012187682
      4856.33      0.96829383     0.012142281
      4861.19      0.95568260     0.012099184
      4866.05      0.93903889     0.011957239
      4870.92      0.93208151     0.011998337
      4875.79      0.93651109     0.011860896
      4880.66      0.94370595     0.011901434
      4885.55      0.95746620     0.011767992
      4890.43      0.97331273     0.011724714
      4895.32       1.0026467     0.011766891
      4900.22       1.0387127     0.011634986
      4905.12       1.0626849     0.011594216
      4910.02       1.0981121     0.011548568
      4914.94       1.1312578     0.011507757
      4919.85       1.1463610     0.011382723
      4924.77       1.1710758     0.011424348
      4929.70       1.1952752     0.011386403
      4934.62       1.1981624     0.011265133
      4939.56       1.1970481     0.011305883
      4944.50       1.1911259     0.011185729
      4949.44       1.1759325     0.011228277
      4954.39       1.1521470     0.011109016
      4959.35       1.1307332     0.011077225
      4964.31       1.1043071     0.011035099
      4969.27       1.0920236     0.011003605
      4974.24       1.0660630     0.010963697
      4979.22       1.0502782     0.010932816
      4984.20       1.0334218     0.010819449
      4989.18       1.0330217     0.010864559
      4994.17       1.0173186     0.010837026
      4999.16      0.99124264     0.010798813
      5004.16      0.96929701     0.010771769
      5009.17      0.93854235     0.010735529
      5014.18      0.92104102     0.010709190
      5019.19      0.90398081     0.010600105
      5024.21      0.90044179     0.010648985
      5029.23      0.88358005     0.010541908
      5034.26      0.86700393     0.010512904
      5039.30      0.86183902     0.010485751
      5044.34      0.85021945     0.010458255
      5049.39      0.85700968     0.010431913
      5054.43      0.86571898     0.010405810
      5059.49      0.86881053     0.010380414
      5064.55      0.88946310     0.010355434
      5069.61      0.90068762     0.010330961
      5074.68      0.92003314     0.010307107
      5079.76      0.93313546     0.010283712
      5084.84      0.94845558     0.010190031
      5089.92      0.94681166     0.010238585
      5095.01      0.94031378     0.010146521
      5100.11      0.93653347     0.010122558
      5105.21      0.93672741     0.010105101
      5110.31      0.94110275     0.010081993
      5115.42      0.93942723     0.010065916
      5120.54      0.94693900     0.010043553
      5125.66      0.94162016     0.010028912
      5130.79      0.94324449     0.010007345
      5135.92      0.93862101    0.0099196456
      5141.05      0.93390805    0.0099733629
      5146.20      0.93877291    0.0099552233
      5151.34      0.93781496    0.0099413628
      5156.49      0.93821239    0.0099238035
      5161.65      0.94651346    0.0098399716
      5166.81      0.95161926    0.0098945345
      5171.98      0.96265245    0.0098111358
      5177.15      0.97497798    0.0098675532
      5182.33      0.98730106    0.0097845044
      5187.51       1.0001233    0.0097727526
      5192.70       1.0147547    0.0097599926
      5197.89       1.0411835    0.0097484869
      5203.09       1.0532064    0.0097390962
      5208.29       1.0677206    0.0097263944
      5213.50       1.0807508    0.0097172343
      5218.72       1.1001140    0.0096404699
      5223.93       1.1110836    0.0096975215
      5229.16       1.1221541    0.0096231929
      5234.39       1.1344335    0.0096800380
      5239.62       1.1500502    0.0096731806
      5244.86       1.1676887    0.0095994041
      5250.11       1.1855686    0.0096580134
      5255.36       1.1980652    0.0095868868
      5260.61       1.2062999    0.0095799200
      5265.87       1.2191644    0.0095749228
      5271.14       1.2404434    0.0095698558
      5276.41       1.2501973    0.0095647035
      5281.69       1.2665756    0.0094952885
      5286.97       1.2780357    0.0095570454
      5292.26       1.2941261    0.0095536081
      5297.55       1.3145190    0.0094854723
      5302.85       1.3126813    0.0095483236
      5308.15       1.3146811    0.0095462618
      5313.46       1.3211035    0.0094793492
      5318.77       1.3243896    0.0095435278
      5324.09       1.3206429    0.0094763360
      5329.42       1.3100902    0.0094768432
      5334.75       1.3055338    0.0094787792
      5340.08       1.3047739    0.0094763137
      5345.42       1.2974310    0.0094780172
      5350.77       1.2936198    0.0094808504
      5356.12       1.2813388    0.0094186886
      5361.48       1.2641602    0.0094826725
      5366.83       1.2510755    0.0094865128
      5372.20       1.2412716    0.0094262379
      5377.58       1.2355924    0.0094297244
      5382.95       1.2379997    0.0094956131
      5388.34       1.2436718    0.0095013221
      5393.72       1.2507879    0.0094416502
      5399.12       1.2592630    0.0094469957
      5404.52       1.2711849    0.0095146109
      5409.92       1.2908966    0.0094571642
      5415.33       1.3221296    0.0094632345
      5420.75       1.3438386    0.0094701974
      5426.17       1.3649469    0.0094129962
      5431.60       1.3804032    0.0094831749
      5437.03       1.4021535    0.0094907026
      5442.47       1.4195471    0.0094991590
      5447.91       1.4256932    0.0094429540
      5453.36       1.4334608    0.0094530250
      5458.81       1.4260468    0.0095239093
      5464.27       1.4130351    0.0095335376
      5469.73       1.4108625    0.0094781905
      5475.20       1.4032794    0.0094893399
      5480.68       1.3988826    0.0095012063
      5486.16       1.3862740    0.0095136954
      5491.65       1.3684597    0.0095185323
      5497.14       1.3419807    0.0095307347
      5502.64       1.3274567    0.0095435150
      5508.14       1.3177673    0.0095568996
      5513.65       1.3142954    0.0095053162
      5519.16       1.3086874    0.0095181807
      5524.68       1.3065701    0.0095908743
      5530.20       1.3009081    0.0096051200
      5535.73       1.3022870    0.0096198299
      5541.27       1.3000922    0.0095698923
      5546.81       1.3056612    0.0095841158
      5552.36       1.3077096    0.0095988850
      5557.91       1.3111312    0.0096142166
      5563.47       1.3196065    0.0096299478
      5569.04       1.3270159    0.0095806646
      5574.60       1.3401128    0.0096572552
      5580.18       1.3465279    0.0096731638
      5585.76       1.3566792    0.0096896017
      5591.35       1.3671775    0.0097062825
      5596.94       1.3636559    0.0097234439
      5602.53       1.3623800    0.0096747120
      5608.14       1.3611384    0.0096924643
      5613.75       1.3620381    0.0097106315
      5619.36       1.3592665    0.0097291683
      5624.98       1.3475528    0.0097479633
      5630.60       1.3401948    0.0097671345
      5636.23       1.3232202    0.0097192917
      5641.87       1.3125780    0.0097962011
      5647.51       1.2965880    0.0098154921
      5653.16       1.2833475    0.0098348585
      5658.82       1.2553174    0.0098545312
      5664.47       1.2272684    0.0098746651
      5670.14       1.2021864    0.0098948362
      5675.81       1.1720359    0.0099152693
      5681.48       1.1453418    0.0098705246
      5687.17       1.1208922    0.0098905607
      5692.85       1.0954275    0.0099109847
      5698.55       1.0690101    0.0099317487
      5704.25       1.0407278    0.0099524433
      5709.95       1.0157202    0.0099735699
      5715.66      0.99298907    0.0099953516
      5721.38      0.97065839     0.010017671
      5727.10      0.96146992     0.010040727
      5732.83      0.96626584     0.010063651
      5738.56      0.97157157     0.010086310
      5744.30      0.98565353     0.010109986
      5750.04      0.98944150     0.010067529
      5755.79       1.0064196     0.010096239
      5761.55       1.0239855     0.010127457
      5767.31       1.0417307     0.010158967
      5773.08       1.0571162     0.010191227
      5778.85       1.0878874     0.010225276
      5784.63       1.1157501     0.010258866
      5790.41       1.1337201     0.010289200
      5796.21       1.1531760     0.010316882
      5802.00       1.1670533     0.010342843
      5807.81       1.1765660     0.010307787
      5813.61       1.1862405     0.010330482
      5819.43       1.1961410     0.010351658
      5825.25       1.2129148     0.010372923
      5831.07       1.2284225     0.010395037
      5836.90       1.2545847     0.010417256
      5842.74       1.2683176     0.010438617
      5848.58       1.2719548     0.010458645
      5854.43       1.2754676     0.010477396
      5860.29       1.2636901     0.010495742
      5866.15       1.2574235     0.010514544
      5872.01       1.2539163     0.010532544
      5877.89       1.2546768     0.010486455
      5883.76       1.2484465     0.010502910
      5889.65       1.2589423     0.010521896
      5895.54       1.2442886     0.010541918
      5901.43       1.2359770     0.010560335
      5907.34       1.2318125     0.010578885
      5913.24       1.2262430     0.010599285
      5919.16       1.2172333     0.010620909
      5925.08       1.2076656     0.010583236
      5931.00       1.2065264     0.010675219
      5936.93       1.2097767     0.010697748
      5942.87       1.2016642     0.010720866
      5948.81       1.1944283     0.010743949
      5954.76       1.1787930     0.010767057
      5960.72       1.1637169     0.010790483
      5966.68       1.1478689     0.010753277
      5972.64       1.1267262     0.010776945
      5978.62       1.1066858     0.010800775
      5984.60       1.1037306     0.010824690
      5990.58       1.0998434     0.010848762
      5996.57       1.0906789     0.010809340
      6002.57       1.0927256     0.010901895
      6008.57       1.0891186     0.010925134
      6014.58       1.0908732     0.010948427
      6020.60       1.0844552     0.010971949
      6026.62       1.0805782     0.010932950
      6032.65       1.0745927     0.010955162
      6038.68       1.0678874     0.010977595
      6044.72       1.0670774     0.011000376
      6050.76       1.0691439     0.011093809
      6056.81       1.0628766     0.011054143
      6062.87       1.0596975     0.011075802
      6068.93       1.0600933     0.011097593
      6075.00       1.0586852     0.011119508
      6081.08       1.0557355     0.011080321
      6087.16       1.0533007     0.011172197
      6093.25       1.0519482     0.011193414
      6099.34       1.0610830     0.011216123
      6105.44       1.0665341     0.011182225
      6111.54       1.0710380     0.011207674
      6117.66       1.0775531     0.011228295
      6123.78       1.0771383     0.011319119
      6129.90       1.0768948     0.011287074
      6136.03       1.0762300     0.011322287
      6142.17       1.0721136     0.011363365
      6148.31       1.0647001     0.011347370
      6154.46       1.0629819     0.011466077
      6160.61       1.0611054     0.011511699
      6166.77       1.0503982     0.011491443
      6172.94       1.0378849     0.011525357
      6179.11       1.0262202     0.011626097
      6185.29       1.0193707     0.011578186
      6191.48       1.0069056     0.011586063
      6197.67      0.98814653     0.011587762
      6203.87      0.97823902     0.011655867
      6210.07      0.97172818     0.011584208
      6216.28      0.97108777     0.011584376
      6222.50      0.96903376     0.011527442
      6228.72      0.96674792     0.011605602
      6234.95      0.95565690     0.011608152
      6241.19      0.94711158     0.011550035
      6247.42      0.94590703     0.011559864
      6253.67      0.93987031     0.011637253
      6259.93      0.93614137     0.011582633
      6266.19      0.93246921     0.011593923
      6272.46      0.93149440     0.011673492
      6278.73      0.93021372     0.011620805
      6285.01      0.92714603     0.011634080
      6291.29      0.93637554     0.011651849
      6297.58      0.93703885     0.011665625
      6303.88      0.94207312     0.011680429
      6310.19      0.94524293     0.011628357
      6316.50      0.94405457     0.011713205
      6322.81      0.95142135     0.011665268
      6329.14      0.95874852     0.011683125
      6335.47      0.96721798     0.011713557
      6341.80      0.97557065     0.011734151
      6348.14      0.98681565     0.011753553
      6354.49      0.98296538     0.011778758
      6360.85      0.99263457     0.011795190
      6367.21       1.0075055     0.011818402
      6373.57       1.0155804     0.011829901
      6379.95       1.0216153     0.011775484
      6386.33       1.0266901     0.011850794
      6392.72       1.0423802     0.011790506
      6399.11       1.0566405     0.011795424
      6405.51       1.0711508     0.011801893
      6411.92       1.0806594     0.011807462
      6418.32       1.0798245     0.011881825
      6424.74       1.0832506     0.011822456
      6431.17       1.0835473     0.011827850
      6437.60       1.0914502     0.011830747
      6444.04       1.0900737     0.011832518
      6450.48       1.0921687     0.011833739
      6456.94       1.0970332     0.011836118
      6463.39       1.0962445     0.011770336
      6469.85       1.0972417     0.011771368
      6476.33       1.0888658     0.011767959
      6482.80       1.0957449     0.011770381
      6489.28       1.0983368     0.011769393
      6495.77       1.1105490     0.011773813
      6502.27       1.0922767     0.011773050
      6508.77       1.0856913     0.011777153
      6515.28       1.0783510     0.011776143
      6521.80       1.0619828     0.011779187
      6528.32       1.0498509     0.011777142
      6534.85       1.0292688     0.011713090
      6541.38       1.0194582     0.011712320
      6547.92       1.0142302     0.011711557
      6554.47       1.0187684     0.011709567
      6561.03       1.0180975     0.011707862
      6567.59       1.0215913     0.011704368
      6574.16       1.0307209     0.011701936
      6580.73       1.0396801     0.011696748
      6587.31       1.0446813     0.011627528
      6593.90       1.0471895     0.011686738
      6600.50       1.0496080     0.011616090
      6607.10       1.0543059     0.011674531
      6613.70       1.0582229     0.011666443
      6620.32       1.0574601     0.011594674
      6626.94       1.0341584     0.011649929
      6633.57       1.0279206     0.011576518
      6640.20       1.0166673     0.011567478
      6646.84       1.0103269     0.011555920
      6653.49      0.99842409     0.011544829
      6660.14      0.99068773     0.011470678
      6666.80      0.98474185     0.011520136
      6673.47      0.98329624     0.011454699
      6680.14      0.98601827     0.011479068
      6686.82      0.98722355     0.011557944
      6693.51      0.99288150     0.011480098
      6700.20      0.99540233     0.011457986
      6706.90      0.99148972     0.011480869
      6713.61      0.99261269     0.011552823
      6720.32      0.98205515     0.011668982
      6727.05      0.97453379     0.011788402
      6733.77      0.96665623     0.011959165
      6740.51      0.95329110     0.012055488
      6747.25      0.94236048     0.012207487
      6754.00      0.93609243     0.012375159
      6760.75      0.93502066     0.012346887
      6767.51      0.92544406     0.012326403
      6774.28      0.91869980     0.012320827
      6781.05      0.91118519     0.012113411
      6787.84      0.90182358     0.011935959
      6794.62      0.89140776     0.011751730
      6801.42      0.89353628     0.011616275
      6808.22      0.89448583     0.011496678
      6815.03      0.89469660     0.011400967
      6821.85      0.89603047     0.011229096
      6828.67      0.89978708     0.011184591
      6835.50      0.89729973     0.011104331
      6842.33      0.89640306     0.010978043
      6849.17      0.89864874     0.010907184
      6856.02      0.90035863     0.010844733
      6862.88      0.90447475     0.010800446
      6869.74      0.90245681     0.010750699
      6876.61      0.90536557     0.010705289
      6883.49      0.90231650     0.010608630
      6890.37      0.90155069     0.010561403
      6897.27      0.90076327     0.010569799
      6904.16      0.89725139     0.010402939
      6911.07      0.89544171     0.010237105
      6917.98      0.89595637     0.010129970
      6924.89      0.88422012    0.0099717090
      6931.82      0.88742382    0.0097764696
      6938.75      0.89382569    0.0096282908
      6945.69      0.90019805    0.0095320852
      6952.64      0.90033671    0.0093895373
      6959.59      0.90413709    0.0092566474
      6966.55      0.90012483    0.0091783251
      6973.52      0.89493476    0.0090567676
      6980.49      0.89452444    0.0089342986
      6987.47      0.88871563    0.0088118122
      6994.46      0.88672077    0.0086631120
      7001.46      0.88489110    0.0085976231
      7008.46      0.88184398    0.0085179159
      7015.46      0.87826139    0.0084617122
      7022.48      0.86709680    0.0084093963
      7029.51      0.86767607    0.0083803721
      7036.53      0.86809865    0.0083098756
      7043.57      0.86577916    0.0082336103
      7050.62      0.85870484    0.0081534516
      7057.66      0.85797571    0.0080638611
      7064.72      0.84943410    0.0079682751
      7071.79      0.84200084    0.0078665121
      7078.86      0.83547548    0.0077680732
      7085.94      0.83174557    0.0076538210
      7093.03      0.82799699    0.0075325009
      7100.12      0.82460539    0.0074088169
      7107.22      0.82540393    0.0072834028
      7114.33      0.82960602    0.0071565215
      7121.44      0.83348575    0.0070274810
      7128.56      0.83511407    0.0068958748
      7135.69      0.84249727    0.0067622194
      7142.83      0.84211106    0.0066289038
      7149.97      0.84391561    0.0065274028
      7157.12      0.84411421    0.0063947738
      7164.28      0.85009907    0.0062619145
      7171.44      0.85127662    0.0063137549
      7178.62      0.85215758    0.0063793546
      7185.80      0.85243966    0.0064614033
      7192.98      0.85140788    0.0065648086
      7200.17      0.85148136    0.0066973725
      7207.38      0.85159561    0.0068702839
      7214.58      0.85000272    0.0070747438
      7221.80      0.84944507    0.0073833984
      7229.02      0.84938283    0.0078042339
      7236.25      0.84457060    0.0083707198
      7243.49      0.83925527    0.0091150293
      7250.73      0.83660040     0.010074807
      7257.98      0.82941296     0.011308054
      7265.24      0.81757012     0.012887916
      7272.51      0.80263182     0.014888482
      7279.78      0.78396696     0.017407126
