# starting wavelength =        3399.0400
# ending wavelength =        7217.3400
# O2 telluric scale =        0
# O2 telluric shift =        0
# H2O telluric scale =        0
# H2O telluric shift =        0
      3402.28      0.48065241      0.13904198
      3405.68      0.44050219      0.11832851
      3409.09      0.44219268     0.098813223
      3412.49      0.42961143     0.086599186
      3415.91      0.42259565     0.077017821
      3419.32      0.43366765     0.069575462
      3422.74      0.44149100     0.063797693
      3426.17      0.46329799     0.060123349
      3429.59      0.46790132     0.056424606
      3433.02      0.48247580     0.053541450
      3436.45      0.51544321     0.051277900
      3439.89      0.55644290     0.049052327
      3443.33      0.59416930     0.047634301
      3446.78      0.59336486     0.046464320
      3450.22      0.59341546     0.045484367
      3453.67      0.62459046     0.044651132
      3457.13      0.63491580     0.043692168
      3460.58      0.65178650     0.043035738
      3464.04      0.66614893     0.042870109
      3467.51      0.66931624     0.042710181
      3470.98      0.68739623     0.042486848
      3474.45      0.68231791     0.042325841
      3477.92      0.67035071     0.042380930
      3481.40      0.66344019     0.042431866
      3484.88      0.67214047     0.041996770
      3488.37      0.67081923     0.042049194
      3491.86      0.66768165     0.041890914
      3495.35      0.65185347     0.041952065
      3498.84      0.64011228     0.041722911
      3502.34      0.61915730     0.041569438
      3505.84      0.62072925     0.041622004
      3509.35      0.56926961     0.041685495
      3512.86      0.57434596     0.041243071
      3516.37      0.57407261     0.041303854
      3519.89      0.55360922     0.041364503
      3523.41      0.54240562     0.040925269
      3526.93      0.51653600     0.040986917
      3530.46      0.52575012     0.040828824
      3533.99      0.50271404     0.040898705
      3537.53      0.50315927     0.040672196
      3541.06      0.49730133     0.040521324
      3544.60      0.48920907     0.040581152
      3548.15      0.48085604     0.040366273
      3551.70      0.47997033     0.040206937
      3555.25      0.49831619     0.040278717
      3558.80      0.47518618     0.040344596
      3562.36      0.47737712     0.039905129
      3565.92      0.45365260     0.039971005
      3569.49      0.47366635     0.040046526
      3573.06      0.46507026     0.039826733
      3576.64      0.45809196     0.039673967
      3580.21      0.43598776     0.039745776
      3583.79      0.41359287     0.039826575
      3587.38      0.40027485     0.039374305
      3590.96      0.39445438     0.039454804
      3594.55      0.39133534     0.039531255
      3598.15      0.39637619     0.039085555
      3601.75      0.37224904     0.039160738
      3605.35      0.36846449     0.039247817
      3608.96      0.36542770     0.039029147
      3612.56      0.35969160     0.038879594
      3616.18      0.37828376     0.038959079
      3619.79      0.40647710     0.038749742
      3623.41      0.41071864     0.038591376
      3627.04      0.41081456     0.038686980
      3630.66      0.39670133     0.038466583
      3634.29      0.39837700     0.038558635
      3637.93      0.40255535     0.038403337
      3641.57      0.39206948     0.038191002
      3645.21      0.40397287     0.038285623
      3648.86      0.40809568     0.038380489
      3652.50      0.43469003     0.037921752
      3656.16      0.43483817     0.038013630
      3659.81      0.43789529     0.038119429
      3663.47      0.43139793     0.037902296
      3667.14      0.43205851     0.038008862
      3670.80      0.42808825     0.037850719
      3674.48      0.41796623     0.037641906
      3678.15      0.39951134     0.037749080
      3681.83      0.41341985     0.037857977
      3685.51      0.41822078     0.037387833
      3689.20      0.43405732     0.037491651
      3692.88      0.43500150     0.037615424
      3696.58      0.44207435     0.037397137
      3700.27      0.43068058     0.037515185
      3703.98      0.45684263     0.037036411
      3707.68      0.46417572     0.037149281
      3711.39      0.47854266     0.037278462
      3715.10      0.46471178     0.037062271
      3718.81      0.47459838     0.037189325
      3722.53      0.48611818     0.037034040
      3726.26      0.49616040     0.036823462
      3729.98      0.52721388     0.036961476
      3733.71      0.54191164     0.036745841
      3737.45      0.55113142     0.036881829
      3741.18      0.55752764     0.037022562
      3744.93      0.56164325     0.036516192
      3748.67      0.57368086     0.036664291
      3752.42      0.59425242     0.036797851
      3756.17      0.59804801     0.036590682
      3759.93      0.61110295     0.036744618
      3763.69      0.65902526     0.036531195
      3767.45      0.68430601     0.036688196
      3771.22      0.69418268     0.036528595
      3774.99      0.71571758     0.036318638
      3778.77      0.72289238     0.036489668
      3782.54      0.73971581     0.036272696
      3786.33      0.76591086     0.036436058
      3790.11      0.76460019     0.035916905
      3793.90      0.78029767     0.035705980
      3797.70      0.80121369     0.035569889
      3801.50      0.80000163     0.035353458
      3805.30      0.80837402     0.035144403
      3809.10      0.81990131     0.034641755
      3812.91      0.82043802     0.034796266
      3816.73      0.84329571     0.034591392
      3820.54      0.84908278     0.034095927
      3824.36      0.87564669     0.034246931
      3828.19      0.90990471     0.034045708
      3832.02      0.93810130     0.033556089
      3835.85      0.98532555     0.033706412
      3839.68       1.0218594     0.033214789
      3843.52       1.0286795     0.033023925
      3847.37       1.0575091     0.032838834
      3851.22       1.0710366     0.032687114
      3855.07       1.0820567     0.032497476
      3858.92       1.0965196     0.032314388
      3862.78       1.0995470     0.032167937
      3866.64       1.1176851     0.031978590
      3870.51       1.1323974     0.031796772
      3874.38       1.1513226     0.031344549
      3878.26       1.1803863     0.031467731
      3882.13       1.2140696     0.031284712
      3886.02       1.2143317     0.031108732
      3889.90       1.2476432     0.030658876
      3893.79       1.2684335     0.030780641
      3897.69       1.3013238     0.030603718
      3901.59       1.3299783     0.030167467
      3905.49       1.3427304     0.029987066
      3909.39       1.3497062     0.030106980
      3913.30       1.3407998     0.029684934
      3917.22       1.3111377     0.029504391
      3921.13       1.2940971     0.029328994
      3925.06       1.2795913     0.029211646
      3928.98       1.2435760     0.029031445
      3932.91       1.2146663     0.028854452
      3936.84       1.1822643     0.028682988
      3940.78       1.1490250     0.028567185
      3944.72       1.1193697     0.028390368
      3948.67       1.0977657     0.028217520
      3952.61       1.0832740     0.028048726
      3956.57       1.0613252     0.027651834
      3960.52       1.0406654     0.027762736
      3964.48       1.0408849     0.027593000
      3968.45       1.0258567     0.027426658
      3972.42       1.0163325     0.027037760
      3976.39       1.0054254     0.026879311
      3980.37      0.98746078     0.026982355
      3984.35      0.96943634     0.026595432
      3988.33      0.94553306     0.026435508
      3992.32      0.91904737     0.026278945
      3996.31      0.91520481     0.026125018
      4000.31      0.91358476     0.026221432
      4004.31      0.90629484     0.025846367
      4008.31      0.89615007     0.025691394
      4012.32      0.86966574     0.025539025
      4016.33      0.85630237     0.025389114
      4020.35      0.85479547     0.025029854
      4024.37      0.85180404     0.025116838
      4028.40      0.84040546     0.024965763
      4032.42      0.82961891     0.024816821
      4036.46      0.82539933     0.024670371
      4040.50      0.81331887     0.024322673
      4044.54      0.80934285     0.024173954
      4048.58      0.78674929     0.024258414
      4052.63      0.76706094     0.024112567
      4056.68      0.74420629     0.023968675
      4060.74      0.72883536     0.023635557
      4064.80      0.71427142     0.023489969
      4068.86      0.69093316     0.023346435
      4072.93      0.68508568     0.023204605
      4077.01      0.67805589     0.023064602
      4081.08      0.66810982     0.022969557
      4085.17      0.64707464     0.022826926
      4089.25      0.63700760     0.022685646
      4093.34      0.63729685     0.022546668
      4097.43      0.63236205     0.022408913
      4101.53      0.62383669     0.022273180
      4105.63      0.61528164     0.021962128
      4109.74      0.60881638     0.021830103
      4113.85      0.60234573     0.021699430
      4117.96      0.60540848     0.021775673
      4122.08      0.61064933     0.021642294
      4126.20      0.60253832     0.021509612
      4130.33      0.62510114     0.021208633
      4134.46      0.63973996     0.021079401
      4138.59      0.65246176     0.020952259
      4142.73      0.65449313     0.020825362
      4146.88      0.65506647     0.020700533
      4151.02      0.66758452     0.020575875
      4155.18      0.67277824     0.020453278
      4159.33      0.67848616     0.020169362
      4163.49      0.68392846     0.020046939
      4167.65      0.68829619     0.020110527
      4171.82      0.67842386     0.019988675
      4175.99      0.66948056     0.019867373
      4180.17      0.66093218     0.019747552
      4184.35      0.65078924     0.019628197
      4188.54      0.65021820     0.019510300
      4192.72      0.64890911     0.019392821
      4196.92      0.66153071     0.019131396
      4201.11      0.66521090     0.019014068
      4205.31      0.67114154     0.018898940
      4209.52      0.68033040     0.018783856
      4213.73      0.68769872     0.018670442
      4217.94      0.68729813     0.018557077
      4222.16      0.69610532     0.018445328
      4226.38      0.71224159     0.018333419
      4230.61      0.73274504     0.018223478
      4234.84      0.74008558     0.018113545
      4239.08      0.75829815     0.018005151
      4243.32      0.77823842     0.017896476
      4247.56      0.78681715     0.017789699
      4251.81      0.80150315     0.017547034
      4256.06      0.81716460     0.017442480
      4260.32      0.82792596     0.017337968
      4264.58      0.84260150     0.017234853
      4268.84      0.86361967     0.017131891
      4273.11      0.87902837     0.017030315
      4277.38      0.89036647     0.016928776
      4281.66      0.89585483     0.016828596
      4285.94      0.90630941     0.016728146
      4290.23      0.89914832     0.016629232
      4294.52      0.89523635     0.016530455
      4298.81      0.89495646     0.016432990
      4303.11      0.88937312     0.016335670
      4307.42      0.86662727     0.016239661
      4311.72      0.86257642     0.016143411
      4316.04      0.84903248     0.016048723
      4320.35      0.83966229     0.015954262
      4324.67      0.83521677     0.015861093
      4329.00      0.83041118     0.015767760
      4333.33      0.83713319     0.015675999
      4337.66      0.82693101     0.015584080
      4342.00      0.82855335     0.015493708
      4346.34      0.82581095     0.015265599
      4350.69      0.82367865     0.015177337
      4355.04      0.82900657     0.015089289
      4359.39      0.82799686     0.015002225
      4363.75      0.83056110     0.014915769
      4368.12      0.82958601     0.014830264
      4372.48      0.83208285     0.014745354
      4376.86      0.83902365     0.014661354
      4381.23      0.84745667     0.014577961
      4385.61      0.84997344     0.014495452
      4390.00      0.86002265     0.014413574
      4394.39      0.88138163     0.014332571
      4398.79      0.90604937     0.014123509
      4403.18      0.93526475     0.014043282
      4407.59      0.97967754     0.013963853
      4412.00       1.0103197     0.013885083
      4416.41       1.0476114     0.013807189
      4420.82       1.0744888     0.013729950
      4425.25       1.1021159     0.013653637
      4429.67       1.1198764     0.013578011
      4434.10       1.1355920     0.013604911
      4438.54       1.1650234     0.013413029
      4442.97       1.1715131     0.013338339
      4447.42       1.1983508     0.013264314
      4451.86       1.2240587     0.013191277
      4456.32       1.2636947     0.013118930
      4460.77       1.3021675     0.013047545
      4465.24       1.3367202     0.012976931
      4469.70       1.3873668     0.012796020
      4474.17       1.4312847     0.012728014
      4478.65       1.4703980     0.012660762
      4483.12       1.5144244     0.012594510
      4487.61       1.5527417     0.012528870
      4492.09       1.5972256     0.012551069
      4496.59       1.6135618     0.012377570
      4501.08       1.6288423     0.012312734
      4505.58       1.6476653     0.012249074
      4510.09       1.6521833     0.012186146
      4514.60       1.6521324     0.012124392
      4519.12       1.6457581     0.012063433
      4523.63       1.6540969     0.011896271
      4528.16       1.6393266     0.011921946
      4532.69       1.6480723     0.011861831
      4537.22       1.6579729     0.011802490
      4541.76       1.6640102     0.011744476
      4546.30       1.6676253     0.011585524
      4550.85       1.6683043     0.011527622
      4555.40       1.6674905     0.011470332
      4559.95       1.6550305     0.011498269
      4564.51       1.6356360     0.011442839
      4569.08       1.6214506     0.011291243
      4573.65       1.6072377     0.011235966
      4578.22       1.5851501     0.011181600
      4582.80       1.5528479     0.011128526
      4587.38       1.5224067     0.010984793
      4591.97       1.5007229     0.011012455
      4596.56       1.4718011     0.010959777
      4601.16       1.4435865     0.010908735
      4605.76       1.4311320     0.010769163
      4610.37       1.4136033     0.010720789
      4614.98       1.3940052     0.010748774
      4619.59       1.3761986     0.010699410
      4624.21       1.3619009     0.010563862
      4628.84       1.3374069     0.010517375
      4633.47       1.3268231     0.010472325
      4638.10       1.3153782     0.010500117
      4642.74       1.2970682     0.010368737
      4647.38       1.2807720     0.010324221
      4652.03       1.2678993     0.010281527
      4656.68       1.2622526     0.010239646
      4661.34       1.2494559     0.010183159
      4666.00       1.2295502     0.010141108
      4670.67       1.2075756     0.010100611
      4675.33       1.1959888    0.0099762968
      4680.01       1.1870886     0.010007343
      4684.69       1.1656471    0.0099678890
      4689.38       1.1534193    0.0098480596
      4694.07       1.1418459    0.0098085235
      4698.76       1.1155444    0.0098411325
      4703.46       1.0870812    0.0098042699
      4708.16       1.0554275    0.0096872410
      4712.87       1.0367125    0.0096501814
      4717.58       1.0187151    0.0096845573
      4722.30       1.0089651    0.0095715477
      4727.03      0.99083101    0.0095356536
      4731.75      0.97494966    0.0095011753
      4736.48      0.97289904    0.0094612178
      4741.22      0.96121386    0.0094263409
      4745.96      0.95398566    0.0093933629
      4750.71      0.94170587    0.0092886340
      4755.46      0.93421444    0.0093225348
      4760.22      0.92820215    0.0092184316
      4764.97      0.92864577    0.0091886073
      4769.74      0.92545482    0.0092238701
      4774.51      0.91258936    0.0091219772
      4779.29      0.91110821    0.0090937535
      4784.07      0.89848435    0.0090670983
      4788.85      0.88254332    0.0090306307
      4793.64      0.87667983    0.0090038636
      4798.43      0.87779262    0.0089789397
      4803.23      0.88163059    0.0089441234
      4808.03      0.88137750    0.0089190106
      4812.84      0.88035707    0.0088240453
      4817.66      0.87974964    0.0088624878
      4822.48      0.88102844    0.0088393135
      4827.30      0.87758168    0.0087460961
      4832.12      0.87302932    0.0087860090
      4836.96      0.86926218    0.0086960043
      4841.79      0.86708481    0.0086728929
      4846.63      0.87114452    0.0087143502
      4851.48      0.87425824    0.0086255508
      4856.33      0.88267688    0.0086044301
      4861.19      0.88887512    0.0085810769
      4866.05      0.90098637    0.0085600868
      4870.92      0.91406004    0.0085391307
      4875.79      0.93143742    0.0085183000
      4880.66      0.94994447    0.0084994230
      4885.55      0.97639120    0.0084790108
      4890.43      0.99137747    0.0084603137
      4895.32       1.0077283    0.0083815523
      4900.22       1.0165866    0.0084236271
      4905.12       1.0276936    0.0083454002
      4910.02       1.0394488    0.0083891528
      4914.94       1.0440823    0.0083116081
      4919.85       1.0503175    0.0082979406
      4924.77       1.0462074    0.0082801111
      4929.70       1.0438364    0.0082668424
      4934.62       1.0368137    0.0082509127
      4939.56       1.0304640    0.0082379720
      4944.50       1.0207793    0.0081650508
      4949.44       1.0105668    0.0082112256
      4954.39       1.0030829    0.0082010226
      4959.35      0.99213490    0.0081866018
      4964.31      0.98542053    0.0081769312
      4969.27      0.98159411    0.0081639292
      4974.24      0.97343640    0.0081548002
      4979.22      0.96300751    0.0080846904
      4984.20      0.96157929    0.0080760679
      4989.18      0.95942824    0.0080659187
      4994.17      0.95603666    0.0080586395
      4999.16      0.96500667    0.0080489043
      5004.16      0.97299928    0.0080428479
      5009.17      0.98919632    0.0080338256
      5014.18      0.99854709    0.0080287524
      5019.19       1.0058162    0.0080206095
      5024.21       1.0284734    0.0080164202
      5029.23       1.0424296    0.0080091828
      5034.26       1.0528067    0.0080058146
      5039.30       1.0653317    0.0079993971
      5044.34       1.0742965    0.0079400364
      5049.39       1.0884192    0.0079912477
      5054.43       1.0952811    0.0079331478
      5059.49       1.1112090    0.0079297258
      5064.55       1.1220114    0.0079280593
      5069.61       1.1394499    0.0079252908
      5074.68       1.1499265    0.0079245992
      5079.76       1.1660730    0.0079226690
      5084.84       1.1768350    0.0078661035
      5089.92       1.1923695    0.0079216357
      5095.01       1.2019487    0.0079223928
      5100.11       1.2147612    0.0079223075
      5105.21       1.2429795    0.0079236550
      5110.31       1.2544127    0.0079246334
      5115.42       1.2724018    0.0079263962
      5120.54       1.2842948    0.0078730132
      5125.66       1.2980841    0.0079309079
      5130.79       1.3112591    0.0078778469
      5135.92       1.3321468    0.0078836038
      5141.05       1.3436429    0.0078842624
      5146.20       1.3550882    0.0078902754
      5151.34       1.3633286    0.0078923223
      5156.49       1.3717147    0.0078986293
      5161.65       1.3840562    0.0079065558
      5166.81       1.4000991    0.0079086345
      5171.98       1.4067927    0.0079166995
      5177.15       1.4286514    0.0078683712
      5182.33       1.4439058    0.0079286273
      5187.51       1.4583308    0.0078818525
      5192.70       1.4747754    0.0078901134
      5197.89       1.4972548    0.0079518561
      5203.09       1.5182430    0.0079055432
      5208.29       1.5248397    0.0079153702
      5213.50       1.5284592    0.0079228613
      5218.72       1.5321459    0.0079325496
      5223.93       1.5436016    0.0079435971
      5229.16       1.5569284    0.0079516457
      5234.39       1.5631425    0.0079626800
      5239.62       1.5537542    0.0079750070
      5244.86       1.5559302    0.0079837188
      5250.11       1.5502673    0.0079959059
      5255.36       1.5489719    0.0079519922
      5260.61       1.5530470    0.0079665328
      5265.87       1.5533469    0.0080320857
      5271.14       1.5570795    0.0079887200
      5276.41       1.5670523    0.0080040954
      5281.69       1.5646339    0.0080709558
      5286.97       1.5612797    0.0080280966
      5292.26       1.5604666    0.0080442221
      5297.55       1.5598207    0.0080614801
      5302.85       1.5540485    0.0080700273
      5308.15       1.5459378    0.0080869231
      5313.46       1.5434528    0.0081047913
      5318.77       1.5453635    0.0080638843
      5324.09       1.5460782    0.0081321766
      5329.42       1.5449832    0.0081506216
      5334.75       1.5451027    0.0081110252
      5340.08       1.5439161    0.0081289365
      5345.42       1.5504232    0.0081988086
      5350.77       1.5533074    0.0081606350
      5356.12       1.5597890    0.0081790250
      5361.48       1.5652819    0.0081982256
      5366.83       1.5694100    0.0082131272
      5372.20       1.5737160    0.0082318187
      5377.58       1.5743366    0.0084163535
      5382.95       1.5718913    0.0085069840
      5388.34       1.5704282    0.0082500339
      5393.72       1.5676263    0.0083214568
      5399.12       1.5608252    0.0084198001
      5404.52       1.5505111    0.0085780827
      5409.92       1.5462160    0.0087089188
      5415.33       1.5363472    0.0088904218
      5420.75       1.5275943    0.0090965706
      5426.17       1.5153625    0.0092236492
      5431.60       1.5032139    0.0092083144
      5437.03       1.4977682    0.0091912736
      5442.47       1.4881035    0.0091169066
      5447.91       1.4770720    0.0090003783
      5453.36       1.4690138    0.0088652071
      5458.81       1.4589632    0.0087259776
      5464.27       1.4549990    0.0086119786
      5469.73       1.4464424    0.0085591906
      5475.20       1.4466142    0.0085274790
      5480.68       1.4496467    0.0088025732
      5486.16       1.4514624    0.0087586887
      5491.65       1.4482855    0.0085829709
      5497.14       1.4424196    0.0086594992
      5502.64       1.4324763    0.0086251301
      5508.14       1.4272877    0.0086493623
      5513.65       1.4264006    0.0086738539
      5519.16       1.4208093    0.0086988310
      5524.68       1.4194302    0.0087240652
      5530.20       1.4153915    0.0086886838
      5535.73       1.4103090    0.0087144029
      5541.27       1.3981714    0.0087402232
      5546.81       1.3879425    0.0088188421
      5552.36       1.3695969    0.0088445263
      5557.91       1.3600581    0.0088701787
      5563.47       1.3454722    0.0088342993
      5569.04       1.3363278    0.0088603875
      5574.60       1.3181898    0.0088865417
      5580.18       1.3080782    0.0089130464
      5585.76       1.3010035    0.0089397370
      5591.35       1.2814250    0.0089664606
      5596.94       1.2681217    0.0089935110
      5602.53       1.2554440    0.0089583602
      5608.14       1.2346390    0.0089846434
      5613.75       1.2197706    0.0090111354
      5619.36       1.2044439    0.0090378066
      5624.98       1.1882964    0.0090645725
      5630.60       1.1783314    0.0090914633
      5636.23       1.1766864    0.0091719966
      5641.87       1.1696254    0.0091991545
      5647.51       1.1543736    0.0092265212
      5653.16       1.1513128    0.0091928550
      5658.82       1.1424362    0.0092196974
      5664.47       1.1390184    0.0092468704
      5670.14       1.1331730    0.0094505105
      5675.81       1.1342340    0.0097715422
      5681.48       1.1307615     0.010185019
      5687.17       1.1405894     0.010746267
      5692.85       1.1548202    0.0096413472
      5698.55       1.1570370    0.0097661327
      5704.25       1.1579479     0.010119637
      5709.95       1.1589415     0.010532175
      5715.66       1.1594515     0.011034484
      5721.38       1.1611970     0.011522243
      5727.10       1.1719620     0.011925354
      5732.83       1.1825243     0.012342774
      5738.56       1.1912393     0.012573985
      5744.30       1.1872313     0.012031244
      5750.04       1.1793675     0.011439951
      5755.79       1.1808702     0.011081728
      5761.55       1.1817666     0.010815343
      5767.31       1.1786649     0.010625266
      5773.08       1.1734796     0.010589905
      5778.85       1.1774367     0.011329118
      5784.63       1.1811250     0.011988463
      5790.41       1.1829167     0.011866078
      5796.21       1.1862821     0.011267927
      5802.00       1.1902733     0.010797326
      5807.81       1.1970409     0.010621565
      5813.61       1.2032420     0.010463032
      5819.43       1.2101340     0.010284245
      5825.25       1.2155945     0.010108855
      5831.07       1.2212766    0.0099663942
      5836.90       1.2246651    0.0099785183
      5842.74       1.2221354     0.010130599
      5848.58       1.2190788     0.010460391
      5854.43       1.2117483     0.010161759
      5860.29       1.2085311    0.0099911662
      5866.15       1.2053175     0.010013484
      5872.01       1.1962635     0.010036421
      5877.89       1.1866428     0.010059632
      5883.76       1.1741976     0.010083061
      5889.65       1.1634843     0.010107088
      5895.54       1.1531767     0.010131139
      5901.43       1.1411550     0.010098002
      5907.34       1.1300315     0.010121808
      5913.24       1.1196237     0.010145846
      5919.16       1.1088457     0.010169686
      5925.08       1.0970081     0.010193678
      5931.00       1.0911698     0.010281247
      5936.93       1.0815276     0.010246226
      5942.87       1.0736233     0.010268975
      5948.81       1.0705854     0.010291861
      5954.76       1.0644158     0.010314697
      5960.72       1.0570939     0.010337333
      5966.68       1.0567749     0.010300040
      5972.64       1.0601597     0.010321508
      5978.62       1.0620112     0.010409335
      5984.60       1.0658863     0.010430838
      5990.58       1.0665295     0.010452437
      5996.57       1.0667169     0.010414031
      6002.57       1.0668340     0.010433987
      6008.57       1.0579489     0.010454128
      6014.58       1.0515421     0.010474394
      6020.60       1.0443509     0.010502791
      6026.62       1.0429426     0.010521424
      6032.65       1.0332811     0.010540271
      6038.68       1.0288965     0.010559178
      6044.72       1.0325705     0.010520679
      6050.76       1.0256665     0.010543873
      6056.81       1.0269701     0.010632100
      6062.87       1.0261025     0.010649569
      6068.93       1.0127686     0.010608479
      6075.00       1.0077695     0.010632199
      6081.08       1.0092281     0.010661467
      6087.16       1.0031199     0.010704582
      6093.25      0.99625741     0.010742985
      6099.34      0.99060100     0.010783749
      6105.44      0.97376599     0.010766822
      6111.54      0.95923840     0.010802700
      6117.66      0.94161796     0.010903753
      6123.78      0.91949013     0.010928906
      6129.90      0.90726087     0.010881706
      6136.03      0.89447725     0.010888666
      6142.17      0.88278863     0.010955644
      6148.31      0.86648187     0.010885061
      6154.46      0.85575358     0.010876730
      6160.61      0.84566608     0.010871176
      6166.77      0.84067429     0.010875390
      6172.94      0.83976066     0.010878566
      6179.11      0.83932330     0.010877946
      6185.29      0.84035892     0.010816929
      6191.48      0.84617621     0.010883359
      6197.67      0.85536942     0.010825468
      6203.87      0.86281755     0.010829504
      6210.07      0.87333092     0.010897405
      6216.28      0.88586071     0.010840894
      6222.50      0.89401543     0.010846195
      6228.72      0.90558139     0.010852870
      6234.95      0.91957966     0.010860380
      6241.19      0.93298186     0.010867574
      6247.42      0.94623313     0.010812918
      6253.67      0.95674547     0.010883128
      6259.93      0.96793461     0.010890383
      6266.19      0.97861281     0.010836421
      6272.46      0.98419169     0.010910307
      6278.73      0.99920031     0.010862721
      6285.01       1.0150703     0.010875644
      6291.29       1.0312213     0.010892955
      6297.58       1.0442899     0.010900867
      6303.88       1.0551565     0.010909274
      6310.19       1.0696819     0.010920472
      6316.50       1.0762829     0.010924746
      6322.81       1.0860491     0.010929625
      6329.14       1.0904435     0.010926796
      6335.47       1.0972985     0.010862828
      6341.80       1.0930218     0.010919231
      6348.14       1.0934778     0.010853051
      6354.49       1.0923667     0.010849315
      6360.85       1.0905617     0.010845150
      6367.21       1.0829335     0.010841922
      6373.57       1.0723919     0.010836135
      6379.95       1.0631235     0.010828862
      6386.33       1.0494299     0.010758486
      6392.72       1.0451997     0.010809319
      6399.11       1.0510327     0.010738681
      6405.51       1.0486643     0.010789993
      6411.92       1.0481963     0.010717406
      6418.32       1.0461999     0.010764044
      6424.74       1.0459624     0.010691293
      6431.17       1.0525257     0.010679639
      6437.60       1.0494270     0.010668716
      6444.04       1.0534058     0.010657363
      6450.48       1.0530962     0.010645725
      6456.94       1.0560836     0.010633693
      6463.39       1.0533626     0.010620961
      6469.85       1.0567822     0.010548906
      6476.33       1.0613375     0.010593117
      6482.80       1.0668269     0.010520012
      6489.28       1.0689430     0.010562749
      6495.77       1.0737309     0.010488847
      6502.27       1.0797113     0.010529810
      6508.77       1.0892045     0.010454762
      6515.28       1.0998355     0.010434865
      6521.80       1.1024033     0.010417654
      6528.32       1.1016518     0.010395774
      6534.85       1.0938069     0.010377526
      6541.38       1.0852662     0.010353566
      6547.92       1.0732274     0.010274735
      6554.47       1.0637306     0.010308366
      6561.03       1.0458228     0.010227722
      6567.59       1.0320074     0.010202135
      6574.16       1.0228955     0.010177619
      6580.73       1.0118802     0.010149711
      6587.31      0.99834464     0.010124421
      6593.90      0.98745316     0.010094189
      6600.50      0.98242357     0.010063901
      6607.10      0.98169613     0.010035705
      6613.70      0.97450898     0.010006703
      6620.32      0.96859587    0.0099472130
      6626.94      0.97108540     0.010001983
      6633.57      0.96953269    0.0099310265
      6640.20      0.96229285    0.0098790574
      6646.84      0.95526206    0.0099186890
      6653.49      0.95222930    0.0098958480
      6660.14      0.94164279    0.0099613751
      6666.80      0.93116141     0.010001915
      6673.47      0.91814440     0.010154533
      6680.14      0.90194576     0.010279109
      6686.82      0.88744490     0.010324404
      6693.51      0.88470685     0.010451923
      6700.20      0.87437590     0.010417537
      6706.90      0.86692224     0.010387512
      6713.61      0.86392440     0.010296183
      6720.32      0.86667907     0.010181360
      6727.05      0.87138721     0.010009538
      6733.77      0.87111853    0.0098258141
      6740.51      0.86863418    0.0096232010
      6747.25      0.86988102    0.0095399892
      6754.00      0.87399246    0.0094301350
      6760.75      0.86895706    0.0092675309
      6767.51      0.86199968    0.0091397135
      6774.28      0.86182939    0.0090953668
      6781.05      0.85577750    0.0089644721
      6787.84      0.84301018    0.0088743380
      6794.62      0.83584657    0.0087902063
      6801.42      0.82542411    0.0087278014
      6808.22      0.81887502    0.0086536349
      6815.03      0.81541084    0.0085829348
      6821.85      0.81026803    0.0085133434
      6828.67      0.80769056    0.0084035946
      6835.50      0.81353151    0.0083285248
      6842.33      0.81423745    0.0082134998
      6849.17      0.80939697    0.0080475895
      6856.02      0.80997729    0.0078839315
      6862.88      0.81548741    0.0077699822
      6869.74      0.82026016    0.0075847182
      6876.61      0.82019425    0.0074328170
      6883.49      0.82003057    0.0073254645
      6890.37      0.82309365    0.0071782025
      6897.27      0.82371781    0.0070372446
      6904.16      0.82189637    0.0069063504
      6911.07      0.82571990    0.0068145330
      6917.98      0.83284249    0.0066849799
      6924.89      0.83668855    0.0065541232
      6931.82      0.83991110    0.0064063991
      6938.75      0.83987174    0.0063193847
      6945.69      0.84369264    0.0062153421
      6952.64      0.84163026    0.0061313552
      6959.59      0.83802993    0.0060537246
      6966.55      0.83867522    0.0059673527
      6973.52      0.83924205    0.0058719580
      6980.49      0.83659487    0.0058014957
      6987.47      0.83194685    0.0057030573
      6994.46      0.82198947    0.0055999043
      7001.46      0.81752136    0.0054915071
      7008.46      0.81766581    0.0053675959
      7015.46      0.81499825    0.0052557068
      7022.48      0.81525577    0.0051672726
      7029.51      0.81544334    0.0050527777
      7036.53      0.82046047    0.0049423523
      7043.57      0.81889812    0.0048380434
      7050.62      0.82239020    0.0047404852
      7057.66      0.81938994    0.0046493301
      7064.72      0.82039669    0.0045641219
      7071.79      0.82394913    0.0044845687
      7078.86      0.82364570    0.0044115993
      7085.94      0.82395121    0.0043454596
      7093.03      0.82576676    0.0042855553
      7100.12      0.82583913    0.0042612520
      7107.22      0.82846769    0.0043062489
      7114.33      0.83042991    0.0043625739
      7121.44      0.83257298    0.0044322824
      7128.56      0.83357449    0.0045237193
      7135.69      0.83281007    0.0046384205
      7142.83      0.83421799    0.0047851595
      7149.97      0.83340857    0.0049762735
      7157.12      0.83327269    0.0052312225
      7164.28      0.83401331    0.0055748311
      7171.44      0.83150776    0.0060321526
      7178.62      0.83027568    0.0066282752
      7185.80      0.82959522    0.0073911881
      7192.98      0.82770257    0.0083584187
      7200.17      0.82517723    0.0095843051
      7207.38      0.82575949     0.011137525
      7214.58      0.82942803     0.013102838
