# starting wavelength =        3418.8600
# ending wavelength =        7280.5900
# O2 telluric scale =        0
# O2 telluric shift =        0
# H2O telluric scale =        0
# H2O telluric shift =        0
      3419.32      0.92497332     0.069763940
      3422.74      0.93958692     0.058886903
      3426.17      0.96867340     0.048510898
      3429.59      0.98144086     0.042056466
      3433.02      0.99106242     0.036957372
      3436.45      0.99770518     0.032968517
      3439.89       1.0040495     0.029878985
      3443.33       1.0098007     0.027950039
      3446.78       1.0205380     0.025977697
      3450.22       1.0273570     0.024447405
      3453.67       1.0242676     0.023256741
      3457.13       1.0407782     0.022118048
      3460.58       1.0486001     0.021396483
      3464.04       1.0634265     0.020808961
      3467.51       1.0692651     0.020325167
      3470.98       1.0791702     0.019918756
      3474.45       1.0819095     0.019485403
      3477.92       1.0830520     0.019171379
      3481.40       1.0888221     0.018899761
      3484.88       1.0932952     0.018847865
      3488.37       1.0860848     0.018778283
      3491.86       1.0934285     0.018725700
      3495.35       1.0995668     0.018772785
      3498.84       1.1116596     0.018724612
      3502.34       1.1159662     0.018650388
      3505.84       1.1045974     0.018698547
      3509.35       1.1105362     0.018646236
      3512.86       1.1164534     0.018696112
      3516.37       1.1384368     0.018524967
      3519.89       1.1505735     0.018573589
      3523.41       1.1658353     0.018622775
      3526.93       1.1771120     0.018571391
      3530.46       1.1952636     0.018501726
      3533.99       1.2093867     0.018551531
      3537.53       1.2162819     0.018502228
      3541.06       1.2237711     0.018552040
      3544.60       1.2301818     0.018380629
      3548.15       1.2351487     0.018430692
      3551.70       1.2418476     0.018484391
      3555.25       1.2416822     0.018437193
      3558.80       1.2498306     0.018362908
      3562.36       1.2539819     0.018416889
      3565.92       1.2552619     0.018365381
      3569.49       1.2464344     0.018296159
      3573.06       1.2545309     0.018350703
      3576.64       1.2624984     0.018302172
      3580.21       1.2569578     0.018355879
      3583.79       1.2438045     0.018287562
      3587.38       1.2382951     0.018234886
      3590.96       1.2266505     0.018294966
      3594.55       1.2182153     0.018223001
      3598.15       1.2134636     0.018174036
      3601.75       1.1994496     0.018230608
      3605.35       1.1852987     0.018163431
      3608.96       1.1779916     0.018110101
      3612.56       1.1650911     0.018172524
      3616.18       1.1572946     0.018232129
      3619.79       1.1647106     0.018165187
      3623.41       1.1876363     0.018111444
      3627.04       1.2000974     0.018177297
      3630.66       1.2099667     0.018105851
      3634.29       1.2379354     0.018057056
      3637.93       1.2637234     0.018119196
      3641.57       1.2872183     0.018051673
      3645.21       1.3030375     0.018116697
      3648.86       1.3186910     0.018068385
      3652.50       1.3422715     0.017996039
      3656.16       1.3711593     0.018064790
      3659.81       1.3727151     0.018012140
      3663.47       1.3884782     0.017943943
      3667.14       1.3884276     0.018013573
      3670.80       1.3857151     0.018084455
      3674.48       1.3657378     0.017893581
      3678.15       1.3445698     0.017963216
      3681.83       1.2998360     0.018038373
      3685.51       1.2581659     0.017967900
      3689.20       1.2184347     0.017918879
      3692.88       1.1651291     0.017990177
      3696.58       1.0906715     0.017922915
      3700.27       1.0361243     0.017999251
      3703.98      0.97958655     0.018078545
      3707.68      0.92258451     0.017879170
      3711.39      0.87866338     0.017956387
      3715.10      0.81320634     0.018040295
      3718.81      0.76635249     0.017968855
      3722.53      0.72268013     0.017920594
      3726.26      0.68604169     0.017999106
      3729.98      0.66215562     0.017930496
      3733.71      0.63545883     0.018017611
      3737.45      0.61455553     0.017947294
      3741.18      0.61265287     0.017897844
      3744.93      0.61396061     0.017981397
      3748.67      0.61319917     0.017913601
      3752.42      0.61178439     0.018004522
      3756.17      0.61850885     0.018095839
      3759.93      0.61460104     0.018030558
      3763.69      0.61821479     0.017972918
      3767.45      0.61652631     0.017905386
      3771.22      0.62402124     0.018001328
      3774.99      0.62041163     0.018097738
      3778.77      0.62708237     0.018031988
      3782.54      0.64976553     0.018131094
      3786.33      0.67151995     0.018084979
      3790.11      0.68215629     0.018009326
      3793.90      0.70164668     0.018109989
      3797.70      0.70175640     0.018043034
      3801.50      0.70987309     0.018150192
      3805.30      0.71520417     0.018259228
      3809.10      0.74639940     0.018029754
      3812.91      0.76892780     0.017956619
      3816.73      0.79917303     0.018065472
      3820.54      0.84159384     0.017836308
      3824.36      0.87927838     0.017765350
      3828.19      0.93284030     0.017720002
      3832.02      0.99172873     0.017645151
      3835.85       1.0466139     0.017575047
      3839.68       1.1035418     0.017529271
      3843.52       1.1588463     0.017456294
      3847.37       1.2139513     0.017387051
      3851.22       1.2704526     0.017166022
      3855.07       1.3363649     0.017269070
      3858.92       1.3891472     0.017046216
      3862.78       1.4398416     0.016982180
      3866.64       1.4862844     0.017084236
      3870.51       1.5395536     0.016863559
      3874.38       1.5779614     0.016799542
      3878.26       1.6260274     0.016901485
      3882.13       1.6837862     0.016682468
      3886.02       1.7284168     0.016618807
      3889.90       1.7778433     0.016558202
      3893.79       1.8189627     0.016503401
      3897.69       1.8560219     0.016439637
      3901.59       1.8830959     0.016378662
      3905.49       1.9059614     0.016171861
      3909.39       1.9309858     0.016262206
      3913.30       1.9546252     0.016201125
      3917.22       1.9576835     0.015998349
      3921.13       1.9572046     0.016087108
      3925.06       1.9512441     0.016025229
      3928.98       1.9507312     0.015966042
      3932.91       1.9432559     0.015763566
      3936.84       1.9380539     0.015851673
      3940.78       1.9355311     0.015791726
      3944.72       1.9341466     0.015594649
      3948.67       1.9207166     0.015532041
      3952.61       1.9212229     0.015619524
      3956.57       1.9209651     0.015429318
      3960.52       1.9291454     0.015365983
      3964.48       1.9389903     0.015304743
      3968.45       1.9479545     0.015244921
      3972.42       1.9479272     0.015202870
      3976.39       1.9465256     0.015140361
      3980.37       1.9493634     0.015079649
      3984.35       1.9469813     0.014891409
      3988.33       1.9381242     0.014979576
      3992.32       1.9077436     0.014918521
      3996.31       1.8860838     0.014858366
      4000.31       1.8609043     0.014672623
      4004.31       1.8437296     0.014616418
      4008.31       1.8142200     0.014700074
      4012.32       1.7858868     0.014640946
      4016.33       1.7586191     0.014457081
      4020.35       1.7217102     0.014401307
      4024.37       1.6819033     0.014346704
      4028.40       1.6542478     0.014426555
      4032.42       1.6357392     0.014244540
      4036.46       1.6103544     0.014188845
      4040.50       1.5875326     0.014134240
      4044.54       1.5668726     0.014080947
      4048.58       1.5397979     0.014028506
      4052.63       1.5219583     0.013980428
      4056.68       1.4932177     0.013925662
      4060.74       1.4597225     0.013872062
      4064.80       1.4320362     0.013819300
      4068.86       1.4054791     0.013649873
      4072.93       1.3827125     0.013595522
      4077.01       1.3660836     0.013667049
      4081.08       1.3498597     0.013614185
      4085.17       1.3382562     0.013562080
      4089.25       1.3344789     0.013397949
      4093.34       1.3322316     0.013344100
      4097.43       1.3296680     0.013291197
      4101.53       1.3353310     0.013239010
      4105.63       1.3424429     0.013309825
      4109.74       1.3465389     0.013152179
      4113.85       1.3403598     0.013098629
      4117.96       1.3434695     0.013045986
      4122.08       1.3471380     0.012994197
      4126.20       1.3503118     0.012942758
      4130.33       1.3507141     0.012892166
      4134.46       1.3409103     0.012735472
      4138.59       1.3323978     0.012686664
      4142.73       1.3319548     0.012755883
      4146.88       1.3349961     0.012704829
      4151.02       1.3282953     0.012654482
      4155.18       1.3298996     0.012604883
      4159.33       1.3281342     0.012451121
      4163.49       1.3365530     0.012402790
      4167.65       1.3489081     0.012354809
      4171.82       1.3524510     0.012307467
      4175.99       1.3623897     0.012260314
      4180.17       1.3719137     0.012213724
      4184.35       1.3793094     0.012167324
      4188.54       1.3806953     0.012126854
      4192.72       1.3802114     0.012079350
      4196.92       1.3838364     0.012032235
      4201.11       1.3934618     0.011985563
      4205.31       1.3974917     0.011939250
      4209.52       1.3986180     0.011893228
      4213.73       1.3933918     0.011847611
      4217.94       1.3861846     0.011802410
      4222.16       1.3845207     0.011663192
      4226.38       1.3751208     0.011617505
      4230.61       1.3652564     0.011572019
      4234.84       1.3641050     0.011526928
      4239.08       1.3577682     0.011482203
      4243.32       1.3617676     0.011437623
      4247.56       1.3683464     0.011393182
      4251.81       1.3702659     0.011349140
      4256.06       1.3727415     0.011305222
      4260.32       1.3750323     0.011261811
      4264.58       1.3815764     0.011218478
      4268.84       1.3822613     0.011085919
      4273.11       1.3883717     0.011043338
      4277.38       1.3953275     0.011001143
      4281.66       1.4002223     0.010959074
      4285.94       1.3961825     0.010917526
      4290.23       1.3889106     0.010875838
      4294.52       1.3752298     0.010834328
      4298.81       1.3506592     0.010792948
      4303.11       1.3237838     0.010752047
      4307.42       1.2888673     0.010710832
      4311.72       1.2647477     0.010670101
      4316.04       1.2364941     0.010629437
      4320.35       1.2103530     0.010589250
      4324.67       1.1780927     0.010548917
      4329.00       1.1514261     0.010508949
      4333.33       1.1108112     0.010469070
      4337.66       1.0749782     0.010429629
      4342.00       1.0488836     0.010389861
      4346.34       1.0235200     0.010350558
      4350.69       1.0035180     0.010311306
      4355.04      0.99382608     0.010272522
      4359.39      0.98198453     0.010233391
      4363.75      0.97193005     0.010194714
      4368.12      0.96483656     0.010156111
      4372.48      0.95930912     0.010117937
      4376.86      0.95557951     0.010079649
      4381.23      0.95467035     0.010041738
      4385.61      0.95763290     0.010003914
      4390.00      0.96708824    0.0099664574
      4394.39      0.98212232    0.0099289212
      4398.79      0.99526045    0.0098918268
      4403.18       1.0159043    0.0097701708
      4407.59       1.0324434    0.0097339084
      4412.00       1.0544882    0.0096976033
      4416.41       1.0697784    0.0096617658
      4420.82       1.0938010    0.0096260087
      4425.25       1.1173351    0.0095905310
      4429.67       1.1397194    0.0095550772
      4434.10       1.1633021    0.0095200799
      4438.54       1.1869794    0.0094850962
      4442.97       1.2052165    0.0094507021
      4447.42       1.2290744    0.0093357248
      4451.86       1.2459473    0.0093009988
      4456.32       1.2735387    0.0092664715
      4460.77       1.3013758    0.0092324716
      4465.24       1.3329834    0.0091985439
      4469.70       1.3600347    0.0091649424
      4474.17       1.3900646    0.0091315934
      4478.65       1.4212104    0.0090985485
      4483.12       1.4505671    0.0090657777
      4487.61       1.4764815    0.0089582685
      4492.09       1.5029003    0.0089949213
      4496.59       1.5205460    0.0089617178
      4501.08       1.5434619    0.0089289212
      4505.58       1.5577785    0.0088964823
      4510.09       1.5784396    0.0088643536
      4514.60       1.5957801    0.0088325482
      4519.12       1.6129427    0.0087280240
      4523.63       1.6334333    0.0086973134
      4528.16       1.6532167    0.0086669392
      4532.69       1.6675874    0.0086369820
      4537.22       1.6901819    0.0086073797
      4541.76       1.7128018    0.0086396009
      4546.30       1.7257534    0.0085375773
      4550.85       1.7484980    0.0085077380
      4555.40       1.7679626    0.0084781775
      4559.95       1.7851407    0.0084490294
      4564.51       1.8014342    0.0084204012
      4569.08       1.8080683    0.0083199368
      4573.65       1.8154816    0.0082907676
      4578.22       1.8195721    0.0083247505
      4582.80       1.8098413    0.0082961724
      4587.38       1.8101864    0.0082680728
      4591.97       1.8023249    0.0081714496
      4596.56       1.8023518    0.0081429112
      4601.16       1.7946948    0.0081147968
      4605.76       1.7853186    0.0080871947
      4610.37       1.7759399    0.0081213114
      4614.98       1.7592138    0.0080274463
      4619.59       1.7389447    0.0079994127
      4624.21       1.7271273    0.0079720587
      4628.84       1.7080000    0.0079451826
      4633.47       1.6900648    0.0078552838
      4638.10       1.6780575    0.0078872475
      4642.74       1.6595193    0.0078601735
      4647.38       1.6387822    0.0078336818
      4652.03       1.6247760    0.0077451209
      4656.68       1.6013446    0.0077201843
      4661.34       1.5806242    0.0077512906
      4666.00       1.5491201    0.0077251615
      4670.67       1.5147708    0.0076380063
      4675.33       1.4938100    0.0076135554
      4680.01       1.4673259    0.0075896968
      4684.69       1.4392104    0.0076197201
      4689.38       1.4102756    0.0075339384
      4694.07       1.3788487    0.0075100763
      4698.76       1.3478411    0.0074867618
      4703.46       1.3115681    0.0074019021
      4708.16       1.2763137    0.0074326472
      4712.87       1.2446218    0.0074093187
      4717.58       1.2145784    0.0073868353
      4722.30       1.1831782    0.0073032469
      4727.03       1.1546447    0.0073340731
      4731.75       1.1274155    0.0073116320
      4736.48       1.1112411    0.0072304284
      4741.22       1.0939636    0.0072074052
      4745.96       1.0743680    0.0072385037
      4750.71       1.0611381    0.0071592997
      4755.46       1.0490262    0.0071364023
      4760.22       1.0385164    0.0071143305
      4764.97       1.0380639    0.0070896763
      4769.74       1.0320047    0.0070668826
      4774.51       1.0242396    0.0070449817
      4779.29       1.0170990    0.0069697683
      4784.07       1.0110023    0.0069989641
      4788.85       1.0032449    0.0069774748
      4793.64      0.99150575    0.0069029422
      4798.43      0.98029746    0.0069325865
      4803.23      0.96746003    0.0069113119
      4808.03      0.95710910    0.0068377879
      4812.84      0.94546954    0.0068187691
      4817.66      0.93715886    0.0068467634
      4822.48      0.93504692    0.0067741939
      4827.30      0.93467962    0.0067556478
      4832.12      0.93298565    0.0067311425
      4836.96      0.93921714    0.0067120048
      4841.79      0.95160317    0.0066941169
      4846.63      0.96956241    0.0066699457
      4851.48      0.97944667    0.0066515159
      4856.33       1.0013128    0.0066341717
      4861.19       1.0238726    0.0066103677
      4866.05       1.0447894    0.0065925908
      4870.92       1.0681868    0.0065233066
      4875.79       1.0897988    0.0065522425
      4880.66       1.1077146    0.0064847805
      4885.55       1.1258319    0.0064663075
      4890.43       1.1424225    0.0064955610
      4895.32       1.1522015    0.0064284399
      4900.22       1.1613267    0.0064106953
      4905.12       1.1672713    0.0063915401
      4910.02       1.1695410    0.0063736183
      4914.94       1.1630291    0.0063568546
      4919.85       1.1554539    0.0063374422
      4924.77       1.1433386    0.0063204581
      4929.70       1.1305381    0.0063021113
      4934.62       1.1166061    0.0062848106
      4939.56       1.0941652    0.0062221514
      4944.50       1.0695671    0.0062500692
      4949.44       1.0520238    0.0061874318
      4954.39       1.0306167    0.0061728911
      4959.35       1.0088594    0.0061534973
      4964.31      0.99126288    0.0061389083
      4969.27      0.97041909    0.0061664121
      4974.24      0.95640698    0.0061057621
      4979.22      0.94901397    0.0060924102
      4984.20      0.94127254    0.0060733010
      4989.18      0.93056584    0.0060600128
      4994.17      0.92490520    0.0060416621
      4999.16      0.91933004    0.0060282936
      5004.16      0.91536050    0.0060105307
      5009.17      0.91379749    0.0059972565
      5014.18      0.91650220    0.0059381092
      5019.19      0.92167583    0.0059668441
      5024.21      0.93413200    0.0059085244
      5029.23      0.94460287    0.0059371770
      5034.26      0.95616416    0.0058795036
      5039.30      0.96936735    0.0059081541
      5044.34      0.98512968    0.0058511283
      5049.39      0.99679245    0.0058797975
      5054.43       1.0112309    0.0058233750
      5059.49       1.0228644    0.0057690169
      5064.55       1.0351499    0.0057960611
      5069.61       1.0447844    0.0057422422
      5074.68       1.0584831    0.0057693702
      5079.76       1.0651101    0.0057160264
      5084.84       1.0700559    0.0057430941
      5089.92       1.0765525    0.0056903792
      5095.01       1.0797416    0.0057175202
      5100.11       1.0874249    0.0056654789
      5105.21       1.0906305    0.0056516329
      5110.31       1.0928610    0.0056411251
      5115.42       1.1017878    0.0056274467
      5120.54       1.1115416    0.0056173642
      5125.66       1.1203633    0.0056038569
      5130.79       1.1286147    0.0055942511
      5135.92       1.1339909    0.0055807320
      5141.05       1.1426390    0.0055301881
      5146.20       1.1475583    0.0055582465
      5151.34       1.1574453    0.0055078705
      5156.49       1.1679040    0.0055364581
      5161.65       1.1783453    0.0055242226
      5166.81       1.1873595    0.0054752351
      5171.98       1.2010179    0.0055030311
      5177.15       1.2150809    0.0054541102
      5182.33       1.2269149    0.0054825582
      5187.51       1.2403159    0.0054336702
      5192.70       1.2510647    0.0054235328
      5197.89       1.2611113    0.0054138055
      5203.09       1.2685474    0.0054035927
      5208.29       1.2788669    0.0053572887
      5213.50       1.2882108    0.0053842619
      5218.72       1.3008388    0.0053748991
      5223.93       1.3163003    0.0053285741
      5229.16       1.3273085    0.0053561595
      5234.39       1.3411608    0.0053109808
      5239.62       1.3495348    0.0053013001
      5244.86       1.3570716    0.0053292246
      5250.11       1.3681967    0.0052842583
      5255.36       1.3746318    0.0052751968
      5260.61       1.3787456    0.0052681241
      5265.87       1.3814634    0.0052587614
      5271.14       1.3833645    0.0052501835
      5276.41       1.3883381    0.0052432657
      5281.69       1.3859752    0.0052344389
      5286.97       1.3858173    0.0051909934
      5292.26       1.3827473    0.0052196366
      5297.55       1.3724122    0.0052112524
      5302.85       1.3666731    0.0051683811
      5308.15       1.3571501    0.0051971594
      5313.46       1.3518190    0.0051891361
      5318.77       1.3507391    0.0051467077
      5324.09       1.3477677    0.0051400883
      5329.42       1.3405200    0.0051681260
      5334.75       1.3366784    0.0051260997
      5340.08       1.3248137    0.0051196280
      5345.42       1.3231336    0.0051138481
      5350.77       1.3223403    0.0051064358
      5356.12       1.3169540    0.0051002132
      5361.48       1.3134667    0.0050946476
      5366.83       1.3086412    0.0050539755
      5372.20       1.3034389    0.0050819143
      5377.58       1.3029552    0.0050763655
      5382.95       1.2994797    0.0050367194
      5388.34       1.3003719    0.0050308451
      5393.72       1.2971168    0.0050591151
      5399.12       1.2909798    0.0050205098
      5404.52       1.2876965    0.0050147385
      5409.92       1.2816734    0.0050094616
      5415.33       1.2809167    0.0050055644
      5420.75       1.2769105    0.0049998576
      5426.17       1.2712729    0.0049946075
      5431.60       1.2674136    0.0049897558
      5437.03       1.2678601    0.0049521180
      5442.47       1.2615654    0.0049810530
      5447.91       1.2594939    0.0049761662
      5453.36       1.2516512    0.0049385180
      5458.81       1.2439467    0.0049343698
      5464.27       1.2330570    0.0049305661
      5469.73       1.2246086    0.0049593308
      5475.20       1.2164598    0.0049221111
      5480.68       1.2069099    0.0049182588
      5486.16       1.1980941    0.0049146405
      5491.65       1.1862141    0.0049114102
      5497.14       1.1772950    0.0049084268
      5502.64       1.1683417    0.0049037730
      5508.14       1.1590467    0.0049004018
      5513.65       1.1536965    0.0048972840
      5519.16       1.1541237    0.0048944218
      5524.68       1.1526784    0.0048595439
      5530.20       1.1520597    0.0048563721
      5535.73       1.1524699    0.0048533623
      5541.27       1.1496457    0.0048506198
      5546.81       1.1442403    0.0048794586
      5552.36       1.1461045    0.0048456475
      5557.91       1.1438353    0.0048428855
      5563.47       1.1465476    0.0048402293
      5569.04       1.1414130    0.0048378202
      5574.60       1.1429895    0.0048356201
      5580.18       1.1410974    0.0048018955
      5585.76       1.1343219    0.0047999842
      5591.35       1.1291427    0.0047982485
      5596.94       1.1189354    0.0048273554
      5602.53       1.1139413    0.0048253691
      5608.14       1.1050609    0.0048234989
      5613.75       1.0980770    0.0047902258
      5619.36       1.0909366    0.0047886443
      5624.98       1.0829010    0.0047871976
      5630.60       1.0725208    0.0047858966
      5636.23       1.0643768    0.0047846780
      5641.87       1.0522190    0.0047835915
      5647.51       1.0385561    0.0047826385
      5653.16       1.0273587    0.0047506989
      5658.82       1.0178862    0.0047495383
      5664.47       1.0059426    0.0047484822
      5670.14      0.99241227    0.0047475454
      5675.81      0.97921352    0.0047466710
      5681.48      0.96883030    0.0047459281
      5687.17      0.95726804    0.0047453046
      5692.85      0.94290584    0.0047447326
      5698.55      0.93301452    0.0047738621
      5704.25      0.92371830    0.0047438318
      5709.95      0.91947619    0.0047433161
      5715.66      0.92008023    0.0047429864
      5721.38      0.92605164    0.0047430077
      5727.10      0.93484571    0.0047434169
      5732.83      0.94199535    0.0047436599
      5738.56      0.94869258    0.0047438107
      5744.30      0.95671351    0.0047443982
      5750.04      0.95977278    0.0047170261
      5755.79      0.96565910    0.0047204364
      5761.55      0.97247740    0.0047247691
      5767.31      0.97866179    0.0047291402
      5773.08      0.97898461    0.0047339432
      5778.85      0.97741728    0.0047394596
      5784.63      0.98145090    0.0047445371
      5790.41      0.97739766    0.0047479357
      5796.21      0.97355397    0.0047500641
      5802.00      0.97371163    0.0047515596
      5807.81      0.97487092    0.0047224384
      5813.61      0.97484085    0.0047227785
      5819.43      0.97828323    0.0047224025
      5825.25      0.98549522    0.0047220362
      5831.07      0.99145560    0.0047220051
      5836.90      0.99559918    0.0047221075
      5842.74      0.99759915    0.0047218662
      5848.58      0.99550965    0.0047210722
      5854.43      0.99370350    0.0046900795
      5860.29      0.99365643    0.0046882921
      5866.15      0.99317473    0.0046867150
      5872.01      0.99351988    0.0046849719
      5877.89      0.98899740    0.0047117372
      5883.76      0.98171980    0.0047096347
      5889.65      0.97831736    0.0047087151
      5895.54      0.97170930    0.0047079986
      5901.43      0.96145164    0.0047067139
      5907.34      0.95322851    0.0046776972
      5913.24      0.94908290    0.0046772130
      5919.16      0.94342415    0.0046772513
      5925.08      0.93670344    0.0046776141
      5931.00      0.93259949    0.0046781728
      5936.93      0.92529475    0.0046789956
      5942.87      0.92039214    0.0046801191
      5948.81      0.91753912    0.0046538212
      5954.76      0.91743810    0.0046550646
      5960.72      0.91254925    0.0046563937
      5966.68      0.91212487    0.0046578777
      5972.64      0.91043892    0.0046594564
      5978.62      0.91060185    0.0046891323
      5984.60      0.90784455    0.0046629689
      5990.58      0.90407379    0.0046643489
      5996.57      0.90247063    0.0046658078
      6002.57      0.90048102    0.0046674035
      6008.57      0.89483179    0.0046691198
      6014.58      0.89360732    0.0046429428
      6020.60      0.89146262    0.0046442251
      6026.62      0.89013617    0.0046456487
      6032.65      0.89145731    0.0046759074
      6038.68      0.89024560    0.0046775217
      6044.72      0.88977990    0.0046518063
      6050.76      0.89011860    0.0046530342
      6056.81      0.89058176    0.0046543445
      6062.87      0.89377825    0.0046558152
      6068.93      0.89714863    0.0046308083
      6075.00      0.89888768    0.0046606222
      6081.08      0.89947708    0.0046618282
      6087.16      0.89304557    0.0046631640
      6093.25      0.88712787    0.0046381158
      6099.34      0.88108467    0.0046405883
      6105.44      0.87117518    0.0046724846
      6111.54      0.85714151    0.0046753561
      6117.66      0.84182231    0.0046496502
      6123.78      0.82676153    0.0046520797
      6129.90      0.81281303    0.0046572280
      6136.03      0.79756472    0.0046648846
      6142.17      0.78454986    0.0046769897
      6148.31      0.77465540    0.0046885046
      6154.46      0.76451765    0.0047008759
      6160.61      0.75787343    0.0046866893
      6166.77      0.75242447    0.0047259494
      6172.94      0.74776359    0.0047336256
      6179.11      0.74626843    0.0047106685
      6185.29      0.74636713    0.0047108970
      6191.48      0.74328752    0.0047082249
      6197.67      0.74557294    0.0047027102
      6203.87      0.74252865    0.0046948753
      6210.07      0.74490046    0.0046872069
      6216.28      0.74782627    0.0046547302
      6222.50      0.74661596    0.0046786533
      6228.72      0.74868527    0.0046758940
      6234.95      0.75579656    0.0046449989
      6241.19      0.75950014    0.0046688685
      6247.42      0.76608408    0.0046665430
      6253.67      0.77560861    0.0046382578
      6259.93      0.78479754    0.0046370991
      6266.19      0.79575855    0.0046624987
      6272.46      0.80383745    0.0046353507
      6278.73      0.81227894    0.0046351495
      6285.01      0.81999594    0.0046353890
      6291.29      0.82942243    0.0046356942
      6297.58      0.83789268    0.0046366949
      6303.88      0.85100398    0.0046378017
      6310.19      0.85699103    0.0046385875
      6316.50      0.86467808    0.0046136211
      6322.81      0.86794437    0.0046424392
      6329.14      0.86855845    0.0046201202
      6335.47      0.86984953    0.0046237376
      6341.80      0.86819590    0.0046556676
      6348.14      0.86430136    0.0046334655
      6354.49      0.86055099    0.0047221411
      6360.85      0.84901065    0.0046625356
      6367.21      0.84157303    0.0046426119
      6373.57      0.83386407    0.0046297952
      6379.95      0.82479909    0.0046927384
      6386.33      0.81968304    0.0047105299
      6392.72      0.81313705    0.0047558927
      6399.11      0.81109591    0.0048305691
      6405.51      0.81212682    0.0048337870
      6411.92      0.81649499    0.0048873310
      6418.32      0.82048549    0.0048583791
      6424.74      0.82608572    0.0048406097
      6431.17      0.82845534    0.0048067987
      6437.60      0.83431266    0.0047636994
      6444.04      0.83712156    0.0047101788
      6450.48      0.83690580    0.0046622484
      6456.94      0.84074861    0.0045939154
      6463.39      0.84125003    0.0045966857
      6469.85      0.84069495    0.0045754460
      6476.33      0.84123954    0.0046734086
      6482.80      0.84403957    0.0045892325
      6489.28      0.84422239    0.0045623002
      6495.77      0.84639816    0.0045599857
      6502.27      0.84892289    0.0045593604
      6508.77      0.85238956    0.0045571075
      6515.28      0.85320826    0.0045309119
      6521.80      0.85467802    0.0045542692
      6528.32      0.85180371    0.0045278880
      6534.85      0.84920078    0.0045509277
      6541.38      0.84480049    0.0045245091
      6547.92      0.83907227    0.0045227523
      6554.47      0.83296046    0.0045210753
      6561.03      0.82655324    0.0045189275
      6567.59      0.81690721    0.0045171842
      6574.16      0.80819386    0.0045147355
      6580.73      0.79967758    0.0045129177
      6587.31      0.79003974    0.0045100707
      6593.90      0.78279192    0.0044828355
      6600.50      0.77647832    0.0045050315
      6607.10      0.76871293    0.0044774316
      6613.70      0.76086553    0.0044749783
      6620.32      0.75661470    0.0044716110
      6626.94      0.75446054    0.0044687506
      6633.57      0.75021105    0.0044901022
      6640.20      0.74246911    0.0044620594
      6646.84      0.73821997    0.0044590115
      6653.49      0.73359074    0.0044549991
      6660.14      0.73221982    0.0044514452
      6666.80      0.73113454    0.0044239450
      6673.47      0.72978380    0.0044463525
      6680.14      0.72990176    0.0044331282
      6686.82      0.72857282    0.0044448840
      6693.51      0.72816669    0.0044604710
      6700.20      0.72470709    0.0044308498
      6706.90      0.72286221    0.0044442228
      6713.61      0.72213877    0.0044688247
      6720.32      0.71717054    0.0045143911
      6727.05      0.71371399    0.0045751318
      6733.77      0.70594648    0.0046307016
      6740.51      0.70162344    0.0047018414
      6747.25      0.69901930    0.0047341468
      6754.00      0.69202404    0.0047809826
      6760.75      0.68331086    0.0048304951
      6767.51      0.67757661    0.0047984755
      6774.28      0.67300301    0.0047691947
      6781.05      0.67087487    0.0047168186
      6787.84      0.66911448    0.0046637153
      6794.62      0.66938051    0.0045958825
      6801.42      0.66622422    0.0045369462
      6808.22      0.66869284    0.0044761528
      6815.03      0.66783405    0.0044712374
      6821.85      0.66758121    0.0044278835
      6828.67      0.66490639    0.0043704296
      6835.50      0.66496228    0.0043441032
      6842.33      0.66202707    0.0043456204
      6849.17      0.65874080    0.0043032627
      6856.02      0.65681992    0.0042842977
      6862.88      0.65519106    0.0042690516
      6869.74      0.65452355    0.0042355749
      6876.61      0.65184285    0.0042479380
      6883.49      0.64823175    0.0042374797
      6890.37      0.64379895    0.0042259595
      6897.27      0.64174934    0.0041918038
      6904.16      0.63823797    0.0041344052
      6911.07      0.63615395    0.0040772825
      6917.98      0.63427416    0.0040423573
      6924.89      0.63310498    0.0039695535
      6931.82      0.63237793    0.0039179032
      6938.75      0.63007024    0.0038875075
      6945.69      0.63312633    0.0038379564
      6952.64      0.63179095    0.0037900489
      6959.59      0.63125174    0.0037463071
      6966.55      0.62757771    0.0037225254
      6973.52      0.62890656    0.0036828761
      6980.49      0.62916118    0.0036430691
      6987.47      0.62658411    0.0035898840
      6994.46      0.62321085    0.0035676649
      7001.46      0.62378954    0.0035359080
      7008.46      0.62280912    0.0035148829
      7015.46      0.62082086    0.0035026623
      7022.48      0.61771707    0.0034916291
      7029.51      0.61629946    0.0034887010
      7036.53      0.61569260    0.0034716759
      7043.57      0.61652242    0.0034529199
      7050.62      0.61806048    0.0034327965
      7057.66      0.61841212    0.0034090509
      7064.72      0.61920731    0.0033831144
      7071.79      0.61865970    0.0033555642
      7078.86      0.62161240    0.0033251403
      7085.94      0.62359985    0.0032914509
      7093.03      0.62507355    0.0032549446
      7100.12      0.62751223    0.0032173868
      7107.22      0.63112103    0.0031790108
      7114.33      0.63222832    0.0031399269
      7121.44      0.63501318    0.0030999276
      7128.56      0.63501541    0.0030588602
      7135.69      0.63696011    0.0030287110
      7142.83      0.63645865    0.0029871480
      7149.97      0.63913791    0.0029462537
      7157.12      0.64084173    0.0029058390
      7164.28      0.64133426    0.0029005392
      7171.44      0.64309079    0.0029345086
      7178.62      0.64200221    0.0029754085
      7185.80      0.64150392    0.0030248503
      7192.98      0.63972732    0.0030856092
      7200.17      0.63794043    0.0031521528
      7207.38      0.63672705    0.0032490120
      7214.58      0.63564988    0.0033765824
      7221.80      0.63317269    0.0035492179
      7229.02      0.63030653    0.0037834273
      7236.25      0.62655111    0.0040972972
      7243.49      0.62389520    0.0045082927
      7250.73      0.62209635    0.0050366316
      7257.98      0.61984397    0.0057107000
      7265.24      0.61625543    0.0065688018
      7272.51      0.61257004    0.0076534553
      7279.78      0.60679800    0.0090169368
