# starting wavelength =        3359.4052
# ending wavelength =        7108.0700
# O2 telluric scale =        0
# O2 telluric shift =        0
# H2O telluric scale =        0
# H2O telluric shift =        0
      3361.71      0.56858370     0.081678012
      3365.07      0.54803881     0.081362156
      3368.44      0.54352859     0.080884174
      3371.81      0.55227065     0.080564177
      3375.18      0.55711156     0.080248884
      3378.56      0.58610624     0.079412416
      3381.94      0.58277386     0.079095284
      3385.32      0.61427583     0.079147782
      3388.70      0.60450457     0.078325806
      3392.09      0.57801648     0.078009500
      3395.48      0.57419012     0.077698186
      3398.88      0.60766529     0.077249950
      3402.28      0.61400367     0.076934527
      3405.68      0.59057200     0.076625181
      3409.09      0.61343191     0.076184480
      3412.49      0.62478324     0.075871257
      3415.91      0.67404865     0.075087539
      3419.32      0.70043753     0.074787105
      3422.74      0.69796767     0.074818091
      3426.17      0.69612055     0.074043014
      3429.59      0.68856872     0.073744818
      3433.02      0.66191764     0.073452240
      3436.45      0.68255597     0.073008604
      3439.89      0.72997826     0.072713344
      3443.33      0.76750584     0.071959473
      3446.78      0.77521710     0.071984220
      3450.22      0.78256936     0.071691858
      3453.67      0.74644041     0.070947129
      3457.13      0.75861471     0.070653295
      3460.58      0.72473354     0.070680752
      3464.04      0.73492070     0.069944511
      3467.51      0.72889891     0.069653977
      3470.98      0.67626676     0.069245182
      3474.45      0.66865484     0.068952353
      3477.92      0.64335883     0.068665139
      3481.40      0.60718699     0.068258975
      3484.88      0.59866374     0.067969844
      3488.37      0.61696861     0.067266173
      3491.86      0.58051119     0.066990996
      3495.35      0.54570754     0.066997542
      3498.84      0.58499580     0.066303631
      3502.34      0.57886027     0.066033172
      3505.84      0.59940897     0.065624838
      3509.35      0.60127582     0.065351826
      3512.86      0.62343800     0.064670569
      3516.37      0.61126754     0.064678428
      3519.89      0.59191342     0.064410927
      3523.41      0.57211460     0.063735060
      3526.93      0.57623802     0.063743068
      3530.46      0.58827354     0.064332938
      3533.99      0.59424199     0.065030479
      3537.53      0.58602314     0.065985345
      3541.06      0.58376771     0.065038008
      3544.60      0.60629649     0.063234437
      3548.15      0.63538460     0.061740497
      3551.70      0.69226792     0.061441345
      3555.25      0.68243462     0.061141859
      3558.80      0.69191306     0.061298054
      3562.36      0.71308428     0.061271852
      3565.92      0.71578455     0.061797475
      3569.49      0.73029295     0.061938163
      3573.06      0.77175166     0.062323110
      3576.64      0.77224822     0.062691540
      3580.21      0.75401644     0.063041761
      3583.79      0.75746222     0.062926425
      3587.38      0.71900592     0.063550308
      3590.96      0.70816777     0.063730797
      3594.55      0.72473562     0.063677786
      3598.15      0.69963653     0.063667527
      3601.75      0.69133165     0.063010748
      3605.35      0.67925698     0.062853976
      3608.96      0.69820069     0.061927031
      3612.56      0.72013447     0.061545368
      3616.18      0.73203138     0.060466122
      3619.79      0.72877452     0.059730321
      3623.41      0.73554963     0.058751430
      3627.04      0.73227195     0.057955896
      3630.66      0.75366124     0.056942803
      3634.29      0.78389994     0.056148417
      3637.93      0.80018667     0.054968359
      3641.57      0.81171468     0.054460090
      3645.21      0.82738811     0.053424947
      3648.86      0.82916906     0.053038463
      3652.50      0.83010803     0.052217515
      3656.16      0.81378289     0.051568006
      3659.81      0.79919774     0.051594957
      3663.47      0.78490323     0.051290806
      3667.14      0.76461086     0.052187195
      3670.80      0.74840508     0.052727834
      3674.48      0.72239289     0.051829031
      3678.15      0.71165779     0.050780515
      3681.83      0.70203552     0.050061826
      3685.51      0.69366917     0.049324648
      3689.20      0.69697069     0.049102279
      3692.88      0.69046573     0.048782474
      3696.58      0.67487944     0.048561685
      3700.27      0.63506935     0.048244690
      3703.98      0.61089276     0.047737523
      3707.68      0.59410029     0.047711791
      3711.39      0.58201856     0.047209787
      3715.10      0.56473745     0.047183413
      3718.81      0.54122833     0.046686567
      3722.53      0.52154540     0.046659016
      3726.26      0.51985415     0.046167406
      3729.98      0.50062578     0.045964129
      3733.71      0.50552469     0.045653156
      3737.45      0.50486741     0.045170693
      3741.18      0.49555500     0.045143191
      3744.93      0.50625491     0.044664658
      3748.67      0.53061671     0.044637572
      3752.42      0.53893621     0.044163143
      3756.17      0.55472838     0.043870270
      3759.93      0.56506045     0.043665794
      3763.69      0.58341884     0.043374704
      3767.45      0.59246267     0.043172995
      3771.22      0.59141863     0.042883635
      3774.99      0.60624729     0.042431708
      3778.77      0.62943970     0.042397682
      3782.54      0.65416648     0.041951409
      3786.33      0.67886379     0.041915746
      3790.11      0.68369219     0.041475613
      3793.90      0.68736988     0.041192074
      3797.70      0.69206387     0.041004300
      3801.50      0.69638619     0.040722057
      3805.30      0.70872066     0.040290763
      3809.10      0.71155168     0.040256867
      3812.91      0.72176596     0.039828701
      3816.73      0.73622320     0.039796140
      3820.54      0.74565189     0.039521319
      3824.36      0.76907787     0.039101993
      3828.19      0.78400102     0.039066787
      3832.02      0.78503403     0.038650336
      3835.85      0.80836552     0.038387462
      3839.68      0.81041487     0.038203756
      3843.52      0.81957015     0.037941650
      3847.37      0.81429777     0.037539657
      3851.22      0.83082316     0.037500386
      3855.07      0.83023140     0.037105029
      3858.92      0.84288374     0.036846157
      3862.78      0.84369139     0.036808213
      3866.64      0.85204519     0.036417506
      3870.51      0.85660796     0.036163581
      3874.38      0.86848083     0.035993774
      3878.26      0.87896705     0.035740352
      3882.13      0.87726423     0.035359819
      3886.02      0.88861221     0.035322495
      3889.90      0.90427127     0.035073973
      3893.79      0.91314244     0.034700554
      3897.69      0.91756796     0.034662238
      3901.59      0.87596051     0.048545199
      3905.49      0.88672248     0.048316463
      3909.39      0.89081857     0.047969285
      3913.30      0.88425284     0.047635657
      3917.22      0.90684536     0.047405067
      3921.13      0.89691716     0.047065086
      3925.06      0.89800019     0.046341404
      3928.98      0.91527219     0.046512741
      3932.91      0.91737102     0.046179961
      3936.84      0.92615320     0.045469146
      3940.78      0.91512990     0.045634565
      3944.72      0.89384424     0.045307350
      3948.67      0.88897113     0.044609096
      3952.61      0.86896092     0.044305834
      3956.57      0.88020019     0.044447609
      3960.52      0.86975172     0.043760378
      3964.48      0.88078390     0.043460187
      3968.45      0.87958767     0.043601146
      3972.42      0.88252242     0.042924305
      3976.39      0.90555005     0.042627301
      3980.37      0.92705912     0.042766964
      3984.35      0.92742765     0.042101207
      3988.33      0.93098704     0.041807445
      3992.32      0.90874339     0.041522896
      3996.31      0.90368197     0.041295095
      4000.31      0.90406569     0.041003669
      4004.31      0.92922324     0.040720373
      4008.31      0.92675089     0.040096593
      4012.32      0.93173175     0.040213098
      4016.33      0.92661655     0.039931001
      4020.35      0.91862903     0.039325608
      4024.37      0.92063895     0.039040046
      4028.40      0.92319854     0.039154236
      4032.42      0.92332062     0.038568226
      4036.46      0.93825731     0.038284167
      4040.50      0.96698241     0.038006835
      4044.54      0.96923642     0.038118351
      4048.58      0.97872184     0.037544533
      4052.63       1.0021954     0.037268884
      4056.68      0.98597248     0.036999903
      4060.74      0.97460457     0.036823053
      4064.80      0.96127302     0.036548475
      4068.86      0.96386880     0.036279728
      4072.93      0.98424474     0.036016539
      4077.01      0.98712565     0.035468939
      4081.08      0.99628910     0.035577134
      4085.17      0.98949470     0.035314157
      4089.25      0.99170257     0.035056288
      4093.34      0.98704159     0.034521164
      4097.43      0.97959061     0.034274794
      4101.53      0.97966276     0.034370073
      4105.63      0.97478099     0.034116970
      4109.74      0.95951704     0.033594472
      4113.85      0.96111024     0.033353097
      4117.96      0.95034131     0.033116204
      4122.08      0.93752309     0.033205534
      4126.20      0.92708632     0.032695363
      4130.33      0.90332539     0.032458111
      4134.46      0.90852390     0.032224636
      4138.59      0.91474924     0.031994870
      4142.73      0.92616225     0.031508349
      4146.88      0.93227946     0.031584878
      4151.02      0.92193143     0.031354621
      4155.18      0.93582772     0.031127811
      4159.33      0.93667652     0.030904427
      4163.49      0.94055271     0.030435768
      4167.65      0.95656776     0.030211023
      4171.82      0.98189868     0.030285432
      4175.99       1.0066056     0.030065704
      4180.17       1.0173162     0.029849416
      4184.35       1.0180727     0.029402080
      4188.54       1.0096291     0.029184551
      4192.72       1.0226233     0.028969911
      4196.92       1.0136567     0.028758021
      4201.11       1.0066496     0.028830111
      4205.31       1.0042249     0.028405704
      4209.52       1.0021414     0.028193993
      4213.73      0.99628095     0.027984915
      4217.94      0.97969647     0.027778407
      4222.16      0.96417882     0.027574423
      4226.38      0.94277184     0.027372311
      4230.61      0.93233577     0.026961753
      4234.84      0.91940096     0.026766463
      4239.08      0.89472022     0.026835886
      4243.32      0.87310114     0.026638031
      4247.56      0.83827936     0.026442247
      4251.81      0.82582776     0.026248693
      4256.06      0.81810350     0.025854936
      4260.32      0.79227803     0.025666909
      4264.58      0.76614906     0.025480814
      4268.84      0.76220147     0.025296588
      4273.11      0.75751270     0.025114244
      4277.38      0.72833231     0.024933646
      4281.66      0.72834241     0.024754813
      4285.94      0.73699233     0.024616538
      4290.23      0.73553923     0.024436572
      4294.52      0.71894665     0.024258781
      4298.81      0.73388451     0.024083091
      4303.11      0.74016161     0.023909389
      4307.42      0.75837084     0.023737641
      4311.72      0.78694936     0.023567328
      4316.04      0.80431013     0.023398630
      4320.35      0.81911829     0.023059017
      4324.67      0.84906593     0.022891901
      4329.00      0.86758884     0.022726365
      4333.33      0.89771394     0.022562394
      4337.66      0.91977495     0.022399966
      4342.00      0.92799289     0.022239061
      4346.34      0.94079160     0.022079668
      4350.69      0.96336390     0.021921788
      4355.04      0.95788037     0.021765173
      4359.39      0.94580443     0.021610276
      4363.75      0.93759417     0.021457051
      4368.12      0.90739583     0.021305481
      4372.48      0.89799557     0.020996714
      4376.86      0.88887066     0.020848906
      4381.23      0.88366789     0.020702466
      4385.61      0.88112022     0.020557313
      4390.00      0.89458216     0.020413448
      4394.39      0.88872918     0.020270819
      4398.79      0.88789184     0.020129492
      4403.18      0.91082138     0.019989451
      4407.59      0.92836712     0.019850648
      4412.00      0.93807122     0.019713112
      4416.41      0.95085074     0.019576613
      4420.82      0.98475108     0.019441571
      4425.25       1.0292991     0.019307985
      4429.67       1.0540376     0.019175841
      4434.10       1.0914984     0.019045107
      4438.54       1.1127985     0.018915826
      4442.97       1.1204041     0.018787447
      4447.42       1.1370284     0.018660292
      4451.86       1.1528702     0.018534352
      4456.32       1.1757659     0.018409574
      4460.77       1.2036100     0.018286007
      4465.24       1.2277211     0.018163640
      4469.70       1.2546756     0.018042508
      4474.17       1.2787704     0.017922583
      4478.65       1.2833649     0.017803571
      4483.12       1.3099087     0.017686031
      4487.61       1.3303460     0.017569951
      4492.09       1.3232655     0.017455266
      4496.59       1.3427794     0.017185227
      4501.08       1.3535607     0.017074481
      4505.58       1.3717720     0.016964774
      4510.09       1.3663895     0.016856308
      4514.60       1.3539019     0.016749078
      4519.12       1.3479979     0.016643087
      4523.63       1.3219843     0.016538391
      4528.16       1.3035435     0.016434847
      4532.69       1.2992379     0.016332621
      4537.22       1.2967430     0.016231678
      4541.76       1.2961678     0.016131746
      4546.30       1.2987943     0.015888231
      4550.85       1.3116379     0.015790543
      4555.40       1.3092243     0.015694250
      4559.95       1.3072723     0.015599375
      4564.51       1.2805392     0.015505885
      4569.08       1.2756966     0.015413553
      4573.65       1.2605104     0.015322527
      4578.22       1.2379169     0.015232793
      4582.80       1.2403267     0.015012882
      4587.38       1.2195427     0.015037257
      4591.97       1.2114318     0.014949538
      4596.56       1.1789152     0.014863121
      4601.16       1.1667303     0.014778044
      4605.76       1.1437951     0.014694124
      4610.37       1.1267929     0.014611735
      4614.98       1.1250101     0.014405521
      4619.59       1.1200351     0.014326952
      4624.21       1.1295777     0.014249864
      4628.84       1.1267685     0.014174271
      4633.47       1.1350966     0.014099968
      4638.10       1.1485089     0.014125455
      4642.74       1.1339473     0.013930279
      4647.38       1.1303708     0.013857879
      4652.03       1.1186652     0.013786873
      4656.68       1.1166153     0.013717298
      4661.34       1.1106486     0.013649175
      4666.00       1.1013355     0.013582524
      4670.67       1.0989759     0.013397219
      4675.33       1.0943060     0.013331385
      4680.01       1.0749626     0.013364776
      4684.69       1.0597790     0.013301724
      4689.38       1.0433661     0.013240297
      4694.07       1.0192300     0.013067044
      4698.76       1.0186601     0.013006230
      4703.46       1.0038870     0.012946910
      4708.16      0.99499375     0.012889116
      4712.87      0.98675266     0.012928111
      4717.58      0.98038490     0.012764091
      4722.30      0.98190265     0.012708004
      4727.03      0.97895329     0.012653504
      4731.75      0.98518744     0.012600452
      4736.48       1.0115034     0.012446912
      4741.22       1.0133473     0.012486956
      4745.96       1.0202320     0.012435990
      4750.71       1.0264318     0.012386775
      4755.46       1.0333682     0.012239310
      4760.22       1.0370963     0.012194107
      4764.97       1.0341409     0.012237068
      4769.74       1.0354547     0.012191282
      4774.51       1.0283592     0.012049465
      4779.29       1.0210376     0.012007606
      4784.07       1.0147895     0.011967468
      4788.85       1.0118842     0.012012289
      4793.64      0.98643447     0.011875794
      4798.43      0.98319787     0.011837502
      4803.23      0.97725569     0.011801084
      4808.03      0.97177298     0.011668611
      4812.84      0.96242151     0.011718699
      4817.66      0.95655257     0.011684508
      4822.48      0.96401312     0.011652252
      4827.30      0.95977610     0.011524829
      4832.12      0.95557764     0.011578212
      4836.96      0.95427684     0.011547812
      4841.79      0.95289184     0.011426410
      4846.63      0.96108862     0.011396210
      4851.48      0.95088299     0.011452994
      4856.33      0.95002612     0.011336794
      4861.19      0.96273822     0.011308553
      4866.05      0.95111816     0.011282355
      4870.92      0.96241953     0.011256313
      4875.79      0.95478866     0.011230388
      4880.66      0.94575900     0.011206566
      4885.55      0.94439492     0.011100505
      4890.43      0.95169894     0.011161206
      4895.32      0.94796739     0.011139507
      4900.22      0.93147128     0.011036266
      4905.12      0.92132966     0.011100160
      4910.02      0.91924490     0.011080626
      4914.94      0.92826796     0.010980414
      4919.85      0.92165438     0.010965327
      4924.77      0.92735226     0.011029478
      4929.70      0.92993776     0.010932469
      4934.62      0.93118966     0.010920020
      4939.56      0.93864939     0.010905242
      4944.50      0.94822710     0.010893200
      4949.44      0.96048341     0.010883481
      4954.39      0.97036078     0.010871625
      4959.35      0.96905678     0.010862065
      4964.31      0.98139263     0.010854834
      4969.27      0.98093777     0.010845297
      4974.24      0.98498200     0.010838315
      4979.22       1.0027846     0.010751635
      4984.20       1.0144681     0.010826146
      4989.18       1.0211191     0.010821869
      4994.17       1.0287147     0.010737000
      4999.16       1.0463384     0.010814822
      5004.16       1.0598959     0.010733789
      5009.17       1.0792170     0.010730423
      5014.18       1.0834949     0.010734819
      5019.19       1.1014316     0.010731778
      5024.21       1.1108193     0.010731301
      5029.23       1.1282375     0.010736736
      5034.26       1.1390076     0.010736636
      5039.30       1.1565235     0.010664155
      5044.34       1.1594509     0.010745517
      5049.39       1.1670299     0.010673592
      5054.43       1.1763836     0.010758104
      5059.49       1.1885167     0.010686899
      5064.55       1.1990477     0.010693440
      5069.61       1.2069125     0.010778508
      5074.68       1.2119776     0.010711005
      5079.76       1.2198989     0.010798864
      5084.84       1.2405779     0.010732035
      5089.92       1.2483412     0.010742767
      5095.01       1.2572417     0.010755942
      5100.11       1.2604854     0.010767347
      5105.21       1.2780695     0.010782912
      5110.31       1.2781850     0.010794954
      5115.42       1.2858756     0.010812660
      5120.54       1.2909089     0.010825586
      5125.66       1.2889030     0.010763323
      5130.79       1.2847246     0.010859406
      5135.92       1.2851707     0.010798675
      5141.05       1.2813394     0.010896369
      5146.20       1.2782441     0.010836891
      5151.34       1.2759379     0.010935871
      5156.49       1.2668316     0.010877644
      5161.65       1.2660191     0.010978001
      5166.81       1.2595729     0.010920759
      5171.98       1.2615899     0.010938077
      5177.15       1.2723954     0.010966074
      5182.33       1.2827992     0.010912576
      5187.51       1.2722976     0.011014114
      5192.70       1.2749870     0.010961780
      5197.89       1.2773865     0.011064781
      5203.09       1.2681467     0.011013505
      5208.29       1.2644991     0.011117933
      5213.50       1.2512507     0.011067595
      5218.72       1.2433050     0.011173012
      5223.93       1.2319089     0.011123875
      5229.16       1.2272552     0.011157479
      5234.39       1.2102485     0.011182310
      5239.62       1.2045607     0.011216724
      5244.86       1.1882585     0.011243179
      5250.11       1.1814722     0.011278277
      5255.36       1.1843151     0.011231042
      5260.61       1.1899516     0.011342379
      5265.87       1.1957650     0.011295123
      5271.14       1.2076201     0.011408818
      5276.41       1.2021735     0.011361243
      5281.69       1.2099316     0.011402997
      5286.97       1.2247157     0.011516758
      5292.26       1.2344122     0.011471139
      5297.55       1.2343645     0.011587431
      5302.85       1.2378091     0.011541481
      5308.15       1.2441175     0.011586230
      5313.46       1.2285758     0.011613993
      5318.77       1.2339007     0.011658908
      5324.09       1.2194057     0.011616146
      5329.42       1.2213302     0.011733999
      5334.75       1.2217785     0.011781322
      5340.08       1.2235768     0.011810938
      5345.42       1.2127376     0.011858035
      5350.77       1.2086565     0.011816122
      5356.12       1.2130815     0.011936611
      5361.48       1.2024361     0.011896810
      5366.83       1.1939611     0.011943084
      5372.20       1.1812166     0.012066281
      5377.58       1.1742553     0.012026062
      5382.95       1.1761582     0.012074054
      5388.34       1.1836091     0.012111455
      5393.72       1.1698288     0.012159175
      5399.12       1.1602396     0.012208734
      5404.52       1.1585669     0.012168406
      5409.92       1.1360738     0.012295422
      5415.33       1.1159874     0.012345835
      5420.75       1.1158254     0.012305379
      5426.17       1.1044956     0.012434216
      5431.60       1.1096500     0.012392527
      5437.03       1.1161444     0.012445423
      5442.47       1.1169949     0.012576315
      5447.91       1.1224230     0.012534364
      5453.36       1.1243422     0.012588262
      5458.81       1.1339457     0.012643454
      5464.27       1.1323407     0.012679010
      5469.73       1.1315459     0.012733067
      5475.20       1.1396327     0.012788322
      5480.68       1.1486857     0.012748354
      5486.16       1.1621372     0.012879704
      5491.65       1.1667011     0.012935422
      5497.14       1.1611160     0.012896306
      5502.64       1.1684498     0.012950587
      5508.14       1.1744220     0.013084638
      5513.65       1.1720784     0.013046796
      5519.16       1.1624925     0.013101214
      5524.68       1.1633602     0.013156628
      5530.20       1.1597846     0.013292714
      5535.73       1.1449171     0.013253416
      5541.27       1.1458539     0.013308446
      5546.81       1.1485926     0.013364388
      5552.36       1.1621078     0.013323391
      5557.91       1.1547755     0.013462491
      5563.47       1.1482873     0.013518211
      5569.04       1.1350065     0.013574737
      5574.60       1.1168695     0.013532714
      5580.18       1.1133232     0.013590484
      5585.76       1.1031513     0.013730351
      5591.35       1.1028168     0.013786923
      5596.94       1.0775271     0.013743067
      5602.53       1.0781345     0.013800474
      5608.14       1.0758307     0.013858396
      5613.75       1.0833193     0.013917017
      5619.36       1.0676348     0.013954224
      5624.98       1.0581493     0.014011427
      5630.60       1.0649984     0.014069014
      5636.23       1.0626788     0.014127234
      5641.87       1.0553169     0.014084065
      5647.51       1.0666535     0.014140279
      5653.16       1.0702178     0.014196729
      5658.82       1.0756561     0.014337634
      5664.47       1.0655336     0.014395072
      5670.14       1.0699271     0.014351165
      5675.81       1.0666670     0.014406784
      5681.48       1.0661148     0.014462585
      5687.17       1.0674940     0.014518881
      5692.85       1.0684666     0.014575279
      5698.55       1.0849806     0.014528272
      5704.25       1.0925735     0.014584724
      5709.95       1.1062257     0.014728384
      5715.66       1.1094515     0.014783569
      5721.38       1.1267123     0.014838810
      5727.10       1.1260014     0.014894304
      5732.83       1.1430510     0.014845250
      5738.56       1.1477096     0.014902231
      5744.30       1.1458401     0.014958569
      5750.04       1.1448252     0.015014744
      5755.79       1.1358798     0.015072106
      5761.55       1.1325600     0.015132300
      5767.31       1.1215583     0.015197380
      5773.08       1.1095117     0.015155937
      5778.85       1.1161413     0.015222194
      5784.63       1.1103160     0.015377130
      5790.41       1.1011305     0.015446919
      5796.21       1.1030375     0.015516729
      5802.00       1.1097936     0.015581509
      5807.81       1.1127220     0.015641032
      5813.61       1.1042424     0.015697676
      5819.43       1.0973177     0.015645805
      5825.25       1.0940747     0.015696200
      5831.07       1.0943669     0.015743807
      5836.90       1.0992266     0.015790494
      5842.74       1.1107592     0.015837656
      5848.58       1.1010682     0.015885155
      5854.43       1.0951877     0.015930730
      5860.29       1.0983090     0.015973525
      5866.15       1.0989704     0.016014142
      5872.01       1.1043656     0.016053384
      5877.89       1.0841477     0.016092654
      5883.76       1.0761714     0.016130437
      5889.65       1.0844371     0.016165115
      5895.54       1.0856253     0.016091225
      5901.43       1.0789902     0.016128978
      5907.34       1.0781514     0.016168327
      5913.24       1.0722331     0.016204848
      5919.16       1.0635094     0.016240284
      5925.08       1.0499026     0.016184482
      5931.00       1.0348510     0.016223683
      5936.93       1.0271624     0.016263297
      5942.87       1.0169181     0.016302985
      5948.81       1.0121482     0.016343075
      5954.76       1.0181842     0.016383364
      5960.72       1.0101099     0.016423232
      5966.68       1.0121082     0.016462521
      5972.64       1.0055900     0.016501310
      5978.62       1.0019107     0.016539580
      5984.60       1.0042513     0.016577579
      5990.58      0.98803764     0.016615175
      5996.57      0.98467809     0.016652152
      6002.57      0.98742665     0.016589762
      6008.57      0.97551217     0.016624618
      6014.58      0.96928627     0.016659000
      6020.60      0.96108861     0.016692687
      6026.62      0.95185968     0.016725931
      6032.65      0.93710891     0.016758491
      6038.68      0.91949212     0.016790290
      6044.72      0.90434719     0.016931602
      6050.76      0.89157879     0.016866007
      6056.81      0.88389509     0.016894615
      6062.87      0.89050755     0.016922716
      6068.93      0.89353965     0.016950258
      6075.00      0.88202696     0.016977098
      6081.08      0.87706181     0.017003461
      6087.16      0.87843461     0.017029386
      6093.25      0.88002285     0.016956981
      6099.34      0.88104381     0.016981221
      6105.44      0.88183178     0.017005382
      6111.54      0.88503005     0.017030835
      6117.66      0.89666501     0.017061215
      6123.78      0.89664456     0.017195028
      6129.90      0.91401442     0.017114949
      6136.03      0.92457531     0.017136573
      6142.17      0.93537404     0.017167443
      6148.31      0.93695568     0.017206744
      6154.46      0.94577668     0.017254513
      6160.61      0.96652394     0.017212550
      6166.77      0.97190980     0.017266212
      6172.94      0.99125347     0.017318348
      6179.11       1.0051454     0.017477878
      6185.29       1.0093186     0.017415850
      6191.48       1.0130839     0.017436728
      6197.67       1.0219859     0.017444213
      6203.87       1.0218413     0.017438902
      6210.07       1.0148361     0.017422803
      6216.28       1.0172176     0.017397462
      6222.50       1.0235004     0.017368987
      6228.72       1.0291135     0.017346135
      6234.95       1.0215431     0.017333335
      6241.19       1.0141072     0.017221562
      6247.42       1.0116787     0.017204861
      6253.67       1.0162411     0.017289122
      6259.93       1.0141258     0.017175400
      6266.19       1.0146536     0.017163366
      6272.46       1.0227205     0.017152214
      6278.73       1.0193713     0.017142363
      6285.01       1.0253961     0.017128852
      6291.29       1.0288925     0.017117314
      6297.58       1.0295371     0.017107255
      6303.88       1.0231276     0.016996066
      6310.19       1.0180159     0.016985133
      6316.50       1.0122401     0.017075563
      6322.81       1.0001025     0.016964348
      6329.14       1.0038958     0.016951953
      6335.47       1.0030824     0.016941800
      6341.80       1.0033693     0.016938648
      6348.14       1.0109615     0.016933799
      6354.49       1.0129024     0.016930022
      6360.85       1.0178860     0.016825702
      6367.21       1.0280098     0.016913563
      6373.57       1.0354057     0.016899546
      6379.95       1.0370744     0.016786352
      6386.33       1.0326801     0.016863407
      6392.72       1.0318007     0.016836102
      6399.11       1.0433236     0.016706506
      6405.51       1.0705386     0.016673586
      6411.92       1.0749994     0.016629873
      6418.32       1.0806713     0.016592533
      6424.74       1.0877747     0.016557122
      6431.17       1.0938983     0.016513343
      6437.60       1.0990160     0.016476106
      6444.04       1.0929756     0.016437305
      6450.48       1.0901423     0.016383289
      6456.94       1.0876651     0.016336902
      6463.39       1.0771241     0.016189908
      6469.85       1.0758316     0.016231475
      6476.33       1.0645525     0.016085548
      6482.80       1.0552088     0.016030731
      6489.28       1.0481403     0.016063208
      6495.77       1.0416031     0.015912166
      6502.27       1.0278116     0.015858201
      6508.77       1.0277409     0.015796377
      6515.28       1.0337247     0.015740334
      6521.80       1.0463742     0.015591688
      6528.32       1.0574656     0.015617969
      6534.85       1.0696597     0.015466083
      6541.38       1.0790480     0.015407882
      6547.92       1.0901858     0.015332805
      6554.47       1.0952175     0.015270885
      6561.03       1.0971355     0.015285643
      6567.59       1.0973281     0.015127522
      6574.16       1.0894049     0.015062481
      6580.73       1.0794979     0.014976671
      6587.31       1.0615439     0.014907761
      6593.90       1.0575366     0.014818174
      6600.50       1.0451261     0.014745380
      6607.10       1.0373763     0.014651647
      6613.70       1.0201692     0.014484457
      6620.32       1.0019112     0.014404107
      6626.94      0.98174818     0.014307183
      6633.57      0.96969044     0.014223114
      6640.20      0.94757128     0.014121716
      6646.84      0.92775720     0.014033954
      6653.49      0.92133294     0.013927957
      6660.14      0.91254952     0.013836536
      6666.80      0.89767532     0.013725683
      6673.47      0.88582860     0.013630595
      6680.14      0.87002053     0.013451290
      6686.82      0.86376590     0.013343113
      6693.51      0.85646670     0.013284714
      6700.20      0.84500598     0.013221281
      6706.90      0.84508690     0.013116780
      6713.61      0.85225766     0.012971683
      6720.32      0.86504413     0.012906660
      6727.05      0.86856864     0.012877715
      6733.77      0.87968072     0.012700928
      6740.51      0.88270446     0.012672733
      6747.25      0.89099589     0.012598204
      6754.00      0.89345563     0.012498831
      6760.75      0.89910027     0.012442986
      6767.51      0.90115667     0.012260829
      6774.28      0.90113242     0.012096704
      6781.05      0.90172330     0.011755325
      6787.84      0.90756882     0.011512993
      6794.62      0.91403256     0.011165184
      6801.42      0.91464196     0.010880138
      6808.22      0.91059223     0.010492585
      6815.03      0.90819623     0.010197591
      6821.85      0.90383267    0.0098468485
      6828.67      0.89456541    0.0095636873
      6835.50      0.89640725    0.0092561520
      6842.33      0.88720501    0.0090356142
      6849.17      0.89649810    0.0087697138
      6856.02      0.89780545    0.0085431306
      6862.88      0.89341170    0.0082776959
      6869.74      0.89736099    0.0080736019
      6876.61      0.88902455    0.0078249356
      6883.49      0.88782359    0.0076137719
      6890.37      0.88132065    0.0073679631
      6897.27      0.87577421    0.0071239084
      6904.16      0.87419415    0.0069362407
      6911.07      0.86527651    0.0067127875
      6917.98      0.85710368    0.0065264710
      6924.89      0.85224578    0.0063082706
      6931.82      0.85541249    0.0061311276
      6938.75      0.84695388    0.0059213736
      6945.69      0.83904529    0.0057229888
      6952.64      0.83578519    0.0055736097
      6959.59      0.83600632    0.0054052755
      6966.55      0.83557574    0.0052462829
      6973.52      0.83011005    0.0051180755
      6980.49      0.83310432    0.0049765429
      6987.47      0.83276010    0.0048501202
      6994.46      0.83346771    0.0048297645
      7001.46      0.83402991    0.0048660971
      7008.46      0.83594683    0.0049238838
      7015.46      0.83814333    0.0050027542
      7022.48      0.83910258    0.0051089984
      7029.51      0.84576808    0.0052508582
      7036.53      0.84846498    0.0054388608
      7043.57      0.85613154    0.0056603825
      7050.62      0.86355256    0.0059805620
      7057.66      0.87005775    0.0064020335
      7064.72      0.88099670    0.0069531333
      7071.79      0.88903035    0.0076700604
      7078.86      0.89648050    0.0087334325
      7085.94      0.90572744    0.0099322031
      7093.03      0.91576638     0.011441988
      7100.12      0.92380273     0.013331800
      7107.22      0.94034286     0.015691615
