# starting wavelength =        3526.2123
# ending wavelength =        7217.3400
# O2 telluric scale =        0
# O2 telluric shift =        0
# H2O telluric scale =        0
# H2O telluric shift =        0
      3526.93      0.63140870     0.059899636
      3530.46      0.55318488     0.059687421
      3533.99      0.50635026     0.059812963
      3537.53      0.44196910     0.059509975
      3541.06      0.42810756     0.059308069
      3544.60      0.42540033     0.059419066
      3548.15      0.37186012     0.059132746
      3551.70      0.31867265     0.058918197
      3555.25      0.29762364     0.059046818
      3558.80      0.29321447     0.059166972
      3562.36      0.31876146     0.058546265
      3565.92      0.25573313     0.058666403
      3569.49      0.22315958     0.058800835
      3573.06      0.22656079     0.058506596
      3576.64      0.23917070     0.058301172
      3580.21      0.21227662     0.058430333
      3583.79      0.16714597     0.058572843
      3587.38      0.14922140     0.057931657
      3590.96      0.17059301     0.058073727
      3594.55      0.17893875     0.058210046
      3598.15      0.16617576     0.057577715
      3601.75      0.15261482     0.057712151
      3605.35      0.18305627     0.057864282
      3608.96      0.15943175     0.057570611
      3612.56      0.18095501     0.057369168
      3616.18      0.16358987     0.057510285
      3619.79      0.21278354     0.057230036
      3623.41      0.23900781     0.057015309
      3627.04      0.26513597     0.057180407
      3630.66      0.30196389     0.056883465
      3634.29      0.33776900     0.057043529
      3637.93      0.36132443     0.056833056
      3641.57      0.39978715     0.056547666
      3645.21      0.44476299     0.056711725
      3648.86      0.46613980     0.056876349
      3652.50      0.50404319     0.056220802
      3656.16      0.53744304     0.056381005
      3659.81      0.56810787     0.056562063
      3663.47      0.56950388     0.056268976
      3667.14      0.57254857     0.056451403
      3670.80      0.58292793     0.056236016
      3674.48      0.57615022     0.055954912
      3678.15      0.56031024     0.056138475
      3681.83      0.51528953     0.056324807
      3685.51      0.48897137     0.055649832
      3689.20      0.47578012     0.055828647
      3692.88      0.45425027     0.056037362
      3696.58      0.44041627     0.055741624
      3700.27      0.43527488     0.055942081
      3703.98      0.44491610     0.055252749
      3707.68      0.45073722     0.055445533
      3711.39      0.47729885     0.055662866
      3715.10      0.48423179     0.055369649
      3718.81      0.46139456     0.055584086
      3722.53      0.47276448     0.055371818
      3726.26      0.47871671     0.055086575
      3729.98      0.49113529     0.055317701
      3733.71      0.51956379     0.055024702
      3737.45      0.57689390     0.055253108
      3741.18      0.59007994     0.055488850
      3744.93      0.57543095     0.054754897
      3748.67      0.58105554     0.055001756
      3752.42      0.59721507     0.055227094
      3756.17      0.58503821     0.054946230
      3759.93      0.61070753     0.055202447
      3763.69      0.60000314     0.054911997
      3767.45      0.60975897     0.055173153
      3771.22      0.63646846     0.054953372
      3774.99      0.64963786     0.054667725
      3778.77      0.67992984     0.054950376
      3782.54      0.67351406     0.054653983
      3786.33      0.70955326     0.054925444
      3790.11      0.75317982     0.054168171
      3793.90      0.78277639     0.053880168
      3797.70      0.78636276     0.053694846
      3801.50      0.86255989     0.053398093
      3805.30      0.93423524     0.053112175
      3809.10      0.98239823     0.052377288
      3812.91       1.0116908     0.052635494
      3816.73       1.0317864     0.052355190
      3820.54      0.99682892     0.051629826
      3824.36       1.0225554     0.051882859
      3828.19       1.0141633     0.051607353
      3832.02       1.0261518     0.050889503
      3835.85       1.0196176     0.051141644
      3839.68      0.99697795     0.050419885
      3843.52      0.99970241     0.050158884
      3847.37      0.98936997     0.049906405
      3851.22      0.97948641     0.049694866
      3855.07      0.97282300     0.049435028
      3858.92       1.0283589     0.049184879
      3862.78       1.0280535     0.048980853
      3866.64       1.0419729     0.048720717
      3870.51       1.0714868     0.048471826
      3874.38       1.1173659     0.047805724
      3878.26       1.1524248     0.048016726
      3882.13       1.1610913     0.047765289
      3886.02       1.1727166     0.047524334
      3889.90       1.1863385     0.046860076
      3893.79       1.1879233     0.047069001
      3897.69       1.2117895     0.046825912
      3901.59       1.1978081     0.046181143
      3905.49       1.2002571     0.045932003
      3909.39       1.1903122     0.046138167
      3913.30       1.1872175     0.045513903
      3917.22       1.2005486     0.045263824
      3921.13       1.1895641     0.045021365
      3925.06       1.1889379     0.044858940
      3928.98       1.2124252     0.044608644
      3932.91       1.2106135     0.044363032
      3936.84       1.2218139     0.044125636
      3940.78       1.2207324     0.043964929
      3944.72       1.2016940     0.043718848
      3948.67       1.1797898     0.043478625
      3952.61       1.1579506     0.043244353
      3956.57       1.1288411     0.042653863
      3960.52       1.1072210     0.042846137
      3964.48       1.1066380     0.042609725
      3968.45       1.1012722     0.042378270
      3972.42       1.0763624     0.041798404
      3976.39       1.0396560     0.041578441
      3980.37       1.0189802     0.041758625
      3984.35      0.98036456     0.041180619
      3988.33      0.92937658     0.040957654
      3992.32      0.90779275     0.040739664
      3996.31      0.84988912     0.040525467
      4000.31      0.82674864     0.040695378
      4004.31      0.81773993     0.040133613
      4008.31      0.80601416     0.039917094
      4012.32      0.77978120     0.039704381
      4016.33      0.75352887     0.039495239
      4020.35      0.74456235     0.038956150
      4024.37      0.74335631     0.039111163
      4028.40      0.74315233     0.038899483
      4032.42      0.74357944     0.038690878
      4036.46      0.75876565     0.038485894
      4040.50      0.78014521     0.037962799
      4044.54      0.78884225     0.037753578
      4048.58      0.77189026     0.037904531
      4052.63      0.75595595     0.037699531
      4056.68      0.75558990     0.037497314
      4060.74      0.73601331     0.036995010
      4064.80      0.71647904     0.036789459
      4068.86      0.71337009     0.036586872
      4072.93      0.69911045     0.036386681
      4077.01      0.70013493     0.036189099
      4081.08      0.69165119     0.036054544
      4085.17      0.68653981     0.035852418
      4089.25      0.65765802     0.035652127
      4093.34      0.64404735     0.035455207
      4097.43      0.63041332     0.035259926
      4101.53      0.63630110     0.035067576
      4105.63      0.62467592     0.034595391
      4109.74      0.61451070     0.034408221
      4113.85      0.61183769     0.034222922
      4117.96      0.60995129     0.034360338
      4122.08      0.60423156     0.034170474
      4126.20      0.60046402     0.033981462
      4130.33      0.60211653     0.033522877
      4134.46      0.61431833     0.033338639
      4138.59      0.61246270     0.033157467
      4142.73      0.62884314     0.032976420
      4146.88      0.64096588     0.032798380
      4151.02      0.65963107     0.032620374
      4155.18      0.64525066     0.032445365
      4159.33      0.63031184     0.032010980
      4163.49      0.61759655     0.031835618
      4167.65      0.58188114     0.031952331
      4171.82      0.55438674     0.031777560
      4175.99      0.54121163     0.031603414
      4180.17      0.54965756     0.031431364
      4184.35      0.54497807     0.031259805
      4188.54      0.53628119     0.031090310
      4192.72      0.53708537     0.030921232
      4196.92      0.52117440     0.030519355
      4201.11      0.52218709     0.030349893
      4205.31      0.53785924     0.030183687
      4209.52      0.54578413     0.030017300
      4213.73      0.55257076     0.029853323
      4217.94      0.58172120     0.029689174
      4222.16      0.62115063     0.029527363
      4226.38      0.66679776     0.029365038
      4230.61      0.69334938     0.029205604
      4234.84      0.71385261     0.029045920
      4239.08      0.73542026     0.028888500
      4243.32      0.74951673     0.028730362
      4247.56      0.77314910     0.028575005
      4251.81      0.80672780     0.028198476
      4256.06      0.85044144     0.028046076
      4260.32      0.90561818     0.027893522
      4264.58      0.92862628     0.027742962
      4268.84      0.93471225     0.027592409
      4273.11      0.93793756     0.027443835
      4277.38      0.92451384     0.027295084
      4281.66      0.93309977     0.027148269
      4285.94      0.94623866     0.027000775
      4290.23      0.93700769     0.026855508
      4294.52      0.93073571     0.026710230
      4298.81      0.93009212     0.026566819
      4303.11      0.90518883     0.026423404
      4307.42      0.89587122     0.026281860
      4311.72      0.88532649     0.026139683
      4316.04      0.88816974     0.025999785
      4320.35      0.87290655     0.025860019
      4324.67      0.87046554     0.025722104
      4329.00      0.87456446     0.025583678
      4333.33      0.87184025     0.025447553
      4337.66      0.87530285     0.025310949
      4342.00      0.86771273     0.025176610
      4346.34      0.85603227     0.024820148
      4350.69      0.85289220     0.024688618
      4355.04      0.85111992     0.024557198
      4359.39      0.87064439     0.024427143
      4363.75      0.89357980     0.024297836
      4368.12      0.90412661     0.024169849
      4372.48      0.90902129     0.024042589
      4376.86      0.92702629     0.023916584
      4381.23      0.94457983     0.023791324
      4385.61      0.96151412     0.023667288
      4390.00      0.97951017     0.023544037
      4394.39       1.0101156     0.023421990
      4398.79       1.0371281     0.023092021
      4403.18       1.0542581     0.022970663
      4407.59       1.0729993     0.022850369
      4412.00       1.0849662     0.022730862
      4416.41       1.1072789     0.022612690
      4420.82       1.1136472     0.022495303
      4425.25       1.1254613     0.022379198
      4429.67       1.1502772     0.022264000
      4434.10       1.1573565     0.022318163
      4438.54       1.1922736     0.022013137
      4442.97       1.2133849     0.021898732
      4447.42       1.2290954     0.021785185
      4451.86       1.2672569     0.021673035
      4456.32       1.2964461     0.021561797
      4460.77       1.3243050     0.021451915
      4465.24       1.3610200     0.021343059
      4469.70       1.3823478     0.021053712
      4474.17       1.3992780     0.020948637
      4478.65       1.4438551     0.020844585
      4483.12       1.5007684     0.020741966
      4487.61       1.5383810     0.020640141
      4492.09       1.5744749     0.020683865
      4496.59       1.6023816     0.020404774
      4501.08       1.6179592     0.020303561
      4505.58       1.6338140     0.020204076
      4510.09       1.6503745     0.020105583
      4514.60       1.6609484     0.020008819
      4519.12       1.6534224     0.019913152
      4523.63       1.6538849     0.019642687
      4528.16       1.6430619     0.019690374
      4532.69       1.6543153     0.019595423
      4537.22       1.6743881     0.019501526
      4541.76       1.6558041     0.019409617
      4546.30       1.6519634     0.019151257
      4550.85       1.6554052     0.019059068
      4555.40       1.6586565     0.018967696
      4559.95       1.6557505     0.019017616
      4564.51       1.6631433     0.018928910
      4569.08       1.6834350     0.018681313
      4573.65       1.6649858     0.018592409
      4578.22       1.6463198     0.018504813
      4582.80       1.6255455     0.018419163
      4587.38       1.5907603     0.018183529
      4591.97       1.5749500     0.018231406
      4596.56       1.5505291     0.018145773
      4601.16       1.5151425     0.018062651
      4605.76       1.4796218     0.017832883
      4610.37       1.4448466     0.017753761
      4614.98       1.4164935     0.017801069
      4619.59       1.4042744     0.017719912
      4624.21       1.3787217     0.017495838
      4628.84       1.3641333     0.017419042
      4633.47       1.3526447     0.017344445
      4638.10       1.3522450     0.017390315
      4642.74       1.3336833     0.017172216
      4647.38       1.3198023     0.017097908
      4652.03       1.3105203     0.017026441
      4656.68       1.2953749     0.016956143
      4661.34       1.2662141     0.016861070
      4666.00       1.2452851     0.016790084
      4670.67       1.2406531     0.016721499
      4675.33       1.2127220     0.016513639
      4680.01       1.2041171     0.016562831
      4684.69       1.1889890     0.016495407
      4689.38       1.1664011     0.016294369
      4694.07       1.1447870     0.016226471
      4698.76       1.1264226     0.016277336
      4703.46       1.1053801     0.016213470
      4708.16       1.1010516     0.016016340
      4712.87       1.0958898     0.015951840
      4717.58       1.0829236     0.016004714
      4722.30       1.0549853     0.015813678
      4727.03       1.0219766     0.015750586
      4731.75      0.99541426     0.015689678
      4736.48      0.97254373     0.015618152
      4741.22      0.94818190     0.015556232
      4745.96      0.92920737     0.015497301
      4750.71      0.92911810     0.015319024
      4755.46      0.91117814     0.015369303
      4760.22      0.90490940     0.015191750
      4764.97      0.88372432     0.015137395
      4769.74      0.88644446     0.015189237
      4774.51      0.89815665     0.015014900
      4779.29      0.90372723     0.014962714
      4784.07      0.90704968     0.014912972
      4788.85      0.92188637     0.014844914
      4793.64      0.92314695     0.014794670
      4798.43      0.94756640     0.014747328
      4803.23      0.95679633     0.014681397
      4808.03      0.94084016     0.014633437
      4812.84      0.93895183     0.014469573
      4817.66      0.93662808     0.014524430
      4822.48      0.94096645     0.014479224
      4827.30      0.92690256     0.014317922
      4832.12      0.92721257     0.014374526
      4836.96      0.92727393     0.014218279
      4841.79      0.92968210     0.014172689
      4846.63      0.91882871     0.014231164
      4851.48      0.92022064     0.014076626
      4856.33      0.93347063     0.014033910
      4861.19      0.94336611     0.013984619
      4866.05      0.95864483     0.013941857
      4870.92      0.97182308     0.013896122
      4875.79      0.98276930     0.013853374
      4880.66      0.99099985     0.013813707
      4885.55       1.0087519     0.013768371
      4890.43       1.0181841     0.013728751
      4895.32       1.0056647     0.013590013
      4900.22      0.99911127     0.013647175
      4905.12      0.98685407     0.013509197
      4910.02      0.98392854     0.013568649
      4914.94      0.95438401     0.013431680
      4919.85      0.93969138     0.013399622
      4924.77      0.93252553     0.013357367
      4929.70      0.91673378     0.013325747
      4934.62      0.91104664     0.013286276
      4939.56      0.91046521     0.013254979
      4944.50      0.90912000     0.013125350
      4949.44      0.91685552     0.013187168
      4954.39      0.91935703     0.013160005
      4959.35      0.93307094     0.013122327
      4964.31      0.94313656     0.013095828
      4969.27      0.96771487     0.013060186
      4974.24      0.97518622     0.013034375
      4979.22      0.99831981     0.012909173
      4984.20       1.0043722     0.012880294
      4989.18       1.0156354     0.012852695
      4994.17       1.0269611     0.012825735
      4999.16       1.0308867     0.012798643
      5004.16       1.0386784     0.012773419
      5009.17       1.0370953     0.012747319
      5014.18       1.0564521     0.012723449
      5019.19       1.0641548     0.012698597
      5024.21       1.0689234     0.012675953
      5029.23       1.0855832     0.012652411
      5034.26       1.0871385     0.012630876
      5039.30       1.1001427     0.012608518
      5044.34       1.1086122     0.012500668
      5049.39       1.1220063     0.012566908
      5054.43       1.1234357     0.012461117
      5059.49       1.1311482     0.012439204
      5064.55       1.1531817     0.012424124
      5069.61       1.1602569     0.012403098
      5074.68       1.1842591     0.012389444
      5079.76       1.1906915     0.012369593
      5084.84       1.2070137     0.012266575
      5089.92       1.2173568     0.012338274
      5095.01       1.2210780     0.012322523
      5100.11       1.2297066     0.012309586
      5105.21       1.2446780     0.012294553
      5110.31       1.2618077     0.012283191
      5115.42       1.2741044     0.012268706
      5120.54       1.2933798     0.012171061
      5125.66       1.3125362     0.012245450
      5130.79       1.3263153     0.012148417
      5135.92       1.3499789     0.012140064
      5141.05       1.3652791     0.012128127
      5146.20       1.3923330     0.012120075
      5151.34       1.4172842     0.012110226
      5156.49       1.4329086     0.012102534
      5161.65       1.4664009     0.012097331
      5166.81       1.4835437     0.012087486
      5171.98       1.5050124     0.012082425
      5177.15       1.5162746     0.011993551
      5182.33       1.5363374     0.012070170
      5187.51       1.5484976     0.011983847
      5192.70       1.5520475     0.011979119
      5197.89       1.5665766     0.012057635
      5203.09       1.5802667     0.011972305
      5208.29       1.5854226     0.011969923
      5213.50       1.5910222     0.011968318
      5218.72       1.5962325     0.011965715
      5223.93       1.6081937     0.011965164
      5229.16       1.6090097     0.011964394
      5234.39       1.6104431     0.011963821
      5239.62       1.6153079     0.011965206
      5244.86       1.6262171     0.011965438
      5250.11       1.6298684     0.011966622
      5255.36       1.6226608     0.011886096
      5260.61       1.6288727     0.011890930
      5265.87       1.6234158     0.011973954
      5271.14       1.6252628     0.011894570
      5276.41       1.6324582     0.011900699
      5281.69       1.6321452     0.011985371
      5286.97       1.6304810     0.011907155
      5292.26       1.6250787     0.011914453
      5297.55       1.6199529     0.011923448
      5302.85       1.6138839     0.011923681
      5308.15       1.5996759     0.011932243
      5313.46       1.5921447     0.011942206
      5318.77       1.5846844     0.011867802
      5324.09       1.5756825     0.011954059
      5329.42       1.5642090     0.011964976
      5334.75       1.5597915     0.011892891
      5340.08       1.5587193     0.011903224
      5345.42       1.5580622     0.011991532
      5350.77       1.5627862     0.011921932
      5356.12       1.5553870     0.011933093
      5361.48       1.5619135     0.011945494
      5366.83       1.5670771     0.011955557
      5372.20       1.5772749     0.011967300
      5377.58       1.5889335     0.011980120
      5382.95       1.5869579     0.011994321
      5388.34       1.5728160     0.011926342
      5393.72       1.5594494     0.012019143
      5399.12       1.5355969     0.012033756
      5404.52       1.5297777     0.012049288
      5409.92       1.5105259     0.011982207
      5415.33       1.4951692     0.011999675
      5420.75       1.4776316     0.012093408
      5426.17       1.4638157     0.012110417
      5431.60       1.4536640     0.012043864
      5437.03       1.4350474     0.012062350
      5442.47       1.4188821     0.012081939
      5447.91       1.4154796     0.012102133
      5453.36       1.4155530     0.012111506
      5458.81       1.4163724     0.012131003
      5464.27       1.4307873     0.012151013
      5469.73       1.4330117     0.012172285
      5475.20       1.4310699     0.012110398
      5480.68       1.4409032     0.012130511
      5486.16       1.4407327     0.012151497
      5491.65       1.4219296     0.012173252
      5497.14       1.4203610     0.012270412
      5502.64       1.4147577     0.012210684
      5508.14       1.4283341     0.012232336
      5513.65       1.4185951     0.012254523
      5519.16       1.4171589     0.012277476
      5524.68       1.4120246     0.012300890
      5530.20       1.3953952     0.012240549
      5535.73       1.3824066     0.012264906
      5541.27       1.3608889     0.012289511
      5546.81       1.3517474     0.012389788
      5552.36       1.3462557     0.012414313
      5557.91       1.3361282     0.012438903
      5563.47       1.3161511     0.012378822
      5569.04       1.2992323     0.012404297
      5574.60       1.2812500     0.012429978
      5580.18       1.2617802     0.012456240
      5585.76       1.2516143     0.012482883
      5591.35       1.2393144     0.012509691
      5596.94       1.2124206     0.012537042
      5602.53       1.2070039     0.012479196
      5608.14       1.1907616     0.012505773
      5613.75       1.1804183     0.012532754
      5619.36       1.1625164     0.012560102
      5624.98       1.1513072     0.012587701
      5630.60       1.1394341     0.012615589
      5636.23       1.1248840     0.012719094
      5641.87       1.1184750     0.012747522
      5647.51       1.1140699     0.012776364
      5653.16       1.1146061     0.012722022
      5658.82       1.1051598     0.012750423
      5664.47       1.1039798     0.012779411
      5670.14       1.0982195     0.012809192
      5675.81       1.1196162     0.012839892
      5681.48       1.1250103     0.012870780
      5687.17       1.1452340     0.012901133
      5692.85       1.1670860     0.012932131
      5698.55       1.1983656     0.012965148
      5704.25       1.1943972     0.013002005
      5709.95       1.2098962     0.012969010
      5715.66       1.2090185     0.013010879
      5721.38       1.2092148     0.013053436
      5727.10       1.2100358     0.013097955
      5732.83       1.2067013     0.013142647
      5738.56       1.2124616     0.013183455
      5744.30       1.2137252     0.013131092
      5750.04       1.1979529     0.013166337
      5755.79       1.1917293     0.013199599
      5761.55       1.1769177     0.013230813
      5767.31       1.1589593     0.013259789
      5773.08       1.1504507     0.013287812
      5778.85       1.1444533     0.013316885
      5784.63       1.1489361     0.013346683
      5790.41       1.1423620     0.013375692
      5796.21       1.1615719     0.013403110
      5802.00       1.1777947     0.013428966
      5807.81       1.1881730     0.013372302
      5813.61       1.1900857     0.013396338
      5819.43       1.2011482     0.013420423
      5825.25       1.1984753     0.013442300
      5831.07       1.1977778     0.013463560
      5836.90       1.2048084     0.013576364
      5842.74       1.2031285     0.013602918
      5848.58       1.1992078     0.013627860
      5854.43       1.1789130     0.013652440
      5860.29       1.1536222     0.013601032
      5866.15       1.1470821     0.013628520
      5872.01       1.1239264     0.013657011
      5877.89       1.1102077     0.013686035
      5883.76       1.0950450     0.013715513
      5889.65       1.0762002     0.013745961
      5895.54       1.0686361     0.013776606
      5901.43       1.0554361     0.013729458
      5907.34       1.0560606     0.013760119
      5913.24       1.0608798     0.013791258
      5919.16       1.0545983     0.013822289
      5925.08       1.0685615     0.013853695
      5931.00       1.0640202     0.013971508
      5936.93       1.0596591     0.013923000
      5942.87       1.0615853     0.013953248
      5948.81       1.0664377     0.013983850
      5954.76       1.0592825     0.014014556
      5960.72       1.0540235     0.014045157
      5966.68       1.0464018     0.013994548
      5972.64       1.0542818     0.014023926
      5978.62       1.0638513     0.014143662
      5984.60       1.0604796     0.014173451
      5990.58       1.0656128     0.014203544
      5996.57       1.0594543     0.014152427
      6002.57       1.0559292     0.014180653
      6008.57       1.0546864     0.014209305
      6014.58       1.0391783     0.014238303
      6020.60       1.0289069     0.014278968
      6026.62       1.0175097     0.014306149
      6032.65       1.0088705     0.014333798
      6038.68       1.0043825     0.014361706
      6044.72      0.98676991     0.014313244
      6050.76      0.97271641     0.014346126
      6056.81      0.95777811     0.014469228
      6062.87      0.94886603     0.014495957
      6068.93      0.94073633     0.014443581
      6075.00      0.92740799     0.014479170
      6081.08      0.92220891     0.014522495
      6087.16      0.92295814     0.014585820
      6093.25      0.91415535     0.014642043
      6099.34      0.90586606     0.014701712
      6105.44      0.88397210     0.014683532
      6111.54      0.88652227     0.014737024
      6117.66      0.88297435     0.014880282
      6123.78      0.87206156     0.014919663
      6129.90      0.86088980     0.014861145
      6136.03      0.85072770     0.014876072
      6142.17      0.84400504     0.014973866
      6148.31      0.83834525     0.014883899
      6154.46      0.83032772     0.014878423
      6160.61      0.82578318     0.014876922
      6166.77      0.82962247     0.014890633
      6172.94      0.83431667     0.014901564
      6179.11      0.83391743     0.014907418
      6185.29      0.83947696     0.014831535
      6191.48      0.84345935     0.014930611
      6197.67      0.87561298     0.014859447
      6203.87      0.88165079     0.014872505
      6210.07      0.90236153     0.014974472
      6216.28      0.91613190     0.014905804
      6222.50      0.92166412     0.014921263
      6228.72      0.93409407     0.014938820
      6234.95      0.94188020     0.014959904
      6241.19      0.94879559     0.014978642
      6247.42      0.95323077     0.014913473
      6253.67      0.95093731     0.015020744
      6259.93      0.95526599     0.015040285
      6266.19      0.95956748     0.014976684
      6272.46      0.96910049     0.015090019
      6278.73      0.97970619     0.015035674
      6285.01      0.98969080     0.015063962
      6291.29      0.99811076     0.015101352
      6297.58       1.0022593     0.015123350
      6303.88       1.0097145     0.015146278
      6310.19       1.0295771     0.015176231
      6316.50       1.0471829     0.015193953
      6322.81       1.0537218     0.015215814
      6329.14       1.0682471     0.015224177
      6335.47       1.0661904     0.015149117
      6341.80       1.0641960     0.015242119
      6348.14       1.0606311     0.015164372
      6354.49       1.0673871     0.015172382
      6360.85       1.0672609     0.015183457
      6367.21       1.0619608     0.015192742
      6373.57       1.0532167     0.015202216
      6379.95       1.0519757     0.015206340
      6386.33       1.0481603     0.015123890
      6392.72       1.0462003     0.015212025
      6399.11       1.0421082     0.015129673
      6405.51       1.0277846     0.015219366
      6411.92       1.0165116     0.015134646
      6418.32       1.0050288     0.015218426
      6424.74      0.99500370     0.015133874
      6431.17      0.99431820     0.015133907
      6437.60      0.99028540     0.015139468
      6444.04      0.98621671     0.015140504
      6450.48      0.98754335     0.015145805
      6456.94      0.98782290     0.015146480
      6463.39      0.99237502     0.015151006
      6469.85      0.99477565     0.015068953
      6476.33       1.0063161     0.015153200
      6482.80       1.0129373     0.015070124
      6489.28       1.0203021     0.015153230
      6495.77       1.0287569     0.015069512
      6502.27       1.0320147     0.015151026
      6508.77       1.0401925     0.015066141
      6515.28       1.0450773     0.015063535
      6521.80       1.0478296     0.015059916
      6528.32       1.0494073     0.015055276
      6534.85       1.0591102     0.015050824
      6541.38       1.0620489     0.015044027
      6547.92       1.0694977     0.014955064
      6554.47       1.0662040     0.015029988
      6561.03       1.0662696     0.014938881
      6567.59       1.0520554     0.014931375
      6574.16       1.0449987     0.014919795
      6580.73       1.0358771     0.014909785
      6587.31       1.0201009     0.014897779
      6593.90       1.0056895     0.014885278
      6600.50       1.0051959     0.014873231
      6607.10      0.99475662     0.014858084
      6613.70      0.97661408     0.014848676
      6620.32      0.95610755     0.014789819
      6626.94      0.94207125     0.014900473
      6633.57      0.94185646     0.014826233
      6640.20      0.93453778     0.014785905
      6646.84      0.92572547     0.014877682
      6653.49      0.92987380     0.014875246
      6660.14      0.93594322     0.015009915
      6666.80      0.92816055     0.015104807
      6673.47      0.92192587     0.015370964
      6680.14      0.90160119     0.015602263
      6686.82      0.88661814     0.015712564
      6693.51      0.85674004     0.015951157
      6700.20      0.83378150     0.015945912
      6706.90      0.81536602     0.015953955
      6713.61      0.80147178     0.015867649
      6720.32      0.79892349     0.015732892
      6727.05      0.80635720     0.015517931
      6733.77      0.79808234     0.015281603
      6740.51      0.79137024     0.015010111
      6747.25      0.79631517     0.014925730
      6754.00      0.81409551     0.014807539
      6760.75      0.82032452     0.014598404
      6767.51      0.82606502     0.014446354
      6774.28      0.83416026     0.014422685
      6781.05      0.85002818     0.014263153
      6787.84      0.85117155     0.014172902
      6794.62      0.83459557     0.014092534
      6801.42      0.82350003     0.014036707
      6808.22      0.80986680     0.013974221
      6815.03      0.78936040     0.013918708
      6821.85      0.77912694     0.013866186
      6828.67      0.77532525     0.013743045
      6835.50      0.78106994     0.013682718
      6842.33      0.78440080     0.013551138
      6849.17      0.78272525     0.013341944
      6856.02      0.77855926     0.013135849
      6862.88      0.78402618     0.013005399
      6869.74      0.77994789     0.012756245
      6876.61      0.77662215     0.012568660
      6883.49      0.77044128     0.012448740
      6890.37      0.76782436     0.012268066
      6897.27      0.76592264     0.012097146
      6904.16      0.77271300     0.011941958
      6911.07      0.77954334     0.011846873
      6917.98      0.78237476     0.011694412
      6924.89      0.78053731     0.011540254
      6931.82      0.77702068     0.011349368
      6938.75      0.77799260     0.011264532
      6945.69      0.77136368     0.011156401
      6952.64      0.76458839     0.011082527
      6959.59      0.77112695     0.011022018
      6966.55      0.77057052     0.010951123
      6973.52      0.76867458     0.010868307
      6980.49      0.77214897     0.010821830
      6987.47      0.77218732     0.010727179
      6994.46      0.77040926     0.010622377
      7001.46      0.76191008     0.010507815
      7008.46      0.74907086     0.010351187
      7015.46      0.73581420     0.010223438
      7022.48      0.73018968     0.010128876
      7029.51      0.72932022    0.0099810671
      7036.53      0.72546716    0.0098286127
      7043.57      0.71926143    0.0096737162
      7050.62      0.74163005    0.0095168554
      7057.66      0.73369189    0.0093572420
      7064.72      0.72825097    0.0091943515
      7071.79      0.73076724    0.0090282107
      7078.86      0.73641345    0.0088617219
      7085.94      0.74368658    0.0086964506
      7093.03      0.74288229    0.0085323026
      7100.12      0.74067597    0.0084449245
      7107.22      0.74266213    0.0085211442
      7114.33      0.74294021    0.0086159927
      7121.44      0.74676495    0.0087335485
      7128.56      0.74877110    0.0088933755
      7135.69      0.75267836    0.0090914682
      7142.83      0.75593915    0.0093477495
      7149.97      0.76195100    0.0096856562
      7157.12      0.76311094     0.010142576
      7164.28      0.76286274     0.010767186
      7171.44      0.76843019     0.011608925
      7178.62      0.77316218     0.012716366
      7185.80      0.77375388     0.014142469
      7192.98      0.77155919     0.015957341
      7200.17      0.77049457     0.018261083
      7207.38      0.76716580     0.021174682
      7214.58      0.76256738     0.024832682
