# starting wavelength =        3470.9900
# ending wavelength =        7370.1200
# O2 telluric scale =        0
# O2 telluric shift =        0
# H2O telluric scale =        0
# H2O telluric shift =        0
      3474.45       1.2435701     0.077723081
      3477.92       1.2556347     0.066179905
      3481.40       1.2706523     0.055306207
      3484.88       1.2845223     0.048501805
      3488.37       1.2876335     0.043187487
      3491.86       1.2870297     0.039036672
      3495.35       1.2878483     0.035827331
      3498.84       1.2904188     0.033795851
      3502.34       1.2980692     0.031748859
      3505.84       1.2948387     0.030148244
      3509.35       1.2782772     0.028890637
      3512.86       1.2765157     0.027658026
      3516.37       1.2749847     0.026873647
      3519.89       1.2805097     0.026228143
      3523.41       1.2794306     0.025686146
      3526.93       1.2799483     0.025113744
      3530.46       1.2809021     0.024695440
      3533.99       1.2791095     0.024333792
      3537.53       1.2739343     0.024253522
      3541.06       1.2554105     0.024024180
      3544.60       1.2419117     0.024067402
      3548.15       1.2338178     0.024111835
      3551.70       1.2321633     0.024037028
      3555.25       1.2331359     0.023925571
      3558.80       1.2249042     0.023850182
      3562.36       1.2109156     0.023894405
      3565.92       1.2107081     0.023942664
      3569.49       1.2117790     0.023710002
      3573.06       1.2140989     0.023756847
      3576.64       1.2068019     0.023683070
      3580.21       1.2095621     0.023727895
      3583.79       1.2242552     0.023622486
      3587.38       1.2252343     0.023543706
      3590.96       1.2152545     0.023595211
      3594.55       1.2203192     0.023644896
      3598.15       1.2255148     0.023411101
      3601.75       1.2433491     0.023461104
      3605.35       1.2467121     0.023514125
      3608.96       1.2422569     0.023278555
      3612.56       1.2423388     0.023330410
      3616.18       1.2534824     0.023385004
      3619.79       1.2612746     0.023307331
      3623.41       1.2659370     0.023202598
      3627.04       1.2612529     0.023256665
      3630.66       1.2568620     0.023183517
      3634.29       1.2688015     0.023074473
      3637.93       1.2693742     0.023133193
      3641.57       1.2649180     0.023054594
      3645.21       1.2671727     0.023115962
      3648.86       1.2693449     0.023007750
      3652.50       1.2483063     0.022934204
      3656.16       1.2308456     0.022991200
      3659.81       1.2338365     0.022888603
      3663.47       1.2236344     0.022810171
      3667.14       1.2077611     0.022874327
      3670.80       1.1812794     0.022766954
      3674.48       1.1616629     0.022832155
      3678.15       1.1515385     0.022753752
      3681.83       1.1346376     0.022822340
      3685.51       1.1299425     0.022714514
      3689.20       1.1206322     0.022642303
      3692.88       1.1164445     0.022704681
      3696.58       1.1244662     0.022601948
      3700.27       1.1254579     0.022669711
      3703.98       1.1345457     0.022599137
      3707.68       1.1307570     0.022490056
      3711.39       1.1459676     0.022559937
      3715.10       1.1500007     0.022633614
      3718.81       1.1715355     0.022380100
      3722.53       1.1763880     0.022454196
      3726.26       1.1736562     0.022526506
      3729.98       1.1815617     0.022426344
      3733.71       1.1860822     0.022346801
      3737.45       1.1864138     0.022428331
      3741.18       1.1888188     0.022320886
      3744.93       1.2032341     0.022399847
      3748.67       1.2049700     0.022323068
      3752.42       1.1852060     0.022219792
      3756.17       1.1882933     0.022302984
      3759.93       1.1895186     0.022197959
      3763.69       1.1837666     0.022284059
      3767.45       1.1770315     0.022204225
      3771.22       1.1721779     0.022103362
      3774.99       1.1675483     0.022188790
      3778.77       1.1736790     0.022275831
      3782.54       1.1762272     0.022177968
      3786.33       1.2043155     0.022096061
      3790.11       1.2479771     0.022193621
      3793.90       1.2583557     0.022085818
      3797.70       1.2476827     0.022179129
      3801.50       1.2392504     0.022081858
      3805.30       1.2330756     0.021999139
      3809.10       1.2194419     0.022101443
      3812.91       1.1904938     0.021994718
      3816.73       1.1791619     0.022092592
      3820.54       1.1813137     0.022198791
      3824.36       1.1761210     0.022093572
      3828.19       1.1680701     0.022022892
      3832.02       1.1667145     0.021915281
      3835.85       1.1535813     0.022018206
      3839.68       1.1552088     0.022133018
      3843.52       1.1641638     0.022026506
      3847.37       1.1744001     0.022138678
      3851.22       1.1803913     0.022043464
      3855.07       1.1804990     0.021956770
      3858.92       1.1963273     0.022082907
      3862.78       1.2211121     0.021974351
      3866.64       1.2473514     0.021871226
      3870.51       1.2587725     0.021799747
      3874.38       1.2277836     0.021692971
      3878.26       1.2050908     0.021592010
      3882.13       1.2047785     0.021519575
      3886.02       1.2013062     0.021415031
      3889.90       1.2128796     0.021126679
      3893.79       1.2230819     0.021243506
      3897.69       1.2636584     0.021140653
      3901.59       1.2692322     0.020856003
      3905.49       1.2739320     0.020971445
      3909.39       1.2975593     0.020870095
      3913.30       1.2997322     0.020589094
      3917.22       1.3104304     0.020497384
      3921.13       1.3065553     0.020602890
      3925.06       1.3184307     0.020324824
      3928.98       1.3260462     0.020233347
      3932.91       1.3305975     0.020338498
      3936.84       1.3168525     0.020063077
      3940.78       1.3003287     0.019972303
      3944.72       1.2783238     0.019884655
      3948.67       1.2651350     0.019805242
      3952.61       1.2431926     0.019713829
      3956.57       1.2412143     0.019626821
      3960.52       1.2415106     0.019550155
      3964.48       1.2483823     0.019459486
      3968.45       1.2467009     0.019371385
      3972.42       1.2519937     0.019114033
      3976.39       1.2520591     0.019207966
      3980.37       1.2699171     0.019119765
      3984.35       1.2801279     0.018869546
      3988.33       1.2853325     0.018778413
      3992.32       1.2965822     0.018872204
      3996.31       1.3034914     0.018629245
      4000.31       1.3299081     0.018538318
      4004.31       1.3464373     0.018449204
      4008.31       1.3380086     0.018541886
      4012.32       1.3340772     0.018301802
      4016.33       1.3284283     0.018212688
      4020.35       1.3224731     0.018125923
      4024.37       1.3216089     0.017887935
      4028.40       1.3201967     0.017981003
      4032.42       1.3293957     0.017893302
      4036.46       1.3297024     0.017808510
      4040.50       1.3255485     0.017574041
      4044.54       1.3118691     0.017666802
      4048.58       1.3149622     0.017580097
      4052.63       1.3138261     0.017496151
      4056.68       1.3116923     0.017265749
      4060.74       1.3009569     0.017186242
      4064.80       1.2835046     0.017273222
      4068.86       1.2586333     0.017189889
      4072.93       1.2428407     0.016963228
      4077.01       1.2266527     0.016884000
      4081.08       1.2044567     0.016807031
      4085.17       1.1911529     0.016731203
      4089.25       1.1865822     0.016666511
      4093.34       1.1740090     0.016587830
      4097.43       1.1583365     0.016510914
      4101.53       1.1518290     0.016435634
      4105.63       1.1602999     0.016361324
      4109.74       1.1675716     0.016146445
      4113.85       1.1675465     0.016221221
      4117.96       1.1744039     0.016146141
      4122.08       1.1824492     0.016071899
      4126.20       1.1815833     0.015866526
      4130.33       1.1826245     0.015790751
      4134.46       1.1821187     0.015716008
      4138.59       1.1778633     0.015789670
      4142.73       1.1748804     0.015716498
      4146.88       1.1747824     0.015518665
      4151.02       1.1838110     0.015444173
      4155.18       1.1768613     0.015370869
      4159.33       1.1585768     0.015298583
      4163.49       1.1484012     0.015227075
      4167.65       1.1406466     0.015156740
      4171.82       1.1327499     0.015107776
      4175.99       1.1324624     0.015035459
      4180.17       1.1352612     0.014964069
      4184.35       1.1416331     0.014893673
      4188.54       1.1425661     0.014824113
      4192.72       1.1498596     0.014634410
      4196.92       1.1563552     0.014566784
      4201.11       1.1652261     0.014500140
      4205.31       1.1638474     0.014434053
      4209.52       1.1648373     0.014502148
      4213.73       1.1613790     0.014434162
      4217.94       1.1625740     0.014366866
      4222.16       1.1651374     0.014183151
      4226.38       1.1655617     0.014117677
      4230.61       1.1770639     0.014052680
      4234.84       1.1620092     0.013988438
      4239.08       1.1488267     0.013924725
      4243.32       1.1492214     0.013861507
      4247.56       1.1502761     0.013798798
      4251.81       1.1428534     0.013625250
      4256.06       1.1424973     0.013562275
      4260.32       1.1346324     0.013499992
      4264.58       1.1267227     0.013560072
      4268.84       1.1219824     0.013498087
      4273.11       1.1256826     0.013436747
      4277.38       1.1236638     0.013375732
      4281.66       1.1267545     0.013315055
      4285.94       1.1159539     0.013254965
      4290.23       1.1056068     0.013195202
      4294.52       1.1035080     0.013033311
      4298.81       1.0964584     0.012973620
      4303.11       1.0929852     0.012914205
      4307.42       1.0949547     0.012855428
      4311.72       1.0972077     0.012797269
      4316.04       1.0900245     0.012739205
      4320.35       1.0890910     0.012682039
      4324.67       1.0872173     0.012624919
      4329.00       1.0864023     0.012568086
      4333.33       1.0770905     0.012511765
      4337.66       1.0766397     0.012455582
      4342.00       1.0637697     0.012400211
      4346.34       1.0556052     0.012344770
      4350.69       1.0441188     0.012192542
      4355.04       1.0456967     0.012138453
      4359.39       1.0441078     0.012084542
      4363.75       1.0402280     0.012031339
      4368.12       1.0417147     0.011977985
      4372.48       1.0488469     0.011925261
      4376.86       1.0401990     0.011872825
      4381.23       1.0316424     0.011820586
      4385.61       1.0279503     0.011769021
      4390.00       1.0273750     0.011717288
      4394.39       1.0220103     0.011666181
      4398.79       1.0231579     0.011615360
      4403.18       1.0263716     0.011564733
      4407.59       1.0329980     0.011514770
      4412.00       1.0395085     0.011464655
      4416.41       1.0381168     0.011415162
      4420.82       1.0449166     0.011365965
      4425.25       1.0454008     0.011316953
      4429.67       1.0460403     0.011170757
      4434.10       1.0431044     0.011122849
      4438.54       1.0493058     0.011075397
      4442.97       1.0468801     0.011028388
      4447.42       1.0415424     0.010981465
      4451.86       1.0336428     0.010935177
      4456.32       1.0298175     0.010889001
      4460.77       1.0108683     0.010843268
      4465.24       1.0076914     0.010798033
      4469.70       1.0000381     0.010752888
      4474.17       1.0040393     0.010708398
      4478.65      0.99996322     0.010664083
      4483.12       1.0063401     0.010620217
      4487.61       1.0167858     0.010483025
      4492.09       1.0217424     0.010439345
      4496.59       1.0299820     0.010396079
      4501.08       1.0412265     0.010353187
      4505.58       1.0577823     0.010310554
      4510.09       1.0640137     0.010268390
      4514.60       1.0674002     0.010226655
      4519.12       1.0723858     0.010264335
      4523.63       1.0786532     0.010223225
      4528.16       1.0827839     0.010096007
      4532.69       1.0862768     0.010054707
      4537.22       1.0884682     0.010013801
      4541.76       1.0969952    0.0099732237
      4546.30       1.1040502    0.0099331536
      4550.85       1.1153400    0.0098935376
      4555.40       1.1211442    0.0098544139
      4559.95       1.1305828    0.0097335644
      4564.51       1.1411337    0.0096957655
      4569.08       1.1521756    0.0096583358
      4573.65       1.1553586    0.0096215539
      4578.22       1.1613666    0.0096556494
      4582.80       1.1742713    0.0096178201
      4587.38       1.1856892    0.0095805199
      4591.97       1.1904235    0.0094641394
      4596.56       1.1915961    0.0094281602
      4601.16       1.1952467    0.0093928588
      4605.76       1.2024829    0.0093581241
      4610.37       1.2055940    0.0093239092
      4614.98       1.2025849    0.0092094758
      4619.59       1.1976310    0.0092439408
      4624.21       1.1923880    0.0092096727
      4628.84       1.1920856    0.0091759294
      4633.47       1.1873854    0.0091427634
      4638.10       1.1853504    0.0090335797
      4642.74       1.1814039    0.0089999822
      4647.38       1.1771654    0.0089671285
      4652.03       1.1765551    0.0090023259
      4656.68       1.1670456    0.0089704140
      4661.34       1.1641885    0.0088651981
      4666.00       1.1654522    0.0088327087
      4670.67       1.1611126    0.0088007165
      4675.33       1.1559560    0.0087697447
      4680.01       1.1490826    0.0087393196
      4684.69       1.1428896    0.0087035654
      4689.38       1.1366356    0.0086724382
      4694.07       1.1308083    0.0086419248
      4698.76       1.1179456    0.0086124845
      4703.46       1.1017524    0.0085146278
      4708.16       1.0930767    0.0085490833
      4712.87       1.0871769    0.0085194708
      4717.58       1.0827204    0.0084905419
      4722.30       1.0801986    0.0083944567
      4727.03       1.0756157    0.0083675271
      4731.75       1.0742994    0.0083411675
      4736.48       1.0668401    0.0083731556
      4741.22       1.0674871    0.0082792857
      4745.96       1.0648978    0.0082530928
      4750.71       1.0660931    0.0082280024
      4755.46       1.0659270    0.0081946741
      4760.22       1.0694701    0.0081686820
      4764.97       1.0705747    0.0081436571
      4769.74       1.0693000    0.0081196050
      4774.51       1.0637015    0.0080278897
      4779.29       1.0610895    0.0080625933
      4784.07       1.0592948    0.0080388102
      4788.85       1.0487161    0.0079500840
      4793.64       1.0361191    0.0079258722
      4798.43       1.0325557    0.0079611055
      4803.23       1.0233837    0.0078750581
      4808.03       1.0117654    0.0078511540
      4812.84       1.0061837    0.0078281108
      4817.66      0.98344646    0.0078026149
      4822.48      0.97166949    0.0077790772
      4827.30      0.95549032    0.0077564588
      4832.12      0.93663667    0.0076753325
      4836.96      0.92460920    0.0077095189
      4841.79      0.91981074    0.0076873775
      4846.63      0.91554173    0.0076073891
      4851.48      0.92032908    0.0076423586
      4856.33      0.92212059    0.0076207574
      4861.19      0.93069565    0.0075419574
      4866.05      0.93084772    0.0075229789
      4870.92      0.93388281    0.0075565135
      4875.79      0.94125122    0.0074789654
      4880.66      0.94299596    0.0074606939
      4885.55      0.94450042    0.0074946083
      4890.43      0.95126585    0.0074183678
      4895.32      0.95068482    0.0074008781
      4900.22      0.94908023    0.0073781272
      4905.12      0.95370196    0.0073601408
      4910.02      0.94990364    0.0073435253
      4914.94      0.95821865    0.0073213539
      4919.85      0.95852816    0.0073042870
      4924.77      0.96452033    0.0072315317
      4929.70      0.97378430    0.0072668891
      4934.62      0.98657772    0.0072508262
      4939.56       1.0019645    0.0071786598
      4944.50       1.0194758    0.0072147588
      4949.44       1.0402533    0.0071446340
      4954.39       1.0541921    0.0071280786
      4959.35       1.0751193    0.0071650335
      4964.31       1.0940715    0.0070951955
      4969.27       1.1107394    0.0070798229
      4974.24       1.1293595    0.0070636514
      4979.22       1.1373441    0.0070481073
      4984.20       1.1394965    0.0069821775
      4989.18       1.1433486    0.0070176517
      4994.17       1.1424582    0.0069519402
      4999.16       1.1401316    0.0069884987
      5004.16       1.1315445    0.0069740907
      5009.17       1.1188758    0.0069102594
      5014.18       1.1049552    0.0069460059
      5019.19       1.0918467    0.0068822228
      5024.21       1.0670920    0.0069189633
      5029.23       1.0465911    0.0068555281
      5034.26       1.0233522    0.0068444457
      5039.30      0.99640469    0.0068297019
      5044.34      0.97741713    0.0068187236
      5049.39      0.95555138    0.0068049331
      5054.43      0.94824432    0.0067939992
      5059.49      0.93547636    0.0067330000
      5064.55      0.92344578    0.0067704957
      5069.61      0.92009589    0.0067103818
      5074.68      0.91352423    0.0067479921
      5079.76      0.91449573    0.0066886784
      5084.84      0.92297867    0.0067263386
      5089.92      0.92746566    0.0066678984
      5095.01      0.93128649    0.0066576423
      5100.11      0.94097988    0.0066478044
      5105.21      0.95043498    0.0066379675
      5110.31      0.95807577    0.0066287226
      5115.42      0.96623982    0.0066189979
      5120.54      0.97492411    0.0066102581
      5125.66      0.97896991    0.0066010308
      5130.79      0.98410456    0.0065927796
      5135.92      0.98518172    0.0065840043
      5141.05      0.99102839    0.0065762356
      5146.20      0.99173169    0.0065215854
      5151.34      0.99503844    0.0065602363
      5156.49      0.99430750    0.0065062972
      5161.65      0.99260023    0.0065450936
      5166.81      0.99358654    0.0064918180
      5171.98      0.99593362    0.0065307542
      5177.15       1.0002037    0.0064783009
      5182.33       1.0034293    0.0065171972
      5187.51       1.0046441    0.0064655255
      5192.70      0.99988091    0.0064590421
      5197.89       1.0005345    0.0064536651
      5203.09      0.99731233    0.0064472373
      5208.29       1.0015572    0.0064427249
      5213.50       1.0103680    0.0064364062
      5218.72       1.0175676    0.0063862153
      5223.93       1.0170321    0.0064263410
      5229.16       1.0208671    0.0063762269
      5234.39       1.0251137    0.0064172150
      5239.62       1.0314569    0.0063671135
      5244.86       1.0292024    0.0063637287
      5250.11       1.0323212    0.0064042176
      5255.36       1.0323340    0.0063553791
      5260.61       1.0373386    0.0063531909
      5265.87       1.0387051    0.0063479451
      5271.14       1.0479335    0.0063456376
      5276.41       1.0551439    0.0063414478
      5281.69       1.0587323    0.0063389749
      5286.97       1.0633492    0.0062932432
      5292.26       1.0609063    0.0063332558
      5297.55       1.0698752    0.0063317272
      5302.85       1.0751784    0.0062859943
      5308.15       1.0881735    0.0063268338
      5313.46       1.0957803    0.0062824714
      5318.77       1.0994802    0.0062804955
      5324.09       1.1043850    0.0063219645
      5329.42       1.1087216    0.0062777897
      5334.75       1.1146206    0.0062765306
      5340.08       1.1171646    0.0062762040
      5345.42       1.1130249    0.0062746700
      5350.77       1.1130030    0.0062741112
      5356.12       1.1138084    0.0062308239
      5361.48       1.1191500    0.0062731135
      5366.83       1.1176321    0.0062730740
      5372.20       1.1149937    0.0062302663
      5377.58       1.1136664    0.0062730665
      5382.95       1.1086211    0.0062297304
      5388.34       1.1026450    0.0062309696
      5393.72       1.0886297    0.0062330097
      5399.12       1.0828118    0.0062314293
      5404.52       1.0681307    0.0062329777
      5409.92       1.0580731    0.0062353009
      5415.33       1.0425990    0.0062345149
      5420.75       1.0256190    0.0062363086
      5426.17       1.0127703    0.0062388280
      5431.60       1.0005459    0.0061984780
      5437.03      0.98829444    0.0062409475
      5442.47      0.97842344    0.0062436539
      5447.91      0.97389515    0.0062042947
      5453.36      0.97784113    0.0062065649
      5458.81      0.98923120    0.0062093732
      5464.27       1.0020074    0.0062530754
      5469.73       1.0179155    0.0062137017
      5475.20       1.0438711    0.0062166794
      5480.68       1.0753822    0.0062201434
      5486.16       1.0992170    0.0062224716
      5491.65       1.1215301    0.0062254663
      5497.14       1.1484540    0.0062289901
      5502.64       1.1741194    0.0062329583
      5508.14       1.1892187    0.0061945811
      5513.65       1.2055930    0.0062393062
      5519.16       1.2094269    0.0062432796
      5524.68       1.2104474    0.0062047566
      5530.20       1.2042581    0.0062094298
      5535.73       1.1898435    0.0062145143
      5541.27       1.1685178    0.0062593611
      5546.81       1.1399126    0.0062209135
      5552.36       1.1146237    0.0062258617
      5557.91       1.0863157    0.0062312127
      5563.47       1.0587979    0.0062369187
      5569.04       1.0344826    0.0062001211
      5574.60       1.0134375    0.0062442060
      5580.18      0.99332791    0.0062496496
      5585.76      0.97524590    0.0062554490
      5591.35      0.95623897    0.0062614960
      5596.94      0.94729087    0.0062252708
      5602.53      0.94225033    0.0062308061
      5608.14      0.93922317    0.0062366292
      5613.75      0.93746240    0.0062426600
      5619.36      0.93594016    0.0062881127
      5624.98      0.93144733    0.0062529609
      5630.60      0.92983775    0.0062588232
      5636.23      0.92225996    0.0062648624
      5641.87      0.91217863    0.0062711484
      5647.51      0.90183175    0.0062775952
      5653.16      0.88678927    0.0062420271
      5658.82      0.87284485    0.0062487622
      5664.47      0.85422831    0.0062557043
      5670.14      0.83627751    0.0063019669
      5675.81      0.81567149    0.0063085712
      5681.48      0.79109424    0.0063153449
      5687.17      0.76773256    0.0062796526
      5692.85      0.74028236    0.0062866569
      5698.55      0.71639635    0.0062937511
      5704.25      0.70186523    0.0063009917
      5709.95      0.68600237    0.0063082824
      5715.66      0.67420438    0.0063157125
      5721.38      0.66382532    0.0063232731
      5727.10      0.65434255    0.0062890186
      5732.83      0.65522151    0.0062961542
      5738.56      0.65584062    0.0063034157
      5744.30      0.65304401    0.0063107881
      5750.04      0.65707858    0.0063182629
      5755.79      0.66494228    0.0063257925
      5761.55      0.67259373    0.0063333278
      5767.31      0.67795822    0.0063409312
      5773.08      0.69107663    0.0063485527
      5778.85      0.70336930    0.0063563093
      5784.63      0.71237498    0.0063223340
      5790.41      0.72263413    0.0063306340
      5796.21      0.74301148    0.0063392802
      5802.00      0.75550094    0.0063477626
      5807.81      0.77559960    0.0063560759
      5813.61      0.80530804    0.0063647371
      5819.43      0.82493206    0.0063745115
      5825.25      0.86136050    0.0063862643
      5831.07      0.90167691    0.0063996193
      5836.90      0.92818259    0.0064132092
      5842.74      0.96029401    0.0064270227
      5848.58      0.98461810    0.0064417922
      5854.43       1.0042996    0.0064566345
      5860.29       1.0191251    0.0064694557
      5866.15       1.0301814    0.0064801754
      5872.01       1.0345078    0.0064898567
      5877.89       1.0320635    0.0064986423
      5883.76       1.0300196    0.0065063366
      5889.65       1.0249073    0.0065129890
      5895.54       1.0175651    0.0065193221
      5901.43       1.0160267    0.0065260659
      5907.34       1.0127348    0.0065331481
      5913.24       1.0004346    0.0065396308
      5919.16      0.99435102    0.0065061216
      5925.08      0.99564497    0.0065107756
      5931.00      0.99373371    0.0065149135
      5936.93       1.0053989    0.0065192447
      5942.87       1.0074358    0.0065233108
      5948.81       1.0020615    0.0065263446
      5954.76       1.0044487    0.0065293293
      5960.72       1.0036678    0.0065337246
      5966.68      0.99683643    0.0065389846
      5972.64      0.98889172    0.0065434869
      5978.62      0.98115718    0.0065089335
      5984.60      0.96870137    0.0065137590
      5990.58      0.96033278    0.0065194470
      5996.57      0.95750656    0.0065255147
      6002.57      0.95677464    0.0065317860
      6008.57      0.95554801    0.0065383835
      6014.58      0.95168798    0.0065452786
      6020.60      0.94077864    0.0065144352
      6026.62      0.93294408    0.0065213848
      6032.65      0.92195168    0.0065283692
      6038.68      0.90945053    0.0065354842
      6044.72      0.89841863    0.0065827901
      6050.76      0.88381532    0.0065893939
      6056.81      0.87398067    0.0065579587
      6062.87      0.86464216    0.0065646301
      6068.93      0.85886109    0.0065712963
      6075.00      0.85618220    0.0065780305
      6081.08      0.85416132    0.0065847788
      6087.16      0.85568850    0.0065523155
      6093.25      0.85300065    0.0065583822
      6099.34      0.85151493    0.0066056941
      6105.44      0.85428758    0.0066118780
      6111.54      0.85939432    0.0066181559
      6117.66      0.85738283    0.0065856402
      6123.78      0.85565624    0.0065910899
      6129.90      0.85357516    0.0065966667
      6136.03      0.85495225    0.0066023430
      6142.17      0.85404240    0.0066116448
      6148.31      0.85357945    0.0066164428
      6154.46      0.85284674    0.0066213028
      6160.61      0.85305523    0.0066263245
      6166.77      0.85614081    0.0065940679
      6172.94      0.86597566    0.0066001355
      6179.11      0.87861246    0.0066477613
      6185.29      0.90068180    0.0066554331
      6191.48      0.92312768    0.0066223926
      6197.67      0.94821497    0.0066273163
      6203.87      0.96515965    0.0066359832
      6210.07      0.98032758    0.0066515708
      6216.28      0.99972328    0.0066668475
      6222.50       1.0166389    0.0066848573
      6228.72       1.0289983    0.0067044036
      6234.95       1.0408507    0.0066864413
      6241.19       1.0558198    0.0067452369
      6247.42       1.0709733    0.0067590983
      6253.67       1.0853672    0.0067294532
      6259.93       1.0943650    0.0067327192
      6266.19       1.1025360    0.0067725328
      6272.46       1.1037438    0.0067262378
      6278.73       1.1036864    0.0067165783
      6285.01       1.1068210    0.0067064140
      6291.29       1.1068968    0.0066984703
      6297.58       1.1079540    0.0066935898
      6303.88       1.1090138    0.0066907516
      6310.19       1.1038413    0.0066475785
      6316.50       1.0957589    0.0066812022
      6322.81       1.0815274    0.0066779724
      6329.14       1.0689035    0.0066375310
      6335.47       1.0557852    0.0066357970
      6341.80       1.0375535    0.0066340089
      6348.14       1.0196767    0.0066324712
      6354.49       1.0070238    0.0066317637
      6360.85      0.99276552    0.0066312216
      6367.21      0.98192811    0.0066308816
      6373.57      0.97360766    0.0066315023
      6379.95      0.96180905    0.0066319265
      6386.33      0.95154998    0.0066320644
      6392.72      0.93936927    0.0065946857
      6399.11      0.93348407    0.0066342645
      6405.51      0.93052811    0.0066001128
      6411.92      0.92535430    0.0066034675
      6418.32      0.92902017    0.0066473391
      6424.74      0.93020041    0.0066140986
      6431.17      0.93534000    0.0066160801
      6437.60      0.94247512    0.0066204787
      6444.04      0.94529009    0.0066208722
      6450.48      0.94795004    0.0065841153
      6456.94      0.94824648    0.0066198164
      6463.39      0.94836422    0.0065788246
      6469.85      0.94636994    0.0065744519
      6476.33      0.94379183    0.0066051936
      6482.80      0.93939474    0.0065629052
      6489.28      0.93259950    0.0065945454
      6495.77      0.91579342    0.0065529378
      6502.27      0.90776248    0.0065492175
      6508.77      0.90432959    0.0065427637
      6515.28      0.89292351    0.0065369361
      6521.80      0.88130851    0.0065282797
      6528.32      0.86984506    0.0065210241
      6534.85      0.86000342    0.0064762633
      6541.38      0.85325530    0.0065058898
      6547.92      0.84726316    0.0064601086
      6554.47      0.84315775    0.0064870785
      6561.03      0.83954337    0.0064416112
      6567.59      0.83143374    0.0064699968
      6574.16      0.82788258    0.0064257424
      6580.73      0.82407792    0.0064185486
      6587.31      0.81721725    0.0064101439
      6593.90      0.81145233    0.0063673215
      6600.50      0.80538240    0.0063940938
      6607.10      0.80137173    0.0063507013
      6613.70      0.79143732    0.0063766111
      6620.32      0.78418366    0.0063328452
      6626.94      0.79052395    0.0063581170
      6633.57      0.78571536    0.0063141289
      6640.20      0.77014398    0.0063032432
      6646.84      0.75960478    0.0062942127
      6653.49      0.75318279    0.0062824368
      6660.14      0.74341124    0.0062730652
      6666.80      0.73476283    0.0062603757
      6673.47      0.72888731    0.0062144746
      6680.14      0.71833666    0.0062369457
      6686.82      0.71116686    0.0061902729
      6693.51      0.70197749    0.0062122989
      6700.20      0.69692326    0.0061649072
      6706.90      0.68674352    0.0061509919
      6713.61      0.67612520    0.0061711068
      6720.32      0.66857167    0.0061231894
      6727.05      0.66340545    0.0061083908
      6733.77      0.65538038    0.0060940956
      6740.51      0.64717138    0.0060781732
      6747.25      0.64631846    0.0060301364
      6754.00      0.64087202    0.0060489436
      6760.75      0.63592228    0.0060162060
      6767.51      0.63258491    0.0060242048
      6774.28      0.63139358    0.0060400624
      6781.05      0.62829645    0.0059845272
      6787.84      0.62570186    0.0059830945
      6794.62      0.62455158    0.0060017374
      6801.42      0.62552859    0.0060452131
      6808.22      0.62075735    0.0061094772
      6815.03      0.61943526    0.0061708650
      6821.85      0.61774926    0.0062515077
      6828.67      0.61413623    0.0062839800
      6835.50      0.60414593    0.0063356389
      6842.33      0.60257261    0.0063921511
      6849.17      0.60471167    0.0063414317
      6856.02      0.60603192    0.0062927528
      6862.88      0.60586490    0.0062585764
      6869.74      0.60806504    0.0061305922
      6876.61      0.60994589    0.0060248711
      6883.49      0.61316102    0.0059269354
      6890.37      0.61515402    0.0058629446
      6897.27      0.61728407    0.0058032733
      6904.16      0.61896424    0.0057330243
      6911.07      0.62322930    0.0056395439
      6917.98      0.62850190    0.0055849929
      6924.89      0.63869305    0.0055707587
      6931.82      0.64523835    0.0054990847
      6938.75      0.65163331    0.0054556176
      6945.69      0.65898024    0.0054165618
      6952.64      0.66374196    0.0053879141
      6959.59      0.66861626    0.0053536098
      6966.55      0.67412536    0.0053203541
      6973.52      0.68517330    0.0052859692
      6980.49      0.69036593    0.0052250765
      6987.47      0.69518304    0.0051635187
      6994.46      0.70205604    0.0050705862
      7001.46      0.70721090    0.0049790757
      7008.46      0.71061684    0.0048903495
      7015.46      0.71261462    0.0048312115
      7022.48      0.71372397    0.0047282161
      7029.51      0.71261016    0.0046462576
      7036.53      0.70950572    0.0045903147
      7043.57      0.70779857    0.0045133330
      7050.62      0.70716246    0.0044426172
      7057.66      0.70434612    0.0043736638
      7064.72      0.70393798    0.0043264731
      7071.79      0.70408926    0.0042562622
      7078.86      0.70432775    0.0041885345
      7085.94      0.70225173    0.0041258286
      7093.03      0.70200889    0.0040619251
      7100.12      0.70206742    0.0040384515
      7107.22      0.70206134    0.0040033721
      7114.33      0.70232236    0.0039637388
      7121.44      0.70385332    0.0039191731
      7128.56      0.70848463    0.0038716321
      7135.69      0.70943181    0.0038396644
      7142.83      0.70524924    0.0037865483
      7149.97      0.70461455    0.0037298643
      7157.12      0.70720384    0.0036706926
      7164.28      0.70891976    0.0036086961
      7171.44      0.71434968    0.0035341397
      7178.62      0.72042146    0.0034660678
      7185.80      0.72906469    0.0034132767
      7192.98      0.73795027    0.0033449049
      7200.17      0.75368719    0.0032774760
      7207.38      0.76594963    0.0032095561
      7214.58      0.77813017    0.0031407630
      7221.80      0.79326563    0.0030713443
      7229.02      0.80492262    0.0030028320
      7236.25      0.81575594    0.0029363110
      7243.49      0.82831619    0.0028722776
      7250.73      0.83751741    0.0028370938
      7257.98      0.84417438    0.0028590130
      7265.24      0.85237676    0.0028878885
      7272.51      0.85889790    0.0029253223
      7279.78      0.86357750    0.0029735477
      7287.06      0.86811679    0.0030366071
      7294.35      0.87117972    0.0031199645
      7301.64      0.87294669    0.0032320291
      7308.94      0.87366796    0.0033861456
      7316.25      0.87204637    0.0036353133
      7323.57      0.86801342    0.0039313074
      7330.89      0.86070240    0.0043206152
      7338.22      0.85059358    0.0048190033
      7345.56      0.83663719    0.0054524642
      7352.91      0.81879212    0.0062545287
      7360.26      0.79704654    0.0072624343
      7367.62      0.77304323    0.0085253478
