# starting wavelength =        3399.0400
# ending wavelength =        7217.3400
# O2 telluric scale =        0
# O2 telluric shift =        0
# H2O telluric scale =        0
# H2O telluric shift =        0
      3402.28      0.11633562      0.15174167
      3405.68      0.11347188      0.12917209
      3409.09      0.13244770      0.10789974
      3412.49      0.12362075     0.094588598
      3415.91     0.096553099     0.084146878
      3419.32     0.075244447     0.076037517
      3422.74     0.055264767     0.069743474
      3426.17     0.063296257     0.065760939
      3429.59     0.038695946     0.061732989
      3433.02   -0.0017716555     0.058595428
      3436.45     0.015352748     0.056134514
      3439.89     0.062662997     0.053719625
      3443.33     0.078560186     0.052182552
      3446.78     0.092453987     0.050916305
      3450.22      0.10103820     0.049857476
      3453.67      0.11215015     0.048958768
      3457.13      0.13266499     0.047928523
      3460.58      0.16024561     0.047222380
      3464.04      0.17073820     0.047066983
      3467.51      0.21479556     0.046917739
      3470.98      0.26260967     0.046711844
      3474.45      0.27701680     0.046561155
      3477.92      0.30586434     0.046654471
      3481.40      0.32252186     0.046743446
      3484.88      0.30936850     0.046297506
      3488.37      0.36106694     0.046388188
      3491.86      0.34713609     0.046240155
      3495.35      0.34596561     0.046340698
      3498.84      0.32620879     0.046127595
      3502.34      0.32498943     0.045984641
      3505.84      0.31907047     0.046076019
      3509.35      0.32679360     0.046179698
      3512.86      0.32916109     0.045723441
      3516.37      0.32199554     0.045824194
      3519.89      0.27106845     0.045925071
      3523.41      0.22368418     0.045471403
      3526.93      0.17179244     0.045573456
      3530.46      0.12269254     0.045424788
      3533.99     0.071854684     0.045536260
      3537.53     0.026345419     0.045324892
      3541.06     0.027012136     0.045184012
      3544.60   -0.0040491998     0.045284643
      3548.15    -0.017634041     0.045085897
      3551.70   -0.0096040776     0.044935317
      3555.25     0.016926848     0.045049597
      3558.80     0.026238230     0.045157593
      3562.36     0.018884826     0.044700371
      3565.92     0.016526614     0.044808436
      3569.49     0.045124642     0.044927559
      3573.06     0.085546904     0.044722671
      3576.64      0.10901393     0.044578959
      3580.21      0.13308293     0.044694319
      3583.79      0.14049298     0.044820035
      3587.38      0.14984229     0.044346322
      3590.96      0.15857187     0.044471799
      3594.55      0.15335625     0.044593061
      3598.15      0.16121684     0.044125697
      3601.75      0.18510583     0.044245613
      3605.35      0.16835795     0.044379252
      3608.96      0.17911813     0.044174608
      3612.56      0.20604402     0.044033800
      3616.18      0.22139120     0.044159270
      3619.79      0.20224001     0.043964856
      3623.41      0.17038804     0.043813770
      3627.04      0.12028904     0.043957945
      3630.66      0.13273445     0.043750632
      3634.29      0.10749168     0.043891204
      3637.93      0.11106142     0.043743358
      3641.57      0.11992647     0.043544838
      3645.21      0.14490645     0.043688792
      3648.86      0.14763273     0.043833370
      3652.50      0.14377329     0.043346090
      3656.16      0.13298715     0.043487374
      3659.81      0.13704247     0.043644955
      3663.47      0.12631496     0.043440474
      3667.14      0.12123106     0.043599408
      3670.80      0.12790001     0.043447650
      3674.48      0.11797065     0.043252348
      3678.15      0.10992745     0.043412499
      3681.83      0.12677697     0.043575005
      3685.51      0.13931786     0.043071368
      3689.20      0.16085864     0.043228191
      3692.88      0.19631700     0.043408374
      3696.58      0.22720021     0.043201763
      3700.27      0.25554975     0.043375881
      3703.98      0.30836219     0.042860286
      3707.68      0.34345736     0.043028614
      3711.39      0.36447396     0.043216203
      3715.10      0.40194123     0.043011463
      3718.81      0.43734959     0.043197160
      3722.53      0.44039909     0.043047618
      3726.26      0.44454279     0.042848979
      3729.98      0.44142729     0.043048067
      3733.71      0.43580267     0.042843398
      3737.45      0.41146709     0.043040746
      3741.18      0.40625696     0.043244060
      3744.93      0.38486959     0.042691863
      3748.67      0.35285196     0.042904026
      3752.42      0.32497695     0.043099695
      3756.17      0.29222839     0.042904530
      3759.93      0.27789881     0.043124685
      3763.69      0.26045563     0.042922050
      3767.45      0.28421240     0.043146483
      3771.22      0.27966648     0.042990966
      3774.99      0.30910438     0.042792014
      3778.77      0.34864648     0.043033780
      3782.54      0.40122173     0.042826436
      3786.33      0.41641799     0.043059883
      3790.11      0.43518119     0.042487019
      3793.90      0.45066067     0.042285925
      3797.70      0.46347013     0.042157049
      3801.50      0.47096478     0.041948897
      3805.30      0.47483988     0.041749121
      3809.10      0.48846633     0.041192123
      3812.91      0.52645667     0.041415778
      3816.73      0.55204770     0.041220095
      3820.54      0.55249382     0.040669695
      3824.36      0.54447289     0.040889616
      3828.19      0.53726021     0.040697383
      3832.02      0.53727219     0.040152008
      3835.85      0.56787902     0.040371579
      3839.68      0.58895453     0.039822537
      3843.52      0.59852609     0.039641089
      3847.37      0.64466114     0.039466281
      3851.22      0.68817246     0.039315474
      3855.07      0.73157883     0.039134637
      3858.92      0.76162242     0.038961340
      3862.78      0.81026785     0.038816229
      3866.64      0.86929772     0.038634818
      3870.51      0.91150213     0.038462218
      3874.38      0.94729665     0.037954252
      3878.26      0.98776254     0.038142277
      3882.13       1.0107272     0.037967333
      3886.02       1.0671715     0.037800590
      3889.90       1.0854940     0.037292863
      3893.79       1.0964136     0.037479655
      3897.69       1.0889552     0.037310908
      3901.59       1.1014300     0.036817771
      3905.49       1.1272284     0.036643740
      3909.39       1.1507286     0.036828763
      3913.30       1.1495677     0.036351096
      3917.22       1.1357362     0.036175964
      3921.13       1.1526983     0.036006799
      3925.06       1.1532291     0.035893306
      3928.98       1.1291008     0.035717657
      3932.91       1.1156071     0.035545618
      3936.84       1.1170624     0.035380019
      3940.78       1.1006410     0.035267602
      3944.72       1.0967681     0.035094830
      3948.67       1.0803586     0.034926628
      3952.61       1.0724355     0.034763063
      3956.57       1.0355985     0.034308887
      3960.52       1.0417965     0.034483937
      3964.48      0.99677828     0.034318321
      3968.45      0.97533047     0.034156526
      3972.42      0.96232313     0.033709657
      3976.39      0.96006226     0.033556689
      3980.37      0.94855155     0.033722505
      3984.35      0.95577458     0.033635075
      3988.33      0.93249954     0.034566247
      3992.32      0.92648598     0.035932010
      3996.31      0.93878473     0.033025068
      4000.31      0.92556724     0.033201228
      4004.31      0.92603072     0.033407456
      4008.31      0.92166912     0.034119074
      4012.32      0.92603759     0.034987168
      4016.33      0.93940426     0.035839551
      4020.35      0.93472444     0.036204369
      4024.37      0.90781260     0.036987126
      4028.40      0.89084437     0.036879986
      4032.42      0.85739795     0.036238578
      4036.46      0.83779437     0.035280279
      4040.50      0.80138213     0.033854908
      4044.54      0.78723046     0.032770158
      4048.58      0.77979431     0.032067952
      4052.63      0.75849698     0.031230490
      4056.68      0.71699970     0.030869020
      4060.74      0.70037602     0.030859763
      4064.80      0.69263751     0.032042016
      4068.86      0.67478260     0.030892003
      4072.93      0.66185636     0.029879768
      4077.01      0.65307866     0.029741656
      4081.08      0.64964793     0.029647160
      4085.17      0.62451648     0.029505084
      4089.25      0.61978516     0.029364356
      4093.34      0.58948515     0.029226268
      4097.43      0.54098288     0.029089370
      4101.53      0.51435757     0.028954764
      4105.63      0.48443143     0.028584909
      4109.74      0.48018695     0.028454106
      4113.85      0.47049308     0.028324706
      4117.96      0.46076598     0.028458343
      4122.08      0.45514438     0.028325104
      4126.20      0.45062648     0.028192443
      4130.33      0.43925479     0.027831939
      4134.46      0.42228949     0.027702755
      4138.59      0.43622234     0.027575961
      4142.73      0.45719644     0.027449141
      4146.88      0.46607456     0.027324668
      4151.02      0.48050394     0.027200092
      4155.18      0.49117883     0.027077863
      4159.33      0.49661304     0.026735048
      4163.49      0.50243180     0.026612055
      4167.65      0.49863377     0.026729202
      4171.82      0.48504010     0.026606633
      4175.99      0.48740208     0.026484435
      4180.17      0.49228266     0.026363844
      4184.35      0.51033295     0.026243521
      4188.54      0.53208104     0.026124779
      4192.72      0.53547080     0.026006240
      4196.92      0.53957844     0.025687810
      4201.11      0.54467516     0.025568474
      4205.31      0.54351560     0.025451724
      4209.52      0.53932710     0.025334668
      4213.73      0.54961529     0.025219497
      4217.94      0.55868733     0.025104033
      4222.16      0.57003999     0.024990390
      4226.38      0.56940275     0.024876174
      4230.61      0.56781455     0.024764232
      4234.84      0.57069417     0.024651948
      4239.08      0.57038172     0.024541398
      4243.32      0.58440174     0.024430101
      4247.56      0.59540547     0.024321013
      4251.81      0.62373250     0.024019674
      4256.06      0.62859148     0.023912616
      4260.32      0.64271739     0.023805293
      4264.58      0.66696623     0.023699497
      4268.84      0.66146372     0.023593570
      4273.11      0.67309379     0.023489167
      4277.38      0.67429511     0.023384474
      4281.66      0.66148953     0.023281272
      4285.94      0.65489026     0.023177329
      4290.23      0.63938723     0.023075136
      4294.52      0.65670650     0.022972788
      4298.81      0.63553687     0.022871880
      4303.11      0.63401344     0.022770820
      4307.42      0.65044283     0.022671204
      4311.72      0.66134671     0.022570888
      4316.04      0.68661805     0.022472370
      4320.35      0.70888160     0.022373823
      4324.67      0.72254193     0.022276707
      4329.00      0.74771633     0.022178990
      4333.33      0.76006936     0.022083113
      4337.66      0.74323716     0.021986641
      4342.00      0.75336554     0.021891982
      4346.34      0.75293178     0.021607573
      4350.69      0.73658649     0.021514839
      4355.04      0.73512104     0.021609511
      4359.39      0.72018874     0.022188914
      4363.75      0.69792035     0.022853248
      4368.12      0.69930423     0.021312250
      4372.48      0.67945942     0.021168182
      4376.86      0.67977011     0.021424496
      4381.23      0.67878049     0.021857288
      4385.61      0.71416189     0.022363360
      4390.00      0.75571700     0.022863437
      4394.39      0.78050062     0.023280385
      4398.79      0.81276216     0.023236408
      4403.18      0.82752673     0.023250783
      4407.59      0.82786573     0.022906307
      4412.00      0.84257798     0.022403140
      4416.41      0.85065416     0.021799751
      4420.82      0.84094673     0.021162812
      4425.25      0.84123804     0.020555018
      4429.67      0.84659126     0.020040147
      4434.10      0.84163219     0.019907738
      4438.54      0.83570454     0.020019025
      4442.97      0.83947611     0.020711060
      4447.42      0.86774630     0.019924263
      4451.86      0.88583094     0.019352007
      4456.32      0.90036881     0.019272941
      4460.77      0.93676201     0.019194919
      4465.24      0.98261606     0.019117664
      4469.70       1.0318460     0.019224019
      4474.17       1.0697302     0.019721476
      4478.65       1.1062016     0.020475820
      4483.12       1.1415026     0.018921153
      4487.61       1.1684049     0.018793716
      4492.09       1.2042261     0.019156252
      4496.59       1.2317805     0.019470765
      4501.08       1.2480010     0.019978287
      4505.58       1.2518322     0.020470105
      4510.09       1.2724486     0.020877158
      4514.60       1.2902009     0.021136287
      4519.12       1.2890840     0.021069784
      4523.63       1.2845536     0.020475383
      4528.16       1.3120530     0.020157907
      4532.69       1.3348411     0.019538583
      4537.22       1.3502829     0.018908820
      4541.76       1.3717833     0.018328324
      4546.30       1.4021323     0.017753709
      4550.85       1.4358750     0.017522250
      4555.40       1.4630577     0.017759769
      4559.95       1.4829649     0.018420636
      4564.51       1.5078150     0.017817703
      4569.08       1.5070416     0.017168508
      4573.65       1.5128897     0.017104698
      4578.22       1.5366254     0.017041904
      4582.80       1.5375786     0.016980738
      4587.38       1.5371945     0.016783951
      4591.97       1.5304472     0.016848501
      4596.56       1.5306520     0.016786776
      4601.16       1.5105244     0.016727194
      4605.76       1.4779909     0.016534392
      4610.37       1.4545784     0.016478016
      4614.98       1.4443234     0.016541710
      4619.59       1.4231692     0.016483201
      4624.21       1.4008480     0.016294263
      4628.84       1.3726291     0.016239312
      4633.47       1.3490935     0.016186243
      4638.10       1.3195168     0.016248215
      4642.74       1.2932874     0.016063434
      4647.38       1.2758365     0.016010059
      4652.03       1.2700923     0.015959169
      4656.68       1.2425301     0.015909207
      4661.34       1.2333274     0.015841066
      4666.00       1.2296186     0.015790067
      4670.67       1.2148161     0.015741152
      4675.33       1.2084579     0.015563420
      4680.01       1.1976586     0.015627627
      4684.69       1.1843908     0.015579232
      4689.38       1.1698950     0.015406878
      4694.07       1.1581452     0.015357543
      4698.76       1.1506369     0.015422984
      4703.46       1.1413671     0.015377213
      4708.16       1.1111956     0.015207211
      4712.87       1.0880510     0.015160352
      4717.58       1.0643924     0.015227331
      4722.30       1.0531838     0.015062086
      4727.03       1.0409875     0.015015995
      4731.75       1.0423548     0.014971814
      4736.48       1.0326811     0.014921891
      4741.22       1.0183949     0.014876344
      4745.96       1.0021954     0.014833484
      4750.71      0.98273881     0.014678334
      4755.46      0.95960394     0.014741918
      4760.22      0.93723863     0.014586773
      4764.97      0.93031321     0.014547444
      4769.74      0.92163047     0.014612197
      4774.51      0.90557233     0.014459177
      4779.29      0.89335809     0.014421373
      4784.07      0.88559555     0.014385755
      4788.85      0.87253591     0.014336337
      4793.64      0.86503861     0.014299851
      4798.43      0.85483756     0.014265998
      4803.23      0.85494564     0.014217888
      4808.03      0.86589677     0.014183059
      4812.84      0.87039910     0.014037526
      4817.66      0.86974368     0.014103949
      4822.48      0.87536936     0.014071232
      4827.30      0.87525193     0.013927281
      4832.12      0.86792192     0.013995033
      4836.96      0.87449109     0.013855348
      4841.79      0.87815138     0.013821442
      4846.63      0.87806231     0.013890662
      4851.48      0.88157999     0.013751747
      4856.33      0.89271429     0.013720097
      4861.19      0.89753538     0.013685139
      4866.05      0.89545726     0.013653071
      4870.92      0.89625809     0.013621099
      4875.79      0.90489879     0.013588662
      4880.66      0.91376955     0.013559078
      4885.55      0.93327054     0.013526812
      4890.43      0.94658261     0.013496893
      4895.32      0.95729015     0.013370756
      4900.22      0.96625608     0.013437171
      4905.12      0.96463837     0.013311204
      4910.02      0.97377854     0.013379589
      4914.94      0.98585230     0.013254050
      4919.85      0.98685311     0.013230443
      4924.77      0.98132509     0.013199211
      4929.70      0.98495497     0.013175674
      4934.62      0.98634104     0.013146716
      4939.56      0.98062462     0.013123142
      4944.50      0.96903147     0.013003172
      4949.44      0.95685599     0.013072701
      4954.39      0.93847193     0.013052710
      4959.35      0.92441658     0.013024377
      4964.31      0.90925779     0.013004689
      4969.27      0.89532517     0.012977913
      4974.24      0.87966607     0.012958556
      4979.22      0.86336192     0.012841182
      4984.20      0.84597190     0.012820367
      4989.18      0.83632974     0.012798674
      4994.17      0.82104122     0.012779318
      4999.16      0.81055750     0.012757784
      5004.16      0.81316625     0.012739709
      5009.17      0.81557530     0.012718822
      5014.18      0.80887160     0.012701652
      5019.19      0.80908140     0.012681687
      5024.21      0.81815923     0.012665285
      5029.23      0.83209291     0.012646278
      5034.26      0.84581357     0.012630559
      5039.30      0.85899293     0.012612403
      5044.34      0.87671467     0.012509185
      5049.39      0.89599755     0.012580053
      5054.43      0.90257528     0.012478460
      5059.49      0.91537655     0.012461252
      5064.55      0.93294896     0.012449537
      5069.61      0.94211861     0.012432790
      5074.68      0.94769216     0.012422195
      5079.76      0.96316519     0.012406204
      5084.84      0.98358556     0.012306069
      5089.92      0.99369638     0.012381191
      5095.01       1.0008269     0.012368647
      5100.11       1.0105676     0.012357903
      5105.21       1.0256325     0.012345697
      5110.31       1.0303154     0.012336302
      5115.42       1.0416634     0.012324246
      5120.54       1.0542658     0.012228100
      5125.66       1.0702781     0.012304700
      5130.79       1.0819527     0.012208803
      5135.92       1.0928246     0.012202076
      5141.05       1.1026808     0.012191191
      5146.20       1.1072570     0.012184386
      5151.34       1.1089918     0.012175309
      5156.49       1.1249739     0.012168517
      5161.65       1.1340374     0.012163951
      5166.81       1.1439518     0.012154439
      5171.98       1.1626868     0.012149675
      5177.15       1.1785964     0.012060394
      5182.33       1.1983028     0.012137427
      5187.51       1.2246482     0.012050392
      5192.70       1.2419405     0.012045218
      5197.89       1.2644208     0.012123663
      5203.09       1.2974786     0.012037149
      5208.29       1.3118863     0.012033785
      5213.50       1.3372623     0.012031314
      5218.72       1.3540176     0.012027384
      5223.93       1.3706188     0.012025323
      5229.16       1.3874151     0.012023291
      5234.39       1.3969051     0.012020875
      5239.62       1.4116299     0.012020238
      5244.86       1.4232234     0.012018820
      5250.11       1.4376904     0.012017656
      5255.36       1.4561537     0.011934565
      5260.61       1.4741397     0.011936724
      5265.87       1.4987740     0.012017572
      5271.14       1.5214776     0.011935280
      5276.41       1.5299182     0.011938254
      5281.69       1.5431592     0.012020294
      5286.97       1.5573158     0.011938778
      5292.26       1.5584870     0.011942460
      5297.55       1.5605476     0.011947671
      5302.85       1.5685416     0.011944950
      5308.15       1.5666929     0.011949438
      5313.46       1.5669584     0.011955172
      5318.77       1.5602064     0.011876835
      5324.09       1.5494708     0.011959211
      5329.42       1.5471062     0.011965448
      5334.75       1.5275431     0.011889148
      5340.08       1.5246967     0.011894546
      5345.42       1.5109277     0.011978340
      5350.77       1.5063161     0.011904251
      5356.12       1.5095773     0.011910060
      5361.48       1.5152015     0.011916961
      5366.83       1.5148036     0.011922805
      5372.20       1.5204713     0.011928796
      5377.58       1.5145147     0.011935721
      5382.95       1.5185619     0.011943884
      5388.34       1.5342660     0.011870859
      5393.72       1.5330595     0.011957803
      5399.12       1.5350775     0.011966007
      5404.52       1.5457324     0.011974980
      5409.92       1.5546204     0.011902577
      5415.33       1.5589246     0.011913278
      5420.75       1.5694570     0.012000401
      5426.17       1.5640530     0.012010366
      5431.60       1.5551139     0.011938250
      5437.03       1.5536660     0.011949491
      5442.47       1.5534383     0.011961707
      5447.91       1.5408951     0.011974399
      5453.36       1.5379648     0.011978144
      5458.81       1.5298426     0.011989949
      5464.27       1.5259278     0.012002267
      5469.73       1.5197995     0.012015486
      5475.20       1.5201474     0.011947644
      5480.68       1.5088829     0.011959685
      5486.16       1.5130755     0.011972480
      5491.65       1.5094126     0.011985911
      5497.14       1.4968668     0.012074499
      5502.64       1.4923256     0.012008600
      5508.14       1.4955994     0.012021675
      5513.65       1.5041983     0.012035176
      5519.16       1.5006819     0.012049339
      5524.68       1.5099872     0.012063866
      5530.20       1.5070561     0.011997272
      5535.73       1.4959570     0.012012607
      5541.27       1.5025273     0.012028094
      5546.81       1.4945519     0.012118607
      5552.36       1.4892787     0.012133802
      5557.91       1.4820469     0.012148977
      5563.47       1.4725158     0.012082545
      5569.04       1.4688845     0.012098497
      5574.60       1.4668132     0.012114569
      5580.18       1.4530253     0.012131132
      5585.76       1.4256129     0.012147992
      5591.35       1.4272489     0.012164931
      5596.94       1.4118077     0.012182347
      5602.53       1.4004078     0.012118115
      5608.14       1.3916558     0.012134702
      5613.75       1.3773907     0.012151612
      5619.36       1.3673677     0.012168820
      5624.98       1.3390443     0.012186208
      5630.60       1.3325011     0.012203814
      5636.23       1.3223766     0.012295633
      5641.87       1.3072187     0.012313592
      5647.51       1.3030342     0.012331894
      5653.16       1.2975297     0.012271123
      5658.82       1.2948461     0.012288961
      5664.47       1.2893931     0.012307317
      5670.14       1.2804751     0.012326401
      5675.81       1.2797553     0.012346328
      5681.48       1.2763960     0.012366385
      5687.17       1.2669496     0.012385872
      5692.85       1.2533556     0.012405921
      5698.55       1.2557883     0.012427887
      5704.25       1.2389365     0.012453508
      5709.95       1.2361713     0.012411040
      5715.66       1.2260228     0.012441387
      5721.38       1.2123501     0.012472315
      5727.10       1.2121620     0.012505073
      5732.83       1.2151168     0.012537933
      5738.56       1.2312805     0.012566991
      5744.30       1.2378734     0.012508488
      5750.04       1.2479270     0.012532220
      5755.79       1.2571024     0.012554062
      5761.55       1.2693610     0.012573930
      5767.31       1.2740951     0.012591697
      5773.08       1.2895378     0.012608523
      5778.85       1.2993780     0.012626327
      5784.63       1.3184670     0.012644776
      5790.41       1.3284971     0.012662462
      5796.21       1.3311136     0.012678644
      5802.00       1.3275494     0.012693352
      5807.81       1.3264480     0.012628934
      5813.61       1.3221056     0.012641977
      5819.43       1.3185170     0.012655065
      5825.25       1.3072863     0.012666098
      5831.07       1.3083825     0.012676576
      5836.90       1.3161181     0.012771942
      5842.74       1.3160928     0.012787303
      5848.58       1.3177216     0.012801194
      5854.43       1.3128040     0.012814768
      5860.29       1.3094231     0.012755902
      5866.15       1.3147889     0.012772254
      5872.01       1.3130306     0.012789554
      5877.89       1.3113990     0.012807359
      5883.76       1.3132091     0.012825598
      5889.65       1.3152674     0.012844743
      5895.54       1.3049214     0.012864080
      5901.43       1.2986012     0.012809715
      5907.34       1.2796706     0.012829142
      5913.24       1.2617555     0.012849022
      5919.16       1.2414095     0.012868815
      5925.08       1.2265232     0.012888961
      5931.00       1.2038060     0.012988306
      5936.93       1.1895253     0.012933099
      5942.87       1.1758568     0.012952229
      5948.81       1.1602378     0.012971704
      5954.76       1.1447719     0.012991293
      5960.72       1.1361601     0.013010807
      5966.68       1.1268121     0.012954095
      5972.64       1.1133565     0.012972576
      5978.62       1.1113544     0.013073507
      5984.60       1.1038108     0.013092372
      5990.58       1.1100801     0.013111543
      5996.57       1.1051763     0.013054783
      6002.57       1.1087414     0.013072345
      6008.57       1.1100476     0.013090331
      6014.58       1.1141561     0.013108666
      6020.60       1.1136707     0.013135698
      6026.62       1.1146710     0.013152440
      6032.65       1.1189595     0.013169642
      6038.68       1.1195108     0.013187126
      6044.72       1.1171336     0.013132491
      6050.76       1.1163335     0.013155832
      6056.81       1.1131760     0.013259785
      6062.87       1.1155462     0.013276336
      6068.93       1.1051689     0.013219560
      6075.00       1.0970043     0.013244401
      6081.08       1.0988531     0.013276376
      6087.16       1.1021670     0.013324770
      6093.25       1.1115728     0.013368554
      6099.34       1.1212414     0.013415512
      6105.44       1.1279787     0.013390502
      6111.54       1.1243592     0.013431778
      6117.66       1.1263576     0.013553847
      6123.78       1.1125259     0.013582215
      6129.90       1.1050520     0.013520649
      6136.03       1.0945706     0.013526935
      6142.17       1.0735723     0.013607730
      6148.31       1.0550397     0.013518093
      6154.46       1.0355880     0.013506228
      6160.61       1.0261852     0.013498062
      6166.77       1.0037501     0.013502044
      6172.94      0.98057531     0.013505263
      6179.11      0.95826735     0.013504023
      6185.29      0.93927455     0.013428093
      6191.48      0.92055785     0.013510590
      6197.67      0.91664907     0.013439163
      6203.87      0.91314245     0.013444788
      6210.07      0.91050240     0.013530039
      6216.28      0.90656370     0.013461236
      6222.50      0.90057250     0.013469258
      6228.72      0.89716515     0.013479244
      6234.95      0.89997655     0.013491051
      6241.19      0.89661458     0.013502268
      6247.42      0.90558912     0.013437283
      6253.67      0.90899906     0.013527708
      6259.93      0.92336300     0.013539873
      6266.19      0.94676153     0.013476657
      6272.46      0.96836868     0.013572708
      6278.73      0.98659718     0.013518086
      6285.01      0.99070048     0.013538481
      6291.29      0.99478215     0.013565868
      6297.58      0.99990860     0.013580654
      6303.88       1.0137334     0.013596493
      6310.19       1.0228917     0.013617477
      6316.50       1.0322594     0.013628753
      6322.81       1.0375258     0.013642701
      6329.14       1.0438725     0.013645780
      6335.47       1.0527266     0.013573687
      6341.80       1.0550735     0.013652263
      6348.14       1.0659201     0.013578059
      6354.49       1.0784265     0.013581251
      6360.85       1.0858479     0.013586316
      6367.21       1.1042980     0.013590847
      6373.57       1.1208903     0.013594742
      6379.95       1.1368570     0.013594880
      6386.33       1.1528645     0.013517331
      6392.72       1.1632686     0.013592329
      6399.11       1.1721774     0.013515145
      6405.51       1.1732748     0.013591725
      6411.92       1.1745557     0.013512726
      6418.32       1.1804960     0.013584269
      6424.74       1.1957397     0.013505715
      6431.17       1.2017973     0.013503096
      6437.60       1.2019648     0.013504887
      6444.04       1.2016203     0.013503389
      6450.48       1.1981541     0.013505237
      6456.94       1.1913241     0.013503648
      6463.39       1.1807508     0.013505097
      6469.85       1.1820866     0.013429805
      6476.33       1.1798569     0.013502814
      6482.80       1.1695455     0.013426900
      6489.28       1.1704814     0.013499147
      6495.77       1.1616584     0.013422965
      6502.27       1.1582573     0.013494052
      6508.77       1.1641488     0.013417125
      6515.28       1.1552997     0.013413475
      6521.80       1.1483748     0.013409315
      6528.32       1.1432120     0.013404177
      6534.85       1.1347112     0.013399539
      6541.38       1.1302090     0.013392807
      6547.92       1.1266219     0.013313182
      6554.47       1.1231913     0.013379553
      6561.03       1.1122499     0.013298325
      6567.59       1.1079456     0.013291659
      6574.16       1.0995306     0.013281498
      6580.73       1.0929593     0.013272948
      6587.31       1.0870859     0.013262686
      6593.90       1.0918721     0.013252270
      6600.50       1.0891265     0.013242456
      6607.10       1.0801582     0.013229843
      6613.70       1.0738836     0.013222734
      6620.32       1.0636669     0.013171591
      6626.94       1.0584385     0.013271483
      6633.57       1.0466527     0.013207004
      6640.20       1.0288766     0.013173157
      6646.84       1.0139400     0.013256843
      6653.49       1.0015517     0.013256718
      6660.14      0.98784684     0.013379202
      6666.80      0.98027456     0.013466265
      6673.47      0.97902766     0.013706268
      6680.14      0.98951712     0.013915979
      6686.82      0.98983922     0.014017917
      6693.51       1.0029767     0.014234693
      6700.20       1.0099682     0.014234377
      6706.90       1.0254185     0.014246714
      6713.61       1.0422925     0.014174990
      6720.32       1.0530846     0.014058922
      6727.05       1.0497524     0.013872168
      6733.77       1.0385084     0.013666197
      6740.51       1.0365618     0.013428324
      6747.25       1.0262601     0.013358055
      6754.00       1.0118940     0.013258619
      6760.75      0.99794802     0.013076954
      6767.51      0.98860396     0.012946859
      6774.28      0.96619590     0.012931451
      6781.05      0.95715323     0.012794577
      6787.84      0.94965118     0.012720552
      6794.62      0.94508034     0.012655590
      6801.42      0.94445479     0.012611418
      6808.22      0.93789796     0.012563050
      6815.03      0.93225078     0.012521297
      6821.85      0.93354776     0.012482565
      6828.67      0.94006611     0.012379660
      6835.50      0.94071645     0.012334358
      6842.33      0.92791640     0.012224151
      6849.17      0.90795376     0.012044999
      6856.02      0.88911599     0.011868700
      6862.88      0.87565957     0.011759810
      6869.74      0.86897596     0.011543792
      6876.61      0.86601760     0.011384465
      6883.49      0.85356182     0.011285373
      6890.37      0.83845625     0.011132420
      6897.27      0.82823516     0.010988292
      6904.16      0.82616398     0.010858332
      6911.07      0.82575165     0.010781969
      6917.98      0.82506665     0.010654781
      6924.89      0.83615062     0.010526269
      6931.82      0.83424248     0.010363224
      6938.75      0.83014175     0.010296930
      6945.69      0.83000416     0.010210552
      6952.64      0.83148689     0.010155315
      6959.59      0.82895362     0.010112679
      6966.55      0.84056312     0.010061458
      6973.52      0.84716063     0.010000132
      6980.49      0.84193156    0.0099711679
      6987.47      0.84207503    0.0098998662
      6994.46      0.83068494    0.0098196425
      7001.46      0.82756263    0.0097307239
      7008.46      0.82985167    0.0096014022
      7015.46      0.83264008    0.0095004937
      7022.48      0.83456613    0.0094286866
      7029.51      0.83334542    0.0093095218
      7036.53      0.83741898    0.0091859961
      7043.57      0.84125675    0.0090601311
      7050.62      0.83795292    0.0089324172
      7057.66      0.83262017    0.0088022292
      7064.72      0.82401188    0.0086691780
      7071.79      0.82796233    0.0085333703
      7078.86      0.83603720    0.0083974731
      7085.94      0.83955307    0.0082630315
      7093.03      0.84524802    0.0081299811
      7100.12      0.84868211    0.0080650313
      7107.22      0.85322445    0.0081456188
      7114.33      0.85639170    0.0082438772
      7121.44      0.86148923    0.0083637065
      7128.56      0.86607194    0.0085213940
      7135.69      0.86150154    0.0087182282
      7142.83      0.86377671    0.0089711575
      7149.97      0.86624699    0.0093030441
      7157.12      0.86957152    0.0097502339
      7164.28      0.87152251     0.010359947
      7171.44      0.87538422     0.011180441
      7178.62      0.87901881     0.012259572
      7185.80      0.88160301     0.013649521
      7192.98      0.88224087     0.015419161
      7200.17      0.88442598     0.017666634
      7207.38      0.89066959     0.020510631
      7214.58      0.89797914     0.024083824
