# starting wavelength =        3503.2549
# ending wavelength =        7347.1100
# O2 telluric scale =        0
# O2 telluric shift =        0
# H2O telluric scale =        0
# H2O telluric shift =        0
      3505.84      0.55906781     0.029214756
      3509.35      0.57039990     0.028653823
      3512.86      0.56757231     0.028172911
      3516.37      0.56852082     0.027756793
      3519.89      0.56408470     0.027520905
      3523.41      0.56017364     0.027253533
      3526.93      0.56878647     0.027292497
      3530.46      0.57419718     0.027335753
      3533.99      0.58073108     0.027245043
      3537.53      0.57693529     0.027107246
      3541.06      0.57673376     0.027016100
      3544.60      0.58318329     0.027056364
      3548.15      0.58822727     0.027103539
      3551.70      0.58204163     0.026830384
      3555.25      0.58927801     0.026875869
      3558.80      0.58026888     0.026922028
      3562.36      0.58116435     0.026827529
      3565.92      0.57897782     0.026696721
      3569.49      0.56268754     0.026601704
      3573.06      0.57242931     0.026652109
      3576.64      0.56208157     0.026518089
      3580.21      0.55248569     0.026426500
      3583.79      0.55514983     0.026473277
      3587.38      0.54420040     0.026525352
      3590.96      0.53767821     0.026249803
      3594.55      0.54441950     0.026300558
      3598.15      0.55297117     0.026352040
      3601.75      0.57132635     0.026258346
      3605.35      0.57468098     0.026129048
      3608.96      0.57041899     0.026181568
      3612.56      0.56494981     0.026092539
      3616.18      0.56399748     0.025958736
      3619.79      0.56755290     0.026015156
      3623.41      0.57665569     0.025920289
      3627.04      0.58182665     0.025980605
      3630.66      0.58773826     0.025847879
      3634.29      0.59666989     0.025758399
      3637.93      0.59369167     0.025812732
      3641.57      0.59269343     0.025686734
      3645.21      0.59123505     0.025591719
      3648.86      0.59638787     0.025654918
      3652.50      0.58881007     0.025523060
      3656.16      0.57917268     0.025434281
      3659.81      0.57992876     0.025491746
      3663.47      0.56352736     0.025366323
      3667.14      0.55950547     0.025427601
      3670.80      0.55974619     0.025339378
      3674.48      0.55871718     0.025400047
      3678.15      0.53808904     0.025273752
      3681.83      0.53362864     0.025340106
      3685.51      0.52391234     0.025253165
      3689.20      0.50714629     0.025120342
      3692.88      0.50382045     0.025189493
      3696.58      0.48904598     0.025096411
      3700.27      0.48410114     0.024969532
      3703.98      0.47635248     0.025042267
      3707.68      0.45963555     0.025113575
      3711.39      0.45622882     0.024824172
      3715.10      0.44939925     0.024894047
      3718.81      0.43419746     0.024974053
      3722.53      0.43999794     0.024843806
      3726.26      0.45470545     0.024756974
      3729.98      0.46086366     0.024828689
      3733.71      0.46681832     0.024703610
      3737.45      0.46077940     0.024784585
      3741.18      0.46386557     0.024865877
      3744.93      0.47228714     0.024567674
      3748.67      0.47811768     0.024646339
      3752.42      0.48975471     0.024523467
      3756.17      0.49509190     0.024606654
      3759.93      0.48645603     0.024694360
      3763.69      0.48263120     0.024389469
      3767.45      0.49526041     0.024474889
      3771.22      0.49744242     0.024569545
      3774.99      0.50163609     0.024440275
      3778.77      0.51252849     0.024534964
      3782.54      0.52044424     0.024440150
      3786.33      0.53539447     0.024314986
      3790.11      0.54398015     0.024414791
      3793.90      0.56437617     0.024286564
      3797.70      0.57748342     0.024387624
      3801.50      0.58802930     0.024292145
      3805.30      0.57032267     0.024166411
      3809.10      0.57082619     0.024273172
      3812.91      0.57791387     0.024144946
      3816.73      0.58049934     0.024250557
      3820.54      0.60053471     0.024361698
      3824.36      0.60959048     0.024234631
      3828.19      0.63214481     0.024146094
      3832.02      0.64097385     0.024251771
      3835.85      0.65049851     0.024127417
      3839.68      0.64988019     0.024248768
      3843.52      0.66185979     0.024119617
      3847.37      0.67098632     0.024036037
      3851.22      0.68633250     0.023903611
      3855.07      0.70907239     0.023777790
      3858.92      0.73353168     0.023692795
      3862.78      0.74585112     0.023563129
      3866.64      0.75074655     0.023439472
      3870.51      0.75615207     0.023353970
      3874.38      0.74557899     0.023226501
      3878.26      0.74386893     0.022902489
      3882.13      0.73897565     0.023020230
      3886.02      0.75646372     0.022894690
      3889.90      0.76865903     0.022574811
      3893.79      0.78833477     0.022690579
      3897.69      0.80649654     0.022567090
      3901.59      0.80911422     0.022251478
      3905.49      0.81808123     0.022138650
      3909.39      0.81832959     0.022243392
      3913.30      0.82582856     0.021931435
      3917.22      0.82935199     0.021819347
      3921.13      0.83102911     0.021923885
      3925.06      0.85683476     0.021615373
      3928.98      0.87031581     0.021503690
      3932.91      0.86756808     0.021396245
      3936.84      0.85572525     0.021303729
      3940.78      0.83599809     0.021192202
      3944.72      0.82120663     0.021084729
      3948.67      0.80062315     0.020792559
      3952.61      0.79439247     0.020885153
      3956.57      0.78906535     0.020777396
      3960.52      0.77913262     0.020492838
      3964.48      0.77764348     0.020582862
      3968.45      0.78323109     0.020474491
      3972.42      0.78365949     0.020197433
      3976.39      0.76717580     0.020086984
      3980.37      0.77220158     0.020175857
      3984.35      0.77275184     0.020070644
      3988.33      0.79812577     0.019796625
      3992.32      0.82667429     0.019688988
      3996.31      0.85619561     0.019584175
      4000.31      0.88282029     0.019512523
      4004.31      0.90418437     0.019403884
      4008.31      0.91912553     0.019298592
      4012.32      0.92824146     0.019195867
      4016.33      0.94159147     0.019125355
      4020.35      0.95164464     0.019018861
      4024.37      0.95835219     0.018915419
      4028.40      0.96091126     0.018656151
      4032.42      0.95582925     0.018557973
      4036.46      0.95472620     0.018641059
      4040.50      0.95985562     0.018538966
      4044.54      0.96723574     0.018284559
      4048.58      0.97125104     0.018187571
      4052.63      0.96195752     0.018092529
      4056.68      0.95986005     0.018170450
      4060.74      0.93907029     0.017920098
      4064.80      0.91946931     0.017823954
      4068.86      0.90411969     0.017729631
      4072.93      0.87036695     0.017637057
      4077.01      0.84409972     0.017711792
      4081.08      0.82682528     0.017467704
      4085.17      0.80497324     0.017374047
      4089.25      0.79101222     0.017282042
      4093.34      0.76059710     0.017191696
      4097.43      0.74038627     0.016958199
      4101.53      0.72800583     0.017026549
      4105.63      0.72892795     0.016935004
      4109.74      0.72948460     0.016844945
      4113.85      0.74183589     0.016756405
      4117.96      0.76183532     0.016530475
      4122.08      0.78123053     0.016440173
      4126.20      0.79688484     0.016351476
      4130.33      0.80646628     0.016418209
      4134.46      0.81471652     0.016331081
      4138.59      0.80916680     0.016114107
      4142.73      0.81749606     0.016025724
      4146.88      0.82132135     0.015938119
      4151.02      0.81376598     0.015851650
      4155.18      0.81274834     0.015766422
      4159.33      0.81751825     0.015555715
      4163.49      0.80669901     0.015623215
      4167.65      0.79004497     0.015537095
      4171.82      0.76907028     0.015452156
      4175.99      0.76491526     0.015368227
      4180.17      0.76051436     0.015285193
      4184.35      0.76126444     0.015080606
      4188.54      0.75088626     0.014999821
      4192.72      0.74009364     0.014919624
      4196.92      0.73887032     0.014840500
      4201.11      0.73890554     0.014901318
      4205.31      0.73725718     0.014820078
      4209.52      0.74357259     0.014739665
      4213.73      0.74185418     0.014541715
      4217.94      0.74504080     0.014463785
      4222.16      0.74265043     0.014386343
      4226.38      0.74501298     0.014309636
      4230.61      0.75229082     0.014233676
      4234.84      0.75589671     0.014158033
      4239.08      0.75231046     0.014083305
      4243.32      0.75205176     0.013897840
      4247.56      0.75472248     0.013822833
      4251.81      0.75868798     0.013748207
      4256.06      0.76270971     0.013674418
      4260.32      0.75559094     0.013601194
      4264.58      0.76025943     0.013653193
      4268.84      0.76133858     0.013580445
      4273.11      0.75425985     0.013508343
      4277.38      0.75163254     0.013436463
      4281.66      0.75142211     0.013365365
      4285.94      0.75468570     0.013194142
      4290.23      0.76339110     0.013123432
      4294.52      0.77166776     0.013053013
      4298.81      0.77632366     0.012983325
      4303.11      0.77187332     0.012914098
      4307.42      0.78073621     0.012845405
      4311.72      0.78282989     0.012776995
      4316.04      0.77439874     0.012709078
      4320.35      0.77352021     0.012641726
      4324.67      0.77632432     0.012574776
      4329.00      0.77563693     0.012508604
      4333.33      0.76864707     0.012442871
      4337.66      0.76514987     0.012377331
      4342.00      0.76126180     0.012312232
      4346.34      0.76940591     0.012152302
      4350.69      0.76163312     0.012088497
      4355.04      0.75706167     0.012025215
      4359.39      0.75835459     0.011962377
      4363.75      0.77316716     0.011900004
      4368.12      0.79672314     0.011838035
      4372.48      0.80251437     0.011776227
      4376.86      0.82265147     0.011715047
      4381.23      0.82470124     0.011654337
      4385.61      0.82802332     0.011594046
      4390.00      0.82976576     0.011534040
      4394.39      0.82416940     0.011474714
      4398.79      0.81449890     0.011415489
      4403.18      0.80645983     0.011256683
      4407.59      0.79593151     0.011198819
      4412.00      0.78622320     0.011141403
      4416.41      0.78292524     0.011084410
      4420.82      0.77998193     0.011027897
      4425.25      0.77960583     0.010971883
      4429.67      0.77458087     0.010916067
      4434.10      0.76531886     0.010860905
      4438.54      0.76911663     0.010806193
      4442.97      0.77836088     0.010751913
      4447.42      0.79491756     0.010697885
      4451.86      0.80436395     0.010644502
      4456.32      0.81857292     0.010591390
      4460.77      0.83139780     0.010538789
      4465.24      0.83993694     0.010391671
      4469.70      0.85297152     0.010339795
      4474.17      0.85692735     0.010288179
      4478.65      0.86519952     0.010236829
      4483.12      0.87299179     0.010186083
      4487.61      0.88412164     0.010135656
      4492.09      0.89078407     0.010162796
      4496.59      0.89910479     0.010113183
      4501.08      0.90913273     0.010064065
      4505.58      0.91937199    0.0099291945
      4510.09      0.92761534    0.0098801090
      4514.60      0.93402965    0.0098314649
      4519.12      0.94777403    0.0097831583
      4523.63      0.95811513    0.0097355616
      4528.16      0.97670999    0.0096886530
      4532.69      0.98501170    0.0096421040
      4537.22       1.0023073    0.0095959579
      4541.76       1.0223401    0.0094693031
      4546.30       1.0251871    0.0094247006
      4550.85       1.0401471    0.0093808166
      4555.40       1.0532901    0.0094056679
      4559.95       1.0580207    0.0093609990
      4564.51       1.0656907    0.0093167478
      4569.08       1.0708861    0.0091943110
      4573.65       1.0726489    0.0091516466
      4578.22       1.0726676    0.0091094188
      4582.80       1.0764708    0.0090679556
      4587.38       1.0824731    0.0090270994
      4591.97       1.0894405    0.0089869111
      4596.56       1.0961818    0.0088679049
      4601.16       1.0972327    0.0088930700
      4605.76       1.1046829    0.0088530437
      4610.37       1.1053642    0.0088136454
      4614.98       1.1159683    0.0087748669
      4619.59       1.1205685    0.0086617959
      4624.21       1.1300940    0.0086228693
      4628.84       1.1327960    0.0085844300
      4633.47       1.1282863    0.0086103753
      4638.10       1.1330790    0.0085731132
      4642.74       1.1276274    0.0084648535
      4647.38       1.1232825    0.0084273772
      4652.03       1.1196496    0.0083906265
      4656.68       1.1174213    0.0083546242
      4661.34       1.1123553    0.0083193611
      4666.00       1.1141890    0.0082770184
      4670.67       1.1140070    0.0082411615
      4675.33       1.1091258    0.0082062056
      4680.01       1.1039979    0.0081718824
      4684.69       1.1003619    0.0080720911
      4689.38       1.0905694    0.0080979686
      4694.07       1.0859863    0.0080638880
      4698.76       1.0773495    0.0080305248
      4703.46       1.0714981    0.0079331207
      4708.16       1.0682453    0.0079018249
      4712.87       1.0641158    0.0078713906
      4717.58       1.0525560    0.0078954696
      4722.30       1.0361434    0.0078003286
      4727.03       1.0216974    0.0077703337
      4731.75       1.0086150    0.0077412264
      4736.48       1.0000118    0.0077030628
      4741.22      0.98819801    0.0076733967
      4745.96      0.97276474    0.0076446794
      4750.71      0.96326044    0.0076168673
      4755.46      0.95264806    0.0075254396
      4760.22      0.93898639    0.0075520102
      4764.97      0.92552795    0.0075247678
      4769.74      0.91070463    0.0074366550
      4774.51      0.90206550    0.0074091235
      4779.29      0.89407394    0.0074365861
      4784.07      0.88682533    0.0073513849
      4788.85      0.87918081    0.0073243858
      4793.64      0.87418571    0.0072982869
      4798.43      0.87525799    0.0073265630
      4803.23      0.86773130    0.0072427245
      4808.03      0.86204178    0.0072172730
      4812.84      0.85103877    0.0071930061
      4817.66      0.84515186    0.0071643592
      4822.48      0.85186457    0.0071396574
      4827.30      0.84510731    0.0071160996
      4832.12      0.83532803    0.0070891327
      4836.96      0.82947705    0.0070651391
      4841.79      0.82800793    0.0069875472
      4846.63      0.82343725    0.0069660269
      4851.48      0.82670524    0.0069935447
      4856.33      0.83162147    0.0069174185
      4861.19      0.83135231    0.0068968868
      4866.05      0.84578598    0.0069248690
      4870.92      0.86121578    0.0068503399
      4875.79      0.87189447    0.0068306840
      4880.66      0.88208365    0.0068122583
      4885.55      0.89601209    0.0067862264
      4890.43      0.91047346    0.0067675516
      4895.32      0.91611841    0.0066956168
      4900.22      0.92514006    0.0067250314
      4905.12      0.92732466    0.0067075087
      4910.02      0.93539255    0.0066366668
      4914.94      0.94374657    0.0066667754
      4919.85      0.94530924    0.0065982709
      4924.77      0.94483745    0.0065805143
      4929.70      0.94402382    0.0066127659
      4934.62      0.94416151    0.0065437656
      4939.56      0.94324867    0.0065271976
      4944.50      0.95074386    0.0065086538
      4949.44      0.95097321    0.0064920470
      4954.39      0.95523584    0.0064752697
      4959.35      0.96627119    0.0064586361
      4964.31      0.96798463    0.0064434056
      4969.27      0.97308502    0.0064267558
      4974.24      0.97785951    0.0064115396
      4979.22      0.98067922    0.0063504935
      4984.20      0.98585356    0.0063812098
      4989.18      0.98359886    0.0063204384
      4994.17      0.98155733    0.0063522627
      4999.16      0.98158697    0.0062918488
      5004.16      0.97926445    0.0062799110
      5009.17      0.97208161    0.0062646576
      5014.18      0.96125314    0.0062527953
      5019.19      0.94472363    0.0062848627
      5024.21      0.92982845    0.0062270798
      5029.23      0.91554467    0.0062169883
      5034.26      0.89992618    0.0062026063
      5039.30      0.88517097    0.0061928110
      5044.34      0.86891216    0.0061794709
      5049.39      0.85612141    0.0061699669
      5054.43      0.84371805    0.0061576458
      5059.49      0.83414749    0.0061484621
      5064.55      0.82677348    0.0060931524
      5069.61      0.82659421    0.0061280887
      5074.68      0.82659657    0.0060737227
      5079.76      0.83181712    0.0061088208
      5084.84      0.83859669    0.0060553236
      5089.92      0.84420157    0.0060908016
      5095.01      0.85516219    0.0060380452
      5100.11      0.86308917    0.0060309837
      5105.21      0.87526797    0.0060218829
      5110.31      0.88209414    0.0059723091
      5115.42      0.89305781    0.0060068483
      5120.54      0.90944327    0.0059579309
      5125.66      0.91847518    0.0059927809
      5130.79      0.92690191    0.0059446495
      5135.92      0.93508723    0.0059797908
      5141.05      0.94055472    0.0059323667
      5146.20      0.94544852    0.0059678351
      5151.34      0.94892405    0.0059212402
      5156.49      0.95307799    0.0059154192
      5161.65      0.95806847    0.0059112750
      5166.81      0.96316527    0.0059056694
      5171.98      0.96623897    0.0059022930
      5177.15      0.97141689    0.0058970847
      5182.33      0.97720131    0.0058517678
      5187.51      0.98234494    0.0058894990
      5192.70      0.98637774    0.0058444688
      5197.89      0.99055657    0.0058829298
      5203.09       1.0033505    0.0058798417
      5208.29       1.0104941    0.0058364345
      5213.50       1.0268124    0.0058746523
      5218.72       1.0400787    0.0058313706
      5223.93       1.0441019    0.0058705254
      5229.16       1.0541195    0.0058273013
      5234.39       1.0572601    0.0058271552
      5239.62       1.0577614    0.0058242865
      5244.86       1.0618200    0.0058241669
      5250.11       1.0699846    0.0057834290
      5255.36       1.0759579    0.0058222384
      5260.61       1.0850683    0.0058234308
      5265.87       1.0910628    0.0058215510
      5271.14       1.0981889    0.0058226804
      5276.41       1.1093698    0.0057832239
      5281.69       1.1194471    0.0058230482
      5286.97       1.1286963    0.0058252349
      5292.26       1.1343164    0.0057858935
      5297.55       1.1462509    0.0058266456
      5302.85       1.1588945    0.0057886884
      5308.15       1.1703216    0.0057906291
      5313.46       1.1849513    0.0058322007
      5318.77       1.1963043    0.0057945895
      5324.09       1.2034398    0.0057974062
      5329.42       1.2111669    0.0057999038
      5334.75       1.2111047    0.0058025691
      5340.08       1.2172301    0.0058061258
      5345.42       1.2242654    0.0057696656
      5350.77       1.2254010    0.0058124261
      5356.12       1.2159949    0.0057756297
      5361.48       1.2103469    0.0057806462
      5366.83       1.1993234    0.0058241189
      5372.20       1.1884360    0.0057877330
      5377.58       1.1748373    0.0057933493
      5382.95       1.1624631    0.0057997127
      5388.34       1.1466395    0.0058016659
      5393.72       1.1325141    0.0058077703
      5399.12       1.1218055    0.0058145636
      5404.52       1.1108624    0.0057802506
      5409.92       1.1022514    0.0058238634
      5415.33       1.0952279    0.0058310109
      5420.75       1.0876254    0.0057976465
      5426.17       1.0837262    0.0058044288
      5431.60       1.0849423    0.0058490112
      5437.03       1.0902700    0.0058167242
      5442.47       1.0977205    0.0058237993
      5447.91       1.1092683    0.0058314261
      5453.36       1.1140670    0.0058770338
      5458.81       1.1198539    0.0058449206
      5464.27       1.1288168    0.0058527816
      5469.73       1.1407886    0.0058612664
      5475.20       1.1494773    0.0058293995
      5480.68       1.1660144    0.0058759366
      5486.16       1.1959225    0.0058845617
      5491.65       1.2207267    0.0058936856
      5497.14       1.2438636    0.0058621436
      5502.64       1.2584215    0.0058721158
      5508.14       1.2700918    0.0059189368
      5513.65       1.2766658    0.0058872142
      5519.16       1.2780496    0.0058972105
      5524.68       1.2790356    0.0059075964
      5530.20       1.2749236    0.0059183993
      5535.73       1.2692586    0.0059658793
      5541.27       1.2608015    0.0059345849
      5546.81       1.2422986    0.0059453391
      5552.36       1.2199668    0.0059564133
      5557.91       1.1947485    0.0059678433
      5563.47       1.1653039    0.0059377506
      5569.04       1.1337192    0.0059487216
      5574.60       1.1068635    0.0059966982
      5580.18       1.0820957    0.0060083968
      5585.76       1.0715737    0.0059797948
      5591.35       1.0684102    0.0059909973
      5596.94       1.0658169    0.0060025875
      5602.53       1.0629755    0.0060143838
      5608.14       1.0608227    0.0060264559
      5613.75       1.0650898    0.0060388027
      5619.36       1.0671076    0.0060475905
      5624.98       1.0730233    0.0060595383
      5630.60       1.0777291    0.0060717425
      5636.23       1.0809857    0.0060841885
      5641.87       1.0860851    0.0060968551
      5647.51       1.0859360    0.0060677803
      5653.16       1.0808735    0.0060807106
      5658.82       1.0705980    0.0060938239
      5664.47       1.0602478    0.0061070536
      5670.14       1.0372310    0.0061205338
      5675.81       1.0129767    0.0061341045
      5681.48      0.98707687    0.0061842239
      5687.17      0.96295722    0.0061551041
      5692.85      0.93797655    0.0061684763
      5698.55      0.91806687    0.0061820382
      5704.25      0.89824451    0.0061957477
      5709.95      0.87391995    0.0062095993
      5715.66      0.84854323    0.0062235617
      5721.38      0.83063769    0.0062375642
      5727.10      0.81433376    0.0062516885
      5732.83      0.80021428    0.0062239421
      5738.56      0.79258425    0.0062377181
      5744.30      0.78623638    0.0062516693
      5750.04      0.78132570    0.0062656372
      5755.79      0.78632868    0.0062797243
      5761.55      0.79236869    0.0062939644
      5767.31      0.80193767    0.0063084080
      5773.08      0.81726076    0.0063233636
      5778.85      0.83279502    0.0063386499
      5784.63      0.85446938    0.0063537062
      5790.41      0.87753068    0.0063686974
      5796.21      0.90745885    0.0063411411
      5802.00      0.93872689    0.0063578437
      5807.81      0.97003510    0.0063764951
      5813.61      0.99332610    0.0063965043
      5819.43       1.0237704    0.0064167997
      5825.25       1.0548986    0.0064374849
      5831.07       1.0938062    0.0064591718
      5836.90       1.1251320    0.0064806652
      5842.74       1.1583955    0.0064999482
      5848.58       1.1866693    0.0065174657
      5854.43       1.2111095    0.0065339762
      5860.29       1.2310249    0.0065496046
      5866.15       1.2530363    0.0065640166
      5872.01       1.2733867    0.0065394758
      5877.89       1.2939592    0.0065527530
      5883.76       1.3085472    0.0065665352
      5889.65       1.3165135    0.0065803855
      5895.54       1.3225707    0.0065936339
      5901.43       1.3264770    0.0066059272
      5907.34       1.3317663    0.0066174794
      5913.24       1.3313515    0.0066286532
      5919.16       1.3283334    0.0066400608
      5925.08       1.3196827    0.0066510604
      5931.00       1.3199218    0.0066609238
      5936.93       1.3157443    0.0066315654
      5942.87       1.3120499    0.0066429734
      5948.81       1.3042924    0.0066549672
      5954.76       1.3078927    0.0066659639
      5960.72       1.3010105    0.0066769319
      5966.68       1.2960776    0.0066889787
      5972.64       1.2846068    0.0067018481
      5978.62       1.2742765    0.0067151173
      5984.60       1.2651773    0.0066906168
      5990.58       1.2503902    0.0067480532
      5996.57       1.2359335    0.0067616053
      6002.57       1.2203316    0.0067751232
      6008.57       1.2039184    0.0067886304
      6014.58       1.1833507    0.0068023405
      6020.60       1.1638397    0.0067776278
      6026.62       1.1433994    0.0067914648
      6032.65       1.1248942    0.0068053143
      6038.68       1.1093814    0.0068192264
      6044.72       1.0918079    0.0068331875
      6050.76       1.0748605    0.0068471777
      6056.81       1.0563006    0.0068642192
      6062.87       1.0477061    0.0068774902
      6068.93       1.0494217    0.0068908342
      6075.00       1.0471361    0.0069042606
      6081.08       1.0474059    0.0069177752
      6087.16       1.0479530    0.0068911687
      6093.25       1.0495643    0.0069037875
      6099.34       1.0609694    0.0069164696
      6105.44       1.0737884    0.0069734940
      6111.54       1.0888371    0.0069473215
      6117.66       1.0994169    0.0069593010
      6123.78       1.1060118    0.0069713399
      6129.90       1.1137847    0.0069835099
      6136.03       1.1213403    0.0069569731
      6142.17       1.1236124    0.0069693243
      6148.31       1.1283723    0.0070247436
      6154.46       1.1365919    0.0070371521
      6160.61       1.1338432    0.0070139773
      6166.77       1.1342167    0.0070281473
      6172.94       1.1333202    0.0070392368
      6179.11       1.1401090    0.0070945210
      6185.29       1.1485552    0.0070723398
      6191.48       1.1562714    0.0070924850
      6197.67       1.1651180    0.0071162241
      6203.87       1.1721855    0.0071045321
      6210.07       1.1820796    0.0071766316
      6216.28       1.1943972    0.0072031066
      6222.50       1.2099934    0.0072278632
      6228.72       1.2193470    0.0072077068
      6234.95       1.2280959    0.0072683469
      6241.19       1.2308763    0.0072778877
      6247.42       1.2391518    0.0072390329
      6253.67       1.2483107    0.0072379191
      6259.93       1.2514949    0.0072344526
      6266.19       1.2570980    0.0072312561
      6272.46       1.2583577    0.0072291401
      6278.73       1.2530479    0.0072316074
      6285.01       1.2552484    0.0072377297
      6291.29       1.2524113    0.0072370906
      6297.58       1.2457042    0.0071983546
      6303.88       1.2389577    0.0072021425
      6310.19       1.2343272    0.0072481681
      6316.50       1.2299930    0.0072115772
      6322.81       1.2205859    0.0072162180
      6329.14       1.2144703    0.0072635337
      6335.47       1.2075925    0.0072280731
      6341.80       1.2024952    0.0072338436
      6348.14       1.1902770    0.0071994095
      6354.49       1.1775256    0.0072485165
      6360.85       1.1623879    0.0072553147
      6367.21       1.1590072    0.0072206353
      6373.57       1.1527359    0.0072704928
      6379.95       1.1368411    0.0072384412
      6386.33       1.1261961    0.0072469971
      6392.72       1.1148768    0.0073016865
      6399.11       1.1051599    0.0072733494
      6405.51       1.1002484    0.0072827800
      6411.92       1.0907118    0.0072956122
      6418.32       1.0867634    0.0073031921
      6424.74       1.0951443    0.0072710946
      6431.17       1.1022723    0.0073192254
      6437.60       1.1171206    0.0072825425
      6444.04       1.1279587    0.0073265861
      6450.48       1.1424352    0.0073265573
      6456.94       1.1568357    0.0072866299
      6463.39       1.1733191    0.0073280055
      6469.85       1.1853201    0.0072884806
      6476.33       1.1928839    0.0073316766
      6482.80       1.2036895    0.0072919488
      6489.28       1.2188867    0.0072925302
      6495.77       1.2282712    0.0072913379
      6502.27       1.2288295    0.0072896208
      6508.77       1.2268848    0.0072873514
      6515.28       1.2222153    0.0072860305
      6521.80       1.2163010    0.0072429013
      6528.32       1.2075642    0.0072805737
      6534.85       1.2005885    0.0072355245
      6541.38       1.1970712    0.0072737308
      6547.92       1.1958626    0.0072304466
      6554.47       1.1903493    0.0072301045
      6561.03       1.1895311    0.0072267526
      6567.59       1.1908030    0.0072260914
      6574.16       1.1956329    0.0072225370
      6580.73       1.2026131    0.0071806870
      6587.31       1.2083393    0.0072170889
      6593.90       1.2105357    0.0071745562
      6600.50       1.2104991    0.0072101995
      6607.10       1.2141076    0.0071673864
      6613.70       1.2133405    0.0071630086
      6620.32       1.2088587    0.0071590064
      6626.94       1.1968431    0.0071535508
      6633.57       1.1850919    0.0071490894
      6640.20       1.1725439    0.0071425599
      6646.84       1.1565451    0.0070973753
      6653.49       1.1371113    0.0071301260
      6660.14       1.1208000    0.0070840556
      6666.80       1.1024896    0.0071163184
      6673.47       1.0881606    0.0070691841
      6680.14       1.0696908    0.0070612465
      6686.82       1.0595098    0.0070914903
      6693.51       1.0546794    0.0070437266
      6700.20       1.0468657    0.0070347989
      6706.90       1.0376818    0.0070246355
      6713.61       1.0303593    0.0070144384
      6720.32       1.0230773    0.0070041066
      6727.05       1.0186878    0.0069929108
      6733.77       1.0131349    0.0069496599
      6740.51       1.0085812    0.0069919466
      6747.25       1.0132727    0.0070060285
      6754.00       1.0137238    0.0069552083
      6760.75       1.0144130    0.0069381791
      6767.51       1.0132176    0.0069488903
      6774.28       1.0115367    0.0069890318
      6781.05       1.0073649    0.0070558752
      6787.84       1.0070959    0.0071248343
      6794.62       1.0054573    0.0072243324
      6801.42       1.0052104    0.0072789932
      6808.22       1.0008724    0.0073981516
      6815.03       1.0002311    0.0074633260
      6821.85      0.99696189    0.0074420993
      6828.67      0.98935048    0.0074251077
      6835.50      0.98174321    0.0074172641
      6842.33      0.97466700    0.0072884347
      6849.17      0.96824252    0.0071775278
      6856.02      0.96089966    0.0070403018
      6862.88      0.95228659    0.0069779441
      6869.74      0.94464075    0.0069020373
      6876.61      0.94192571    0.0068094289
      6883.49      0.93199296    0.0067333954
      6890.37      0.92725223    0.0067033719
      6897.27      0.92141973    0.0066207373
      6904.16      0.91399861    0.0065717323
      6911.07      0.91081774    0.0065254371
      6917.98      0.91229291    0.0065214696
      6924.89      0.91389677    0.0064541401
      6931.82      0.91867353    0.0064203768
      6938.75      0.92191486    0.0063891984
      6945.69      0.92435154    0.0063277799
      6952.64      0.93025696    0.0062954694
      6959.59      0.93913007    0.0062604958
      6966.55      0.94417480    0.0061641732
      6973.52      0.95379726    0.0060626314
      6980.49      0.96499326    0.0059629135
      6987.47      0.97535343    0.0058988833
      6994.46      0.98805089    0.0058041984
      7001.46      0.99653150    0.0057120667
      7008.46       1.0049581    0.0056512787
      7015.46       1.0139165    0.0055626244
      7022.48       1.0192484    0.0054798301
      7029.51       1.0222462    0.0053834290
      7036.53       1.0251927    0.0053328120
      7043.57       1.0226650    0.0052569516
      7050.62       1.0183523    0.0051812047
      7057.66       1.0127137    0.0051092261
      7064.72       1.0084814    0.0050455353
      7071.79       1.0044746    0.0050156881
      7078.86      0.99727640    0.0049786323
      7085.94      0.99103233    0.0049437488
      7093.03      0.98503947    0.0049026485
      7100.12      0.98175322    0.0048389050
      7107.22      0.97621499    0.0048094057
      7114.33      0.97029831    0.0047584023
      7121.44      0.96595794    0.0047019520
      7128.56      0.96274158    0.0046420828
      7135.69      0.96054227    0.0045787404
      7142.83      0.95928807    0.0045117516
      7149.97      0.95930109    0.0044602577
      7157.12      0.96251371    0.0043846213
      7164.28      0.96611405    0.0043076768
      7171.44      0.96870732    0.0042298047
      7178.62      0.97615742    0.0041511680
      7185.80      0.98202405    0.0040713043
      7192.98      0.98659130    0.0039899301
      7200.17      0.99593825    0.0039074004
      7207.38       1.0015388    0.0038181434
      7214.58       1.0158304    0.0037364311
      7221.80       1.0252098    0.0036551145
      7229.02       1.0325767    0.0036272243
      7236.25       1.0389608    0.0036583553
      7243.49       1.0447793    0.0036978940
      7250.73       1.0513813    0.0037477565
      7257.98       1.0565289    0.0038109513
      7265.24       1.0619210    0.0038922279
      7272.51       1.0675663    0.0039987207
      7279.78       1.0729303    0.0041412704
      7287.06       1.0789192    0.0043368217
      7294.35       1.0826916    0.0046040984
      7301.64       1.0849984    0.0049643286
      7308.94       1.0871791    0.0054357115
      7316.25       1.0874663    0.0060434688
      7323.57       1.0861783    0.0068203531
      7330.89       1.0821696    0.0078116202
      7338.22       1.0766587    0.0090659701
      7345.56       1.0693718     0.010640109
