# starting wavelength =        3587.4900
# ending wavelength =        8248.0210
# O2 telluric scale =        0
# O2 telluric shift =        0
# H2O telluric scale =        0
# H2O telluric shift =        0
      3590.96       1.0299887     0.050373074
      3594.55       1.0320782     0.042898661
      3598.15       1.0281012     0.037083276
      3601.75       1.0253989     0.033698777
      3605.35       1.0190669     0.029907498
      3608.96       1.0107339     0.026966317
      3612.56       1.0015156     0.024686569
      3616.18      0.99242616     0.022491887
      3619.79      0.98193022     0.021203151
      3623.41      0.97375953     0.020181020
      3627.04      0.96359226     0.019358779
      3630.66      0.95924017     0.018879293
      3634.29      0.95724226     0.018294284
      3637.93      0.95509581     0.017799397
      3641.57      0.95190314     0.017374118
      3645.21      0.95066116     0.017087122
      3648.86      0.94948249     0.016906750
      3652.50      0.94652601     0.016887805
      3656.16      0.94313473     0.017068823
      3659.81      0.93710778     0.017381518
      3663.47      0.93268170     0.017741269
      3667.14      0.93126320     0.018162876
      3670.80      0.93506187     0.016794968
      3674.48      0.93536053     0.016434855
      3678.15      0.93888539     0.016549798
      3681.83      0.93333234     0.016606501
      3685.51      0.93213790     0.016772760
      3689.20      0.93482691     0.017007001
      3692.88      0.93731730     0.017377691
      3696.58      0.94707917     0.017675395
      3700.27      0.95487046     0.017992105
      3703.98      0.95449696     0.018310549
      3707.68      0.96053038     0.018612479
      3711.39      0.96737535     0.019081714
      3715.10      0.97212982     0.019322092
      3718.81      0.97758379     0.019491618
      3722.53      0.98792952     0.019575495
      3726.26      0.98713439     0.019460455
      3729.98      0.99033976     0.019464408
      3733.71      0.97692530     0.019178845
      3737.45      0.96995679     0.018827866
      3741.18      0.97266633     0.018433131
      3744.93      0.98057230     0.018016017
      3748.67      0.98409395     0.017734251
      3752.42      0.98999076     0.017428902
      3756.17      0.99259733     0.017042491
      3759.93      0.99407113     0.016717726
      3763.69      0.99372250     0.016484017
      3767.45      0.99456881     0.016498905
      3771.22      0.99763208     0.016825506
      3774.99      0.99024154     0.018607616
      3778.77      0.99057040     0.018379032
      3782.54      0.99202034     0.017034615
      3786.33      0.99497468     0.016518473
      3790.11      0.99405004     0.016397799
      3793.90      0.99612620     0.016246852
      3797.70      0.99327652     0.016352017
      3801.50      0.98963197     0.016513675
      3805.30      0.99263555     0.016876197
      3809.10      0.99875592     0.017182032
      3812.91       1.0029188     0.017420353
      3816.73       1.0057042     0.017647604
      3820.54       1.0068662     0.018044835
      3824.36       1.0107122     0.018623967
      3828.19       1.0247524     0.019306191
      3832.02       1.0268442     0.020123167
      3835.85       1.0315322     0.021119258
      3839.68       1.0261500     0.020250196
      3843.52       1.0302712     0.018465274
      3847.37       1.0359762     0.018355491
      3851.22       1.0482026     0.018418944
      3855.07       1.0601660     0.018543602
      3858.92       1.0672534     0.018756438
      3862.78       1.0730189     0.018907504
      3866.64       1.0782586     0.019063577
      3870.51       1.0735304     0.019236965
      3874.38       1.0759473     0.019470093
      3878.26       1.0806932     0.022206849
      3882.13       1.0906046     0.022249150
      3886.02       1.0869932     0.021243094
      3889.90       1.0771657     0.020087359
      3893.79       1.0716941     0.019389790
      3897.69       1.0626307     0.018886838
      3901.59       1.0616586     0.018335806
      3905.49       1.0566510     0.017946490
      3909.39       1.0550424     0.017426808
      3913.30       1.0497827     0.017036551
      3917.22       1.0521584     0.016863292
      3921.13       1.0539046     0.016854284
      3925.06       1.0561325     0.017539367
      3928.98       1.0594338     0.017813715
      3932.91       1.0672443     0.016944368
      3936.84       1.0735093     0.016765524
      3940.78       1.0778537     0.016777898
      3944.72       1.0897011     0.017132384
      3948.67       1.0985012     0.017521354
      3952.61       1.1123073     0.018178516
      3956.57       1.1259012     0.018642533
      3960.52       1.1423331     0.019056331
      3964.48       1.1548434     0.019374612
      3968.45       1.1617189     0.019558604
      3972.42       1.1653924     0.019405324
      3976.39       1.1799534     0.019392819
      3980.37       1.1833857     0.019151869
      3984.35       1.1820318     0.018595812
      3988.33       1.1795777     0.018016332
      3992.32       1.1747004     0.017462110
      3996.31       1.1748941     0.017140069
      4000.31       1.1729349     0.016828533
      4004.31       1.1656049     0.016871213
      4008.31       1.1701122     0.018318358
      4012.32       1.1732183     0.017611871
      4016.33       1.1715125     0.017062522
      4020.35       1.1744555     0.016621376
      4024.37       1.1712804     0.016775746
      4028.40       1.1770275     0.016742757
      4032.42       1.1843743     0.016904357
      4036.46       1.1994912     0.016871664
      4040.50       1.2134046     0.016839560
      4044.54       1.2154424     0.016807578
      4048.58       1.2314685     0.016968375
      4052.63       1.2371235     0.017149376
      4056.68       1.2393255     0.017629970
      4060.74       1.2481762     0.018256355
      4064.80       1.2487354     0.019111532
      4068.86       1.2381130     0.020354681
      4072.93       1.2223127     0.017748746
      4077.01       1.2193752     0.018000408
      4081.08       1.2181674     0.018520951
      4085.17       1.2212776     0.019419955
      4089.25       1.2270522     0.020363223
      4093.34       1.2248605     0.021224205
      4097.43       1.2262309     0.021860593
      4101.53       1.2355325     0.021982928
      4105.63       1.2464769     0.021379949
      4109.74       1.2615786     0.020509917
      4113.85       1.2603735     0.019341605
      4117.96       1.2600040     0.018430784
      4122.08       1.2529894     0.017629244
      4126.20       1.2533769     0.017018043
      4130.33       1.2505776     0.017476533
      4134.46       1.2306113     0.019083679
      4138.59       1.2323830     0.017971570
      4142.73       1.2319336     0.016963148
      4146.88       1.2289915     0.016408261
      4151.02       1.2257849     0.015973720
      4155.18       1.2228180     0.015946381
      4159.33       1.2225500     0.015919768
      4163.49       1.2298997     0.015893977
      4167.65       1.2378981     0.015852699
      4171.82       1.2391177     0.015822999
      4175.99       1.2360148     0.015793739
      4180.17       1.2342490     0.015765977
      4184.35       1.2289635     0.015739726
      4188.54       1.2212383     0.015714114
      4192.72       1.2128510     0.015497605
      4196.92       1.1986978     0.015649037
      4201.11       1.1880555     0.015620796
      4205.31       1.1818172     0.015593346
      4209.52       1.1756577     0.015567484
      4213.73       1.1650773     0.015543303
      4217.94       1.1593862     0.015330892
      4222.16       1.1562190     0.015302004
      4226.38       1.1517095     0.015453491
      4230.61       1.1493309     0.015426931
      4234.84       1.1489486     0.015401637
      4239.08       1.1541486     0.015196262
      4243.32       1.1621458     0.015167003
      4247.56       1.1633617     0.015139251
      4251.81       1.1624231     0.015113257
      4256.06       1.1573345     0.015265548
      4260.32       1.1535251     0.015065106
      4264.58       1.1449534     0.015036196
      4268.84       1.1356281     0.015008786
      4273.11       1.1300323     0.014983134
      4277.38       1.1142733     0.014967641
      4281.66       1.1072904     0.014937134
      4285.94       1.1034955     0.014908660
      4290.23       1.1044195     0.015073226
      4294.52       1.0878066     0.015501552
      4298.81       1.0764405     0.016073558
      4303.11       1.0705971     0.016812983
      4307.42       1.0533033     0.017837021
      4311.72       1.0361521     0.019443453
      4316.04       1.0162128     0.016197359
      4320.35       1.0117216     0.016882063
      4324.67       1.0106895     0.017748497
      4329.00       1.0017493     0.018899554
      4333.33      0.99726811     0.019804303
      4337.66       1.0003171     0.020746314
      4342.00       1.0127360     0.021376169
      4346.34       1.0269011     0.021400562
      4350.69       1.0241741     0.019813684
      4355.04       1.0358144     0.018656339
      4359.39       1.0515442     0.017517863
      4363.75       1.0655785     0.017152608
      4368.12       1.0785481     0.016036668
      4372.48       1.0971026     0.016020154
      4376.86       1.0988814     0.018058007
      4381.23       1.0989001     0.016395990
      4385.61       1.1066542     0.015542088
      4390.00       1.1125260     0.014940235
      4394.39       1.1108723     0.014493714
      4398.79       1.1089809     0.013984295
      4403.18       1.1079600     0.014118725
      4407.59       1.1016761     0.014099105
      4412.00       1.0961769     0.014082070
      4416.41       1.0991947     0.013900151
      4420.82       1.1045734     0.014034816
      4425.25       1.1027369     0.014016342
      4429.67       1.0993448     0.013840561
      4434.10       1.0990060     0.013818641
      4438.54       1.1106072     0.013954230
      4442.97       1.1223368     0.013783564
      4447.42       1.1283002     0.013760593
      4451.86       1.1377796     0.013740407
      4456.32       1.1484946     0.013728683
      4460.77       1.1564772     0.013704095
      4465.24       1.1642295     0.013682884
      4469.70       1.1711473     0.013664592
      4474.17       1.1769840     0.013648457
      4478.65       1.1791035     0.013626336
      4483.12       1.1819063     0.013607847
      4487.61       1.1831861     0.013594757
      4492.09       1.1822208     0.013571954
      4496.59       1.1817114     0.013552907
      4501.08       1.1894034     0.013394908
      4505.58       1.1829881     0.013519372
      4510.09       1.1752571     0.013500039
      4514.60       1.1694042     0.013342620
      4519.12       1.1620287     0.013467809
      4523.63       1.1581599     0.013306993
      4528.16       1.1506462     0.013291220
      4532.69       1.1409364     0.013416255
      4537.22       1.1417858     0.013256268
      4541.76       1.1414755     0.013241131
      4546.30       1.1400334     0.013366240
      4550.85       1.1422891     0.013207269
      4555.40       1.1429916     0.013192879
      4559.95       1.1385358     0.013182266
      4564.51       1.1460216     0.013160053
      4569.08       1.1466594     0.013146521
      4573.65       1.1519695     0.012990828
      4578.22       1.1533965     0.013114426
      4582.80       1.1505561     0.013101477
      4587.38       1.1512294     0.012945083
      4591.97       1.1414802     0.013069017
      4596.56       1.1388916     0.013057540
      4601.16       1.1350344     0.012900442
      4605.76       1.1254045     0.013025477
      4610.37       1.1246533     0.012874331
      4614.98       1.1200381     0.012996597
      4619.59       1.1183263     0.012984142
      4624.21       1.1227234     0.012831557
      4628.84       1.1190377     0.012955420
      4633.47       1.1112130     0.012807846
      4638.10       1.1038050     0.012790588
      4642.74       1.1001576     0.012915955
      4647.38       1.0965248     0.012766210
      4652.03       1.0995421     0.012751011
      4656.68       1.0966770     0.012743426
      4661.34       1.0939336     0.012726004
      4666.00       1.0847240     0.012585741
      4670.67       1.0756729     0.012703052
      4675.33       1.0682042     0.012688154
      4680.01       1.0625326     0.012681713
      4684.69       1.0653077     0.012664977
      4689.38       1.0718134     0.012526573
      4694.07       1.0613193     0.012643540
      4698.76       1.0470816     0.012503171
      4703.46       1.0343929     0.012623076
      4708.16       1.0274983     0.012607400
      4712.87       1.0311224     0.012471032
      4717.58       1.0261889     0.012586181
      4722.30       1.0276086     0.012448536
      4727.03       1.0261072     0.012566235
      4731.75       1.0251463     0.012427360
      4736.48       1.0179501     0.012419559
      4741.22       1.0129029     0.012407227
      4745.96       1.0067479     0.012398614
      4750.71      0.98960812     0.012388655
      4755.46      0.97601301     0.012378607
      4760.22      0.96633317     0.012374011
      4764.97      0.95616983     0.012359150
      4769.74      0.94570994     0.012353658
      4774.51      0.93838358     0.012340489
      4779.29      0.92951056     0.012333898
      4784.07      0.90838060     0.012322503
      4788.85      0.89343224     0.012315364
      4793.64      0.88691001     0.012305569
      4798.43      0.88745838     0.012297993
      4803.23      0.89696315     0.012296176
      4808.03      0.90037635     0.012694171
      4812.84      0.90211145     0.013080647
      4817.66      0.90232263     0.013819448
      4822.48      0.90151416     0.014690395
      4827.30      0.90444882     0.015759096
      4832.12      0.91136071     0.013434598
      4836.96      0.91924864     0.014188837
      4841.79      0.92091133     0.014530070
      4846.63      0.93673349     0.015848278
      4851.48      0.95097247     0.016461721
      4856.33      0.95897150     0.017452466
      4861.19      0.97080396     0.018033685
      4866.05      0.97848909     0.018047891
      4870.92      0.96177562     0.017509679
      4875.79      0.95304594     0.016083960
      4880.66      0.95245305     0.015581534
      4885.55      0.96485587     0.014280517
      4890.43      0.97480472     0.014048372
      4895.32      0.98510635     0.013305075
      4900.22      0.98639908     0.015540318
      4905.12      0.99825881     0.014445516
      4910.02       1.0039855     0.013545270
      4914.94       1.0023734     0.012805838
      4919.85       1.0004587     0.012412277
      4924.77      0.99861261     0.012007932
      4929.70       1.0052832     0.011882186
      4934.62       1.0062743     0.011878409
      4939.56       1.0088307     0.011873235
      4944.50       1.0024543     0.011870695
      4949.44       1.0249214     0.011864743
      4954.39       1.0099352     0.011863459
      4959.35      0.99523944     0.011856594
      4964.31      0.96620841     0.011736693
      4969.27      0.96319930     0.011849448
      4974.24      0.96959973     0.011847016
      4979.22      0.97244025     0.011843159
      4984.20      0.97568624     0.011840008
      4989.18      0.97562444     0.011838216
      4994.17      0.97719309     0.011833875
      4999.16      0.98125566     0.011715833
      5004.16      0.97647443     0.011828646
      5009.17      0.96626249     0.011709196
      5014.18      0.95943385     0.011824265
      5019.19      0.95322648     0.011703622
      5024.21      0.94645819     0.011705373
      5029.23      0.94380333     0.011817115
      5034.26      0.93885791     0.011699307
      5039.30      0.93756024     0.011703956
      5044.34      0.93616074     0.011694624
      5049.39      0.90507775     0.011697925
      5054.43      0.89222334     0.011691501
      5059.49      0.87739209     0.011693042
      5064.55      0.88465091     0.011698322
      5069.61      0.88342202     0.011689111
      5074.68      0.87811612     0.011692526
      5079.76      0.87147357     0.011579840
      5084.84      0.87171814     0.011688330
      5089.92      0.87407876     0.011579124
      5095.01      0.88418449     0.011579071
      5100.11      0.88422051     0.011689087
      5105.21      0.88567004     0.011578416
      5110.31      0.89118176     0.011686746
      5115.42      0.90334761     0.011580096
      5120.54      0.91252114     0.011579796
      5125.66      0.92047246     0.011689103
      5130.79      0.92771636     0.011581046
      5135.92      0.93797408     0.011581781
      5141.05      0.94482500     0.011691999
      5146.20      0.94686318     0.011583165
      5151.34      0.95480444     0.011584838
      5156.49      0.96161891     0.011587105
      5161.65      0.96369701     0.011586797
      5166.81      0.96583994     0.011589329
      5171.98      0.96891567     0.011482332
      5177.15      0.97290025     0.011591997
      5182.33      0.97721772     0.011595060
      5187.51      0.98433953     0.011488269
      5192.70      0.99275169     0.011598199
      5197.89      0.99101918     0.011488976
      5203.09      0.99368301     0.011494524
      5208.29      0.99787294     0.011604776
      5213.50       1.0046284     0.011495811
      5218.72       1.0069602     0.011501585
      5223.93       1.0042117     0.011509591
      5229.16       1.0099615     0.011504158
      5234.39       1.0183898     0.011509962
      5239.62       1.0198263     0.011517841
      5244.86       1.0244440     0.011513542
      5250.11       1.0382911     0.011519008
      5255.36       1.0377808     0.011526453
      5260.61       1.0451471     0.011423153
      5265.87       1.0531585     0.011528875
      5271.14       1.0652283     0.011535656
      5276.41       1.0736566     0.011434410
      5281.69       1.0801445     0.011439044
      5286.97       1.0908201     0.011546412
      5292.26       1.0907536     0.011554863
      5297.55       1.0888405     0.011452016
      5302.85       1.0915342     0.011457817
      5308.15       1.0937298     0.011566301
      5313.46       1.0918137     0.011466147
      5318.77       1.0921982     0.011471165
      5324.09       1.0834506     0.011477674
      5329.42       1.0809425     0.011481928
      5334.75       1.0807229     0.011486219
      5340.08       1.0699268     0.011491987
      5345.42       1.0687712     0.011499195
      5350.77       1.0646181     0.011503634
      5356.12       1.0544764     0.011508623
      5361.48       1.0565448     0.011514918
      5366.83       1.0510316     0.011522495
      5372.20       1.0436787     0.011422939
      5377.58       1.0351512     0.011532800
      5382.95       1.0234051     0.011539180
      5388.34       1.0092065     0.011438317
      5393.72      0.98993239     0.011446816
      5399.12      0.98264844     0.011456615
      5404.52      0.97232660     0.011564943
      5409.92      0.96655204     0.011463992
      5415.33      0.95429446     0.011472675
      5420.75      0.94340102     0.011482309
      5426.17      0.93143768     0.011492909
      5431.60      0.92730137     0.011600900
      5437.03      0.92736162     0.011500086
      5442.47      0.92701311     0.011509225
      5447.91      0.94354297     0.011519208
      5453.36      0.95315329     0.011530000
      5458.81      0.96610792     0.011432348
      5464.27      0.97598403     0.011537712
      5469.73      0.98099364     0.011547458
      5475.20      0.99358411     0.011557902
      5480.68       1.0033493     0.011569057
      5486.16       1.0097829     0.011472527
      5491.65       1.0226230     0.011481429
      5497.14       1.0433227     0.011490984
      5502.64       1.0540177     0.011598372
      5508.14       1.0617667     0.011609246
      5513.65       1.0715999     0.011514679
      5519.16       1.0791979     0.011523588
      5524.68       1.0849893     0.011533120
      5530.20       1.0906550     0.011543259
      5535.73       1.0936038     0.011554051
      5541.27       1.0928891     0.011560717
      5546.81       1.0877867     0.011569580
      5552.36       1.0793069     0.011578922
      5557.91       1.0640127     0.011588715
      5563.47       1.0476789     0.011598938
      5569.04       1.0324763     0.011609551
      5574.60       1.0166274     0.011514626
      5580.18       1.0122497     0.011526035
      5585.76       1.0134240     0.011538002
      5591.35       1.0069609     0.011647236
      5596.94       1.0206086     0.011657604
      5602.53       1.0314315     0.011668323
      5608.14       1.0411409     0.011572975
      5613.75       1.0495931     0.011584212
      5619.36       1.0686303     0.011595767
      5624.98       1.0863129     0.011607596
      5630.60       1.0894936     0.011619663
      5636.23       1.0818448     0.011631960
      5641.87       1.0657731     0.011644416
      5647.51       1.0480536     0.011657291
      5653.16       1.0248367     0.011563541
      5658.82      0.99427676     0.011575068
      5664.47      0.97276370     0.011681021
      5670.14      0.94293599     0.011693006
      5675.81      0.91893265     0.011705146
      5681.48      0.89756315     0.011717451
      5687.17      0.88429062     0.011729859
      5692.85      0.87449931     0.011742350
      5698.55      0.85318478     0.011755115
      5704.25      0.84895710     0.011665395
      5709.95      0.84243987     0.011677238
      5715.66      0.84642533     0.011689190
      5721.38      0.84899150     0.011701253
      5727.10      0.85053946     0.011713451
      5732.83      0.85410543     0.011725781
      5738.56      0.84553743     0.011738215
      5744.30      0.84667513     0.011750759
      5750.04      0.85185811     0.011763389
      5755.79      0.84930951     0.011776076
      5761.55      0.85143473     0.011788765
      5767.31      0.84510516     0.011801702
      5773.08      0.84531283     0.011814873
      5778.85      0.84667029     0.011723616
      5784.63      0.85277860     0.011736657
      5790.41      0.85953891     0.011749795
      5796.21      0.86462594     0.011763217
      5802.00      0.87894267     0.011777281
      5807.81      0.87983147     0.011989834
      5813.61      0.88994300     0.012394679
      5819.43      0.89985610     0.012843781
      5825.25      0.91787737     0.013594989
      5831.07      0.92599270     0.014422003
      5836.90      0.93763568     0.016158080
      5842.74      0.95117207     0.018161010
      5848.58      0.96015413     0.022830753
      5854.43      0.98585047     0.016996123
      5860.29       1.0026066     0.018077394
      5866.15       1.0054343     0.019571464
      5872.01       1.0123399     0.021291202
      5877.89       1.0091565     0.022916744
      5883.76       1.0075844     0.023940585
      5889.65       1.0315068     0.023415746
      5895.54       1.0323107     0.022072838
      5901.43       1.0342941     0.020473902
      5907.34       1.0455634     0.018980911
      5913.24       1.0549496     0.017795357
      5919.16       1.0643313     0.017566462
      5925.08       1.0763797     0.020446534
      5931.00       1.0808580     0.016959263
      5936.93       1.0799346     0.015448340
      5942.87       1.0848698     0.014112409
      5948.81       1.0827250     0.013435441
      5954.76       1.0768581     0.012831235
      5960.72       1.0779691     0.012436327
      5966.68       1.0784782     0.012008467
      5972.64       1.0789759     0.012016096
      5978.62       1.0862538     0.012025661
      5984.60       1.0833865     0.012033943
      5990.58       1.0805052     0.012041517
      5996.57       1.0661817     0.012050939
      6002.57       1.0548033     0.012062316
      6008.57       1.0405540     0.012074550
      6014.58       1.0353721     0.012191447
      6020.60       1.0292060     0.012112736
      6026.62       1.0261585     0.012125579
      6032.65       1.0200576     0.012138528
      6038.68       1.0162720     0.012151624
      6044.72       1.0085224     0.012165022
      6050.76       1.0018290     0.012178761
      6056.81       1.0113808     0.012192815
      6062.87       1.0052866     0.012115314
      6068.93       1.0072665     0.012129857
      6075.00       1.0123830     0.012144761
      6081.08       1.0106082     0.012159916
      6087.16       1.0099743     0.012275237
      6093.25       1.0088769     0.012288878
      6099.34      0.99641352     0.012210229
      6105.44      0.99620636     0.012224371
      6111.54      0.98341945     0.012238840
      6117.66      0.97172234     0.012253634
      6123.78      0.96969455     0.012268766
      6129.90      0.96687413     0.012284406
      6136.03      0.96496614     0.012203441
      6142.17      0.97274120     0.012319568
      6148.31      0.98062217     0.012333898
      6154.46      0.99229303     0.012348664
      6160.61       1.0077927     0.012363886
      6166.77       1.0187265     0.012284837
      6172.94       1.0505133     0.012298141
      6179.11       1.0719387     0.012312085
      6185.29       1.1159472     0.012430619
      6191.48       1.1513524     0.012450301
      6197.67       1.2042420     0.012378549
      6203.87       1.2609677     0.012390548
      6210.07       1.3056958     0.012404873
      6216.28       1.3561943     0.012426475
      6222.50       1.4117212     0.012367538
      6228.72       1.4487637     0.012508124
      6234.95       1.4683829     0.012547075
      6241.19       1.4923343     0.012589025
      6247.42       1.5176880     0.012631443
      6253.67       1.5406392     0.012580596
      6259.93       1.5593482     0.012721748
      6266.19       1.5671016     0.012744520
      6272.46       1.5736997     0.012759012
      6278.73       1.5647902     0.012669757
      6285.01       1.5511824     0.012668986
      6291.29       1.5437420     0.012757704
      6297.58       1.5453031     0.012652085
      6303.88       1.5389296     0.012646106
      6310.19       1.5256553     0.012648082
      6316.50       1.5198081     0.012655112
      6322.81       1.5147699     0.012657088
      6329.14       1.4915465     0.012658921
      6335.47       1.4630311     0.012665419
      6341.80       1.4350112     0.012577848
      6348.14       1.3985308     0.012583711
      6354.49       1.3526955     0.012692461
      6360.85       1.3259477     0.012702620
      6367.21       1.2972876     0.012617721
      6373.57       1.2616565     0.012628016
      6379.95       1.2389317     0.012742295
      6386.33       1.2197488     0.012662719
      6392.72       1.2010250     0.012674776
      6399.11       1.1717697     0.012688197
      6405.51       1.1686027     0.012714373
      6411.92       1.1589341     0.012728855
      6418.32       1.1485926     0.011047118
      6424.74       1.1409649     0.011005510
      6431.17       1.1317501     0.011089123
      6437.60       1.1200902     0.011106440
      6444.04       1.0998104     0.011065723
      6450.48       1.0856882     0.011149310
      6456.94       1.0752144     0.011164044
      6463.39       1.0620240     0.011307367
      6469.85       1.0505255     0.011565378
      6476.33       1.0310891     0.011927919
      6482.80       1.0198351     0.012266210
      6489.28       1.0099941     0.012799907
      6495.77      0.99311908     0.013488436
      6502.27      0.97619404     0.014242643
      6508.77      0.95672192     0.015683276
      6515.28      0.93900057     0.013017850
      6521.80      0.93162462     0.013128383
      6528.32      0.92221840     0.013623196
      6534.85      0.90885319     0.014293167
      6541.38      0.89621907     0.015002000
      6547.92      0.90653618     0.015749738
      6554.47      0.92084547     0.016552809
      6561.03      0.88649851     0.017145544
      6567.59      0.87791415     0.017676383
      6574.16      0.86270782     0.017570166
      6580.73      0.86376323     0.017256023
      6587.31      0.87194371     0.016553725
      6593.90      0.85748113     0.015790440
      6600.50      0.85167075     0.015077579
      6607.10      0.84506018     0.014425934
      6613.70      0.83324519     0.013781025
      6620.32      0.82386812     0.013307045
      6626.94      0.81179711     0.013146399
      6633.57      0.79927544     0.015723531
      6640.20      0.78691243     0.014800341
      6646.84      0.77419173     0.014390166
      6653.49      0.76109736     0.014313529
      6660.14      0.74763468     0.014529669
      6666.80      0.73009055     0.012132604
      6673.47      0.71752854     0.012289997
      6680.14      0.70552557     0.012512911
      6686.82      0.69359473     0.012921035
      6693.51      0.68936763     0.013320805
      6700.20      0.68616321     0.013898315
      6706.90      0.67308527     0.014488333
      6713.61      0.64874885     0.015049607
      6720.32      0.61756362     0.015496457
      6727.05      0.60264832     0.015834783
      6733.77      0.60539448     0.015613247
      6740.51      0.62682058     0.015471926
      6747.25      0.64983713     0.014858699
      6754.00      0.65799637     0.014553134
      6760.75      0.66204729     0.013952471
      6767.51      0.65999168     0.013635766
      6774.28      0.65363528     0.013013890
      6781.05      0.65209271     0.012615294
      6787.84      0.65150303     0.012553158
      6794.62      0.66010436     0.012922451
      6801.42      0.67365972     0.014350837
      6808.22      0.68018141     0.013747638
      6815.03      0.67125697     0.013373195
      6821.85      0.65939675     0.013011628
      6828.67      0.64465936     0.012731291
      6835.50      0.63335402     0.012481665
      6842.33      0.62465345     0.012395123
      6849.17      0.61276853     0.012421739
      6856.02      0.60493514     0.012414261
      6862.88      0.59509448     0.012530386
      6869.74      0.58933771     0.012471256
      6876.61      0.57737832     0.012524823
      6883.49      0.56882219     0.012411571
      6890.37      0.57014116     0.012401590
      6897.27      0.57633327     0.012252232
      6904.16      0.59285878     0.012141297
      6911.07      0.60574204     0.012060653
      6917.98      0.61852470     0.011970708
      6924.89      0.62409610     0.011932358
      6931.82      0.62609942     0.011920999
      6938.75      0.63762710     0.011844270
      6945.69      0.66866017     0.013663287
      6952.64      0.68394972     0.013547798
      6959.59      0.69442412     0.013537243
      6966.55      0.69029850     0.013628301
      6973.52      0.68831555     0.013539043
      6980.49      0.69457516     0.013642566
      6987.47      0.70386832     0.013552861
      6994.46      0.70842388     0.013558113
      7001.46      0.71334715     0.013552054
      7008.46      0.72324585     0.013545053
      7015.46      0.72916443     0.013445710
      7022.48      0.73714017     0.013531901
      7029.51      0.73833946     0.013532815
      7036.53      0.73588448     0.013436423
      7043.57      0.74665185     0.013524965
      7050.62      0.75418846     0.013432456
      7057.66      0.75950495     0.013433940
      7064.72      0.74966272     0.013529813
      7071.79      0.74989631     0.013450454
      7078.86      0.77250718     0.013473763
      7085.94      0.78481181     0.013492230
      7093.03      0.80465615     0.013518384
      7100.12      0.81839527     0.013552622
      7107.22      0.83514229     0.013589595
      7114.33      0.85359295     0.013662295
      7121.44      0.85807291     0.013671091
      7128.56      0.89013377     0.016861890
      7135.69      0.90304352     0.017119104
      7142.83      0.89862304     0.017432404
      7149.97      0.89940608     0.017672911
      7157.12      0.89854082     0.017937927
      7164.28      0.86584452     0.018062174
      7171.44      0.84076588     0.018029148
      7178.62      0.81948173     0.017874492
      7185.80      0.86159183     0.017717114
      7192.98      0.91164850     0.017461630
      7200.17      0.95874887     0.017626372
      7207.38       1.0178147     0.017687175
      7214.58       1.0886898     0.017583066
      7221.80       1.1601254     0.017655661
      7229.02       1.2211373     0.017834669
      7236.25       1.2825941     0.017614470
      7243.49       1.3362685     0.017570129
      7250.73       1.3617609     0.017540209
      7257.98       1.3677656     0.017500117
      7265.24       1.3573581     0.017444760
      7272.51       1.3280518     0.017366461
      7279.78       1.3034514     0.017269489
      7287.06       1.2884906     0.017168614
      7294.35       1.2682823     0.017053141
      7301.64       1.2550272     0.016934786
      7308.94       1.2300923     0.016843042
      7316.25       1.2073125     0.016774389
      7323.57       1.1801569     0.016728119
      7330.89       1.1533989     0.016701703
      7338.22       1.1321621     0.016512882
      7345.56       1.1079346     0.016485049
      7352.91       1.0848946     0.016620311
      7360.26       1.0634907     0.016594421
      7367.62       1.0518604     0.016573119
      7374.99       1.0521062     0.016388041
      7382.37       1.0672687     0.016369034
      7389.75       1.0722669     0.016353195
      7397.14       1.0737081     0.016498619
      7404.53       1.0647986     0.016329828
      7411.94       1.0366522     0.016321087
      7419.35       1.0211039     0.016314523
      7426.77       1.0110421     0.016310237
      7434.20      0.99846672     0.016309092
      7441.63      0.97905736     0.016306021
      7449.07      0.94784533     0.016302386
      7456.52      0.92795767     0.016300328
      7463.98      0.91402981     0.016299285
      7471.45      0.89574865     0.016299058
      7478.92      0.87043421     0.016135737
      7486.40      0.84902464     0.016136548
      7493.88      0.81878620     0.016293668
      7501.38      0.78120686     0.016290974
      7508.88      0.76747672     0.016302059
      7516.39      0.74755413     0.016395804
      7523.91      0.71810430     0.016420851
      7531.43      0.69013869     0.016601121
      7538.96      0.66278765     0.016712447
      7546.50      0.64136068     0.017373081
      7554.05      0.61857586     0.018719558
      7561.60      0.58656458     0.020603622
      7569.16      0.55412034     0.022791913
      7576.73      0.52680813     0.024808378
      7584.31      0.49592288     0.027065539
      7591.89      0.46835016     0.028225585
      7599.49      0.49721801     0.027792554
      7607.09      0.52457746     0.026155771
      7614.70      0.54457807     0.024139281
      7622.31      0.58207010     0.022320350
      7629.93      0.61350181     0.020646008
      7637.56      0.63534698     0.019215814
      7645.20      0.65997608     0.018097127
      7652.85      0.71331400     0.017350204
      7660.50      0.75764100     0.016836978
      7668.16      0.81946980     0.016469705
      7675.83      0.89138105     0.016214487
      7683.50      0.95905959     0.016044887
      7691.19       1.0583825     0.015935948
      7698.88       1.1555278     0.015867668
      7706.58       1.2368710     0.015825180
      7714.29       1.3092325     0.015797571
      7722.00       1.3561873     0.015776728
      7729.73       1.3807555     0.015759159
      7737.45       1.3792033     0.015744422
      7745.19       1.3626640     0.015730863
      7752.94       1.3258547     0.015566920
      7760.69       1.2747083     0.015553323
      7768.45       1.2382141     0.015539043
      7776.22       1.1871952     0.015524885
      7784.00       1.1536992     0.015510582
      7791.78       1.1346859     0.015495470
      7799.57       1.1170528     0.015479624
      7807.37       1.1142328     0.015464522
      7815.18       1.1019220     0.015451952
      7822.99       1.0932844     0.015441352
      7830.82       1.0820213     0.015434422
      7838.65       1.0581999     0.015433318
      7846.49       1.0233754     0.015435978
      7854.34      0.99000469     0.015437881
      7862.19      0.96415581     0.015435831
      7870.05      0.94695664     0.015428423
      7877.93      0.93076685     0.015414071
      7885.80      0.91997333     0.015389395
      7893.69      0.90632117     0.015215697
      7901.58      0.88438638     0.015183242
      7909.49      0.86099852     0.015159389
      7917.40      0.83810745     0.015284093
      7925.31      0.80533053     0.015267639
      7933.24      0.76974187     0.015249690
      7941.17      0.74044215     0.015230732
      7949.11      0.70043497     0.015209109
      7957.06      0.67433390     0.015183538
      7965.02      0.66723327     0.015022717
      7972.98      0.64997883     0.015002225
      7980.96      0.64273916     0.014985215
      7988.94      0.63414421     0.014963028
      7996.93      0.61815316     0.010278352
      8004.93      0.59962759     0.010178569
      8012.93      0.58471189     0.010126908
      8020.95      0.56921142     0.010071081
      8028.97      0.56400588    0.0099771081
      8036.99      0.55706406    0.0098889339
      8045.03      0.54477457    0.0098499742
      8053.08      0.53287481    0.0097785018
      8061.13      0.52399314    0.0097180429
      8069.20      0.51971729    0.0097218296
      8077.26      0.51104031    0.0096944151
      8085.34      0.50212827    0.0096865252
      8093.43      0.50374683    0.0096349115
      8101.52      0.49908361    0.0095905681
      8109.62      0.49566318    0.0095905454
      8117.73      0.48688244    0.0095480946
      8125.85      0.49561580    0.0094966199
      8133.98      0.47674961    0.0095058292
      8142.11      0.47268320    0.0095836243
      8150.25      0.46602946    0.0097499078
      8158.41      0.45972916    0.0099180999
      8166.56      0.45270664     0.010098951
      8174.73      0.44633230     0.010359033
      8182.91      0.44061494     0.010685969
      8191.09      0.43579082     0.011087426
      8199.28      0.42357340     0.011521840
      8207.48      0.41237197     0.012245520
      8215.69      0.40187049     0.013105856
      8223.91      0.38563243     0.014087007
      8232.13      0.37037752     0.015522052
      8240.36      0.34940400     0.017663491
