# starting wavelength =        3266.2000
# ending wavelength =        7797.0800
# O2 telluric scale =        0
# O2 telluric shift =        0
# H2O telluric scale =        0
# H2O telluric shift =        0
      3268.93      0.33095900     0.026884868
      3272.20      0.33679901     0.022925526
      3275.47      0.34156062     0.019232627
      3278.75      0.34669794     0.017180566
      3282.03      0.35144877     0.014923834
      3285.31      0.35372416     0.013456168
      3288.60      0.35052951     0.012499713
      3291.88      0.35334238     0.011439272
      3295.18      0.35741462     0.010757207
      3298.47      0.36186507     0.010293521
      3301.77      0.37211676    0.0097850056
      3305.07      0.38094598    0.0094748361
      3308.38      0.38606425    0.0091985929
      3311.69      0.38109767    0.0089248685
      3315.00      0.38230498    0.0087301143
      3318.31      0.38191393    0.0085315547
      3321.63      0.38560272    0.0084083033
      3324.95      0.39044570    0.0082666051
      3328.28      0.38990310    0.0081687448
      3331.61      0.38870030    0.0081446396
      3334.94      0.39458300    0.0081615084
      3338.27      0.40992845    0.0081370225
      3341.61      0.41799158    0.0081127590
      3344.95      0.43075985    0.0080885791
      3348.30      0.44809609    0.0081057514
      3351.65      0.45679168    0.0080815849
      3355.00      0.46919797    0.0080575851
      3358.35      0.47559476    0.0080335296
      3361.71      0.48740531    0.0080520363
      3365.07      0.50465116    0.0080277854
      3368.44      0.51300605    0.0080382705
      3371.81      0.53013797    0.0080143801
      3375.18      0.54502048    0.0080325767
      3378.56      0.55684398    0.0080084323
      3381.94      0.57428478    0.0079843222
      3385.32      0.60188816    0.0079602777
      3388.70      0.62826773    0.0079363855
      3392.09      0.64521384    0.0079545203
      3395.48      0.66840309    0.0079666287
      3398.88      0.69038357    0.0079426634
      3402.28      0.71103915    0.0079187836
      3405.68      0.73382909    0.0078950313
      3409.09      0.76044543    0.0079137524
      3412.49      0.78521972    0.0078899097
      3415.91      0.80421212    0.0078661799
      3419.32      0.82702603    0.0078788712
      3422.74      0.83717743    0.0078551583
      3426.17      0.84727122    0.0078745662
      3429.59      0.85847012    0.0078507277
      3433.02      0.87064424    0.0078271185
      3436.45      0.87993386    0.0078034200
      3439.89      0.88425557    0.0078167657
      3443.33      0.88711550    0.0078368419
      3446.78      0.89275366    0.0078131143
      3450.22      0.89666401    0.0077895176
      3453.67      0.89532132    0.0077659135
      3457.13      0.88927184    0.0077800160
      3460.58      0.88305249    0.0077564773
      3464.04      0.87586840    0.0077770680
      3467.51      0.86930045    0.0077534751
      3470.98      0.86038230    0.0077299561
      3474.45      0.84816177    0.0077449044
      3477.92      0.84162121    0.0077213835
      3481.40      0.83633114    0.0076978797
      3484.88      0.82893737    0.0076745114
      3488.37      0.82212092    0.0076957642
      3491.86      0.81626342    0.0077115269
      3495.35      0.81345623    0.0076881694
      3498.84      0.80963735    0.0076647339
      3502.34      0.80831326    0.0076415404
      3505.84      0.80477332    0.0076574132
      3509.35      0.80477724    0.0076338519
      3512.86      0.80621112    0.0076570323
      3516.37      0.80407113    0.0076338626
      3519.89      0.80656314    0.0076494073
      3523.41      0.81058782    0.0076259480
      3526.93      0.81173678    0.0076025775
      3530.46      0.81350206    0.0076199586
      3533.99      0.81461775    0.0075966472
      3537.53      0.81776449    0.0075733482
      3541.06      0.82028499    0.0075502687
      3544.60      0.82499836    0.0076154422
      3548.15      0.82866539    0.0075922927
      3551.70      0.82823278    0.0075692136
      3555.25      0.82719645    0.0075873548
      3558.80      0.82455837    0.0075638607
      3562.36      0.82077651    0.0075404145
      3565.92      0.81506825    0.0075171862
      3569.49      0.81050168    0.0075363254
      3573.06      0.80314747    0.0075132359
      3576.64      0.79605666    0.0074902944
      3580.21      0.78658386    0.0075592055
      3583.79      0.77717896    0.0075363348
      3587.38      0.76574366    0.0075134308
      3590.96      0.75578141    0.0075326153
      3594.55      0.74855214    0.0075093137
      3598.15      0.74160751    0.0074860866
      3601.75      0.73514879    0.0075075944
      3605.35      0.73237808    0.0074847110
      3608.96      0.72958133    0.0075066566
      3612.56      0.73275053    0.0074829463
      3616.18      0.73731607    0.0074594293
      3619.79      0.74538792    0.0074819011
      3623.41      0.76053580    0.0074587051
      3627.04      0.77783431    0.0074358284
      3630.66      0.79691432    0.0074591376
      3634.29      0.81691396    0.0074887659
      3637.93      0.83735325    0.0075116464
      3641.57      0.85927837    0.0074880186
      3645.21      0.88389506    0.0074648535
      3648.86      0.91241484    0.0074903062
      3652.50      0.94604418    0.0074674896
      3656.16      0.98268914    0.0074921974
      3659.81       1.0135838    0.0074684704
      3663.47       1.0427749    0.0074452720
      3667.14       1.0696089    0.0074720441
      3670.80       1.0857472    0.0074494026
      3674.48       1.0994496    0.0074755452
      3678.15       1.1023333    0.0074518381
      3681.83       1.0938934    0.0074799370
      3685.51       1.0757233    0.0074568860
      3689.20       1.0478168    0.0074341691
      3692.88       1.0099407    0.0074615135
      3696.58      0.96458310    0.0074378342
      3700.27      0.91600740    0.0074675925
      3703.98      0.86131078    0.0074447634
      3707.68      0.79754595    0.0074743606
      3711.39      0.73903900    0.0074501565
      3715.10      0.67498550    0.0074817138
      3718.81      0.62346692    0.0074586853
      3722.53      0.57918126    0.0074363250
      3726.26      0.54194824    0.0074063915
      3729.98      0.51346750    0.0073829707
      3733.71      0.48731221    0.0073604162
      3737.45      0.46605125    0.0073383636
      3741.18      0.45129216    0.0072548639
      3744.93      0.43857792    0.0072855013
      3748.67      0.43004292    0.0072631118
      3752.42      0.42597839    0.0071818324
      3756.17      0.42345095    0.0071587113
      3759.93      0.42380172    0.0071892481
      3763.69      0.42145985    0.0071098041
      3767.45      0.42289705    0.0070865874
      3771.22      0.42857892    0.0070641322
      3774.99      0.43416177    0.0070385548
      3778.77      0.44025885    0.0070150890
      3782.54      0.45014588    0.0069925850
      3786.33      0.45995186    0.0069166117
      3790.11      0.46981759    0.0069444884
      3793.90      0.47962167    0.0069218022
      3797.70      0.48951858    0.0068463576
      3801.50      0.50439297    0.0068743071
      3805.30      0.51818973    0.0068515543
      3809.10      0.53781199    0.0067768626
      3812.91      0.55731710    0.0067562902
      3816.73      0.58098259    0.0067822012
      3820.54      0.60832180    0.0067081632
      3824.36      0.63962837    0.0066877930
      3828.19      0.67127364    0.0067134980
      3832.02      0.70477804    0.0066400579
      3835.85      0.74181333    0.0066200462
      3839.68      0.78549613    0.0065935459
      3843.52      0.83246395    0.0065727745
      3847.37      0.87954963    0.0065531855
      3851.22      0.93386230    0.0065266003
      3855.07      0.98969038    0.0065063258
      3858.92       1.0498080    0.0064351744
      3862.78       1.1117184    0.0064602892
      3866.64       1.1792870    0.0064405508
      3870.51       1.2516783    0.0063696279
      3874.38       1.3266630    0.0063948009
      3878.26       1.4002226    0.0063255787
      3882.13       1.4715032    0.0063047881
      3886.02       1.5397990    0.0063301993
      3889.90       1.6042024    0.0062608754
      3893.79       1.6600920    0.0062409198
      3897.69       1.7047742    0.0062176428
      3901.59       1.7414574    0.0061971904
      3905.49       1.7693852    0.0061310642
      3909.39       1.7949659    0.0061539349
      3913.30       1.8153049    0.0060877792
      3917.22       1.8305902    0.0061112464
      3921.13       1.8452148    0.0060911768
      3925.06       1.8593376    0.0060264979
      3928.98       1.8651028    0.0060486299
      3932.91       1.8686362    0.0059840359
      3936.84       1.8714368    0.0060065134
      3940.78       1.8739802    0.0059420186
      3944.72       1.8786891    0.0059242238
      3948.67       1.8832719    0.0059003940
      3952.61       1.8913121    0.0058823751
      3956.57       1.9017223    0.0058590816
      3960.52       1.9096179    0.0058409338
      3964.48       1.9170358    0.0057780995
      3968.45       1.9196688    0.0057998714
      3972.42       1.9239981    0.0057378210
      3976.39       1.9261384    0.0057593449
      3980.37       1.9269008    0.0056978890
      3984.35       1.9282227    0.0057190589
      3988.33       1.9225972    0.0056582255
      3992.32       1.9141726    0.0056401024
      3996.31       1.9027263    0.0056188297
      4000.31       1.8824996    0.0056007158
      4004.31       1.8515585    0.0055797333
      4008.31       1.8177321    0.0055616082
      4012.32       1.7785484    0.0055408432
      4016.33       1.7383333    0.0055228082
      4020.35       1.6938348    0.0055022524
      4024.37       1.6530732    0.0054844581
      4028.40       1.6140563    0.0054639561
      4032.42       1.5762403    0.0054062544
      4036.46       1.5388905    0.0054258787
      4040.50       1.5070203    0.0053687566
      4044.54       1.4771431    0.0053880928
      4048.58       1.4533178    0.0053315267
      4052.63       1.4285138    0.0053506112
      4056.68       1.4037668    0.0052946701
      4060.74       1.3815900    0.0053134040
      4064.80       1.3543250    0.0052580911
      4068.86       1.3293100    0.0052377433
      4072.93       1.3082522    0.0052220139
      4077.01       1.2876693    0.0052015306
      4081.08       1.2656160    0.0051863183
      4085.17       1.2443042    0.0051657183
      4089.25       1.2222294    0.0051117908
      4093.34       1.2029044    0.0051302394
      4097.43       1.1850177    0.0050764560
      4101.53       1.1724742    0.0050951624
      4105.63       1.1633323    0.0050414598
      4109.74       1.1572246    0.0050227124
      4113.85       1.1542947    0.0050405962
      4117.96       1.1550867    0.0049879456
      4122.08       1.1587029    0.0049699829
      4126.20       1.1633168    0.0049536789
      4130.33       1.1671138    0.0049353900
      4134.46       1.1688487    0.0049198722
      4138.59       1.1732229    0.0049013021
      4142.73       1.1741678    0.0048515232
      4146.88       1.1783604    0.0048677457
      4151.02       1.1834173    0.0048498210
      4155.18       1.1855965    0.0048000867
      4159.33       1.1851755    0.0048164272
      4163.49       1.1854979    0.0047680035
      4167.65       1.1866302    0.0047495355
      4171.82       1.1894311    0.0047660030
      4175.99       1.1930851    0.0047177216
      4180.17       1.1975153    0.0046997181
      4184.35       1.2014202    0.0046865582
      4188.54       1.2051142    0.0046681996
      4192.72       1.2078843    0.0046504855
      4196.92       1.2112064    0.0046033077
      4201.11       1.2137136    0.0046195060
      4205.31       1.2169880    0.0046020105
      4209.52       1.2165384    0.0045554366
      4213.73       1.2164099    0.0045714107
      4217.94       1.2154627    0.0045246763
      4222.16       1.2146002    0.0045080966
      4226.38       1.2134337    0.0044920945
      4230.61       1.2107488    0.0044778541
      4234.84       1.2086385    0.0044614731
      4239.08       1.2084683    0.0044455636
      4243.32       1.2114590    0.0044317651
      4247.56       1.2140724    0.0044154996
      4251.81       1.2176914    0.0043996266
      4256.06       1.2231376    0.0043558324
      4260.32       1.2279083    0.0043702312
      4264.58       1.2323787    0.0043544878
      4268.84       1.2370912    0.0043116014
      4273.11       1.2423493    0.0042955672
      4277.38       1.2493707    0.0043099280
      4281.66       1.2572125    0.0042945392
      4285.94       1.2651732    0.0042521284
      4290.23       1.2716473    0.0042364721
      4294.52       1.2743249    0.0042212755
      4298.81       1.2754496    0.0042095848
      4303.11       1.2728822    0.0041939979
      4307.42       1.2668594    0.0041786949
      4311.72       1.2568337    0.0041637815
      4316.04       1.2404572    0.0041227731
      4320.35       1.2228514    0.0041371548
      4324.67       1.1998496    0.0041221045
      4329.00       1.1720038    0.0040814145
      4333.33       1.1426952    0.0040670537
      4337.66       1.1095906    0.0040529337
      4342.00       1.0750182    0.0040668350
      4346.34       1.0395008    0.0040266118
      4350.69       1.0036743    0.0040124403
      4355.04      0.96997048    0.0039985206
      4359.39      0.94092545    0.0039848550
      4363.75      0.91637220    0.0039462072
      4368.12      0.89440206    0.0039591523
      4372.48      0.87679931    0.0039453008
      4376.86      0.86253362    0.0039316878
      4381.23      0.85199900    0.0039182788
      4385.61      0.84359977    0.0038806491
      4390.00      0.83968820    0.0038670971
      4394.39      0.83850602    0.0038536695
      4398.79      0.83892785    0.0038404054
      4403.18      0.84303098    0.0038534834
      4407.59      0.84589008    0.0038171478
      4412.00      0.85211248    0.0038038149
      4416.41      0.85941623    0.0037907382
      4420.82      0.86755534    0.0037777662
      4425.25      0.87978349    0.0037649302
      4429.67      0.89564601    0.0037290437
      4434.10      0.91311026    0.0037165828
      4438.54      0.93442185    0.0037042150
      4442.97      0.95979382    0.0037171241
      4447.42      0.98810894    0.0037045489
      4451.86       1.0191811    0.0036921082
      4456.32       1.0556043    0.0036570040
      4460.77       1.0941913    0.0036448350
      4465.24       1.1310702    0.0036327937
      4469.70       1.1685383    0.0036208629
      4474.17       1.2073050    0.0036090163
      4478.65       1.2436377    0.0035973277
      4483.12       1.2784080    0.0035857156
      4487.61       1.3115929    0.0035524530
      4492.09       1.3410386    0.0035407531
      4496.59       1.3740827    0.0035292140
      4501.08       1.4065487    0.0035177475
      4505.58       1.4396237    0.0035064311
      4510.09       1.4750862    0.0034951073
      4514.60       1.5089948    0.0034839321
      4519.12       1.5390955    0.0034728202
      4523.63       1.5692256    0.0034618483
      4528.16       1.5997905    0.0034509035
      4532.69       1.6278954    0.0034192750
      4537.22       1.6558781    0.0034085594
      4541.76       1.6856333    0.0033979044
      4546.30       1.7101491    0.0033872725
      4550.85       1.7330299    0.0033767700
      4555.40       1.7545103    0.0033662846
      4559.95       1.7732932    0.0033559253
      4564.51       1.7875492    0.0033455773
      4569.08       1.8001023    0.0033353419
      4573.65       1.8105061    0.0033251863
      4578.22       1.8178010    0.0033151005
      4582.80       1.8247158    0.0033050249
      4587.38       1.8267535    0.0032950573
      4591.97       1.8269524    0.0032851911
      4596.56       1.8244696    0.0032753326
      4601.16       1.8163824    0.0032655290
      4605.76       1.8049714    0.0032557616
      4610.37       1.7950921    0.0032461083
      4614.98       1.7834097    0.0032364641
      4619.59       1.7693814    0.0032269329
      4624.21       1.7534413    0.0032174175
      4628.84       1.7374083    0.0032080651
      4633.47       1.7210315    0.0031987095
      4638.10       1.7041317    0.0031690691
      4642.74       1.6874066    0.0031599345
      4647.38       1.6693737    0.0031509186
      4652.03       1.6506189    0.0031419114
      4656.68       1.6319286    0.0031330366
      4661.34       1.6132536    0.0031241911
      4666.00       1.5921497    0.0031154656
      4670.67       1.5689246    0.0031067576
      4675.33       1.5442036    0.0030981780
      4680.01       1.5201422    0.0030896345
      4684.69       1.4937025    0.0030616271
      4689.38       1.4646185    0.0030531024
      4694.07       1.4356293    0.0030446952
      4698.76       1.4063173    0.0030363537
      4703.46       1.3726393    0.0030281610
      4708.16       1.3373391    0.0030199806
      4712.87       1.2995717    0.0030119644
      4717.58       1.2593777    0.0029852709
      4722.30       1.2183013    0.0029774947
      4727.03       1.1753902    0.0029697245
      4731.75       1.1336908    0.0029621262
      4736.48       1.0902391    0.0029713520
      4741.22       1.0496308    0.0029635890
      4745.96       1.0114088    0.0029375602
      4750.71      0.97807647    0.0029300920
      4755.46      0.94923085    0.0029226947
      4760.22      0.92684969    0.0029154470
      4764.97      0.91168766    0.0029082971
      4769.74      0.90548931    0.0028828040
      4774.51      0.90420590    0.0028755882
      4779.29      0.91127571    0.0028852850
      4784.07      0.92332669    0.0028782683
      4788.85      0.93910123    0.0028714079
      4793.64      0.95641046    0.0028466881
      4798.43      0.97473945    0.0028397304
      4803.23      0.99066575    0.0028328743
      4808.03       1.0008458    0.0028261661
      4812.84       1.0036580    0.0028189046
      4817.66       1.0017910    0.0028120638
      4822.48      0.99806560    0.0028053811
      4827.30      0.98960684    0.0027988825
      4832.12      0.97699449    0.0027756369
      4836.96      0.96268215    0.0027694612
      4841.79      0.94636712    0.0027790460
      4846.63      0.93383872    0.0027726628
      4851.48      0.92466743    0.0027498183
      4856.33      0.92121773    0.0027438208
      4861.19      0.92481602    0.0027380216
      4866.05      0.93451652    0.0027474585
      4870.92      0.95531126    0.0027249786
      4875.79      0.98224907    0.0027192158
      4880.66       1.0164826    0.0027136299
      4885.55       1.0561320    0.0026913848
      4890.43       1.1011302    0.0027011525
      4895.32       1.1462806    0.0026956676
      4900.22       1.1906366    0.0026739882
      4905.12       1.2301361    0.0026684071
      4910.02       1.2703222    0.0026783907
      4914.94       1.3072212    0.0026571684
      4919.85       1.3355199    0.0026516607
      4924.77       1.3544525    0.0026463757
      4929.70       1.3648479    0.0026408713
      4934.62       1.3643047    0.0026354964
      4939.56       1.3549027    0.0026303141
      4944.50       1.3348843    0.0026100063
      4949.44       1.3055256    0.0026198747
      4954.39       1.2696404    0.0026148374
      4959.35       1.2265695    0.0025947836
      4964.31       1.1831611    0.0025902709
      4969.27       1.1387671    0.0025998864
      4974.24       1.0938174    0.0025800961
      4979.22       1.0515200    0.0025757426
      4984.20       1.0110808    0.0025703209
      4989.18      0.97662334    0.0025659016
      4994.17      0.94653553    0.0025617505
      4999.16      0.92135001    0.0025565025
      5004.16      0.90688765    0.0025522689
      5009.17      0.90205691    0.0025331644
      5014.18      0.90482674    0.0025432276
      5019.19      0.91392143    0.0025245590
      5024.21      0.92678008    0.0025202481
      5029.23      0.94280345    0.0025305174
      5034.26      0.96287678    0.0025118795
      5039.30      0.98478970    0.0025078297
      5044.34       1.0079922    0.0025038146
      5049.39       1.0328132    0.0024997050
      5054.43       1.0578084    0.0024817751
      5059.49       1.0825990    0.0024919134
      5064.55       1.1048376    0.0024881652
      5069.61       1.1244235    0.0024706256
      5074.68       1.1406542    0.0024806292
      5079.76       1.1526887    0.0024631306
      5084.84       1.1603680    0.0024733420
      5089.92       1.1666406    0.0024559130
      5095.01       1.1709635    0.0024528778
      5100.11       1.1718839    0.0024489543
      5105.21       1.1724145    0.0024459308
      5110.31       1.1701070    0.0024422286
      5115.42       1.1661967    0.0024392214
      5120.54       1.1608533    0.0024222013
      5125.66       1.1568831    0.0024327899
      5130.79       1.1551998    0.0024159847
      5135.92       1.1546400    0.0024265822
      5141.05       1.1555642    0.0024099544
      5146.20       1.1614187    0.0024206113
      5151.34       1.1692906    0.0024040984
      5156.49       1.1812919    0.0024015071
      5161.65       1.1973206    0.0023984600
      5166.81       1.2170539    0.0023826614
      5171.98       1.2388278    0.0023930254
      5177.15       1.2636799    0.0023774017
      5182.33       1.2905168    0.0023878119
      5187.51       1.3190141    0.0023723357
      5192.70       1.3486857    0.0023828087
      5197.89       1.3782258    0.0023675080
      5203.09       1.4095683    0.0023649554
      5208.29       1.4377395    0.0023629084
      5213.50       1.4641538    0.0023604202
      5218.72       1.4889531    0.0023584996
      5223.93       1.5132181    0.0023560610
      5229.16       1.5339128    0.0023410454
      5234.39       1.5530353    0.0023518971
      5239.62       1.5704734    0.0023369320
      5244.86       1.5872254    0.0023479922
      5250.11       1.6011040    0.0023330654
      5255.36       1.6138939    0.0023313200
      5260.61       1.6248484    0.0023422653
      5265.87       1.6330263    0.0023276709
      5271.14       1.6415098    0.0023262242
      5276.41       1.6484435    0.0023242226
      5281.69       1.6524201    0.0023227473
      5286.97       1.6542871    0.0023086240
      5292.26       1.6558718    0.0023195236
      5297.55       1.6548925    0.0023057226
      5302.85       1.6515957    0.0023041856
      5308.15       1.6451515    0.0023152903
      5313.46       1.6351655    0.0023015419
      5318.77       1.6236377    0.0023002489
      5324.09       1.6116658    0.0022991783
      5329.42       1.5972294    0.0022978386
      5334.75       1.5847387    0.0022967074
      5340.08       1.5716901    0.0022956970
      5345.42       1.5566332    0.0022945092
      5350.77       1.5424246    0.0022811192
      5356.12       1.5292732    0.0022803240
      5361.48       1.5165825    0.0022915681
      5366.83       1.5059590    0.0022783361
      5372.20       1.4985875    0.0022776838
      5377.58       1.4914352    0.0022891034
      5382.95       1.4857284    0.0022759856
      5388.34       1.4811786    0.0022754086
      5393.72       1.4797731    0.0022750196
      5399.12       1.4784146    0.0022739918
      5404.52       1.4772939    0.0022735103
      5409.92       1.4776404    0.0022731869
      5415.33       1.4765097    0.0022606188
      5420.75       1.4770364    0.0022601925
      5426.17       1.4768899    0.0022717158
      5431.60       1.4760584    0.0022594450
      5437.03       1.4755559    0.0022591162
      5442.47       1.4744674    0.0022589134
      5447.91       1.4718432    0.0022587505
      5453.36       1.4684138    0.0022584547
      5458.81       1.4637471    0.0022582846
      5464.27       1.4577102    0.0022462080
      5469.73       1.4523839    0.0022462608
      5475.20       1.4448816    0.0022464230
      5480.68       1.4363911    0.0022580750
      5486.16       1.4269245    0.0022461273
      5491.65       1.4146071    0.0022463051
      5497.14       1.4031130    0.0022465526
      5502.64       1.3914200    0.0022469449
      5508.14       1.3790468    0.0022353346
      5513.65       1.3669152    0.0022469711
      5519.16       1.3543715    0.0022473465
      5524.68       1.3429012    0.0022477899
      5530.20       1.3314424    0.0022365753
      5535.73       1.3195270    0.0022369454
      5541.27       1.3102831    0.0022373962
      5546.81       1.3018266    0.0022379185
      5552.36       1.2922590    0.0022385136
      5557.91       1.2835913    0.0022389951
      5563.47       1.2773908    0.0022395067
      5569.04       1.2714552    0.0022401058
      5574.60       1.2660335    0.0022407507
      5580.18       1.2592215    0.0022414799
      5585.76       1.2539036    0.0022304914
      5591.35       1.2474928    0.0022312902
      5596.94       1.2408560    0.0022321828
      5602.53       1.2348723    0.0022330891
      5608.14       1.2280670    0.0022340429
      5613.75       1.2183477    0.0022350814
      5619.36       1.2078785    0.0022361236
      5624.98       1.1982551    0.0022253955
      5630.60       1.1878445    0.0022263978
      5636.23       1.1753356    0.0022384485
      5641.87       1.1636691    0.0022395370
      5647.51       1.1509962    0.0022406658
      5653.16       1.1355462    0.0022418510
      5658.82       1.1205593    0.0022430415
      5664.47       1.1061868    0.0022442726
      5670.14       1.0923477    0.0022341451
      5675.81       1.0782387    0.0022353720
      5681.48       1.0637607    0.0022366538
      5687.17       1.0487243    0.0022379277
      5692.85       1.0343757    0.0022392600
      5698.55       1.0219513    0.0022406304
      5704.25       1.0101822    0.0022420058
      5709.95      0.99908665    0.0022434332
      5715.66      0.98875847    0.0022339836
      5721.38      0.97882215    0.0022354584
      5727.10      0.97439723    0.0022369731
      5732.83      0.97170076    0.0022384922
      5738.56      0.97201029    0.0022400537
      5744.30      0.97340662    0.0022301191
      5750.04      0.97925627    0.0022317109
      5755.79      0.98625737    0.0022333265
      5761.55      0.99477748    0.0022349728
      5767.31       1.0065458    0.0022366584
      5773.08       1.0194131    0.0022383526
      5778.85       1.0327422    0.0022400596
      5784.63       1.0463505    0.0022418057
      5790.41       1.0573426    0.0022435833
      5796.21       1.0674741    0.0022343907
      5802.00       1.0770153    0.0022361647
      5807.81       1.0841104    0.0022380366
      5813.61       1.0906585    0.0022400606
      5819.43       1.0957250    0.0023030443
      5825.25       1.0986458    0.0023782949
      5831.07       1.0992553    0.0024877705
      5836.90       1.1011459    0.0026403477
      5842.74       1.0973513    0.0024313848
      5848.58       1.0957471    0.0023846189
      5854.43       1.0929008    0.0024677074
      5860.29       1.0903363    0.0025912709
      5866.15       1.0863441    0.0027376885
      5872.01       1.0820776    0.0028922123
      5877.89       1.0837299    0.0030094210
      5883.76       1.0828363    0.0031019616
      5889.65       1.0793734    0.0030922753
      5895.54       1.0775157    0.0029931641
      5901.43       1.0744911    0.0028593008
      5907.34       1.0710253    0.0027101589
      5913.24       1.0680170    0.0025798448
      5919.16       1.0637659    0.0024824749
      5925.08       1.0612316    0.0024323718
      5931.00       1.0586458    0.0028191525
      5936.93       1.0550130    0.0026249479
      5942.87       1.0507309    0.0025011954
      5948.81       1.0468592    0.0024002094
      5954.76       1.0424273    0.0023291623
      5960.72       1.0374777    0.0022823992
      5966.68       1.0328384    0.0022831291
      5972.64       1.0283806    0.0022835644
      5978.62       1.0247327    0.0022842217
      5984.60       1.0225229    0.0022748683
      5990.58       1.0225687    0.0022763051
      5996.57       1.0201924    0.0022775566
      6002.57       1.0185087    0.0022895846
      6008.57       1.0190333    0.0022805466
      6014.58       1.0197941    0.0022823718
      6020.60       1.0211067    0.0022843609
      6026.62       1.0230390    0.0022756437
      6032.65       1.0257041    0.0022889442
      6038.68       1.0302449    0.0022911845
      6044.72       1.0337517    0.0022828474
      6050.76       1.0368062    0.0022849525
      6056.81       1.0404251    0.0022984596
      6062.87       1.0449442    0.0022902786
      6068.93       1.0483913    0.0022924085
      6075.00       1.0527488    0.0022946429
      6081.08       1.0585752    0.0022978724
      6087.16       1.0640012    0.0022999685
      6093.25       1.0680888    0.0023021670
      6099.34       1.0713640    0.0022941419
      6105.44       1.0733729    0.0023075330
      6111.54       1.0717946    0.0022993205
      6117.66       1.0661685    0.0023016392
      6123.78       1.0575232    0.0023040477
      6129.90       1.0445143    0.0023068326
      6136.03       1.0271749    0.0023091693
      6142.17       1.0055052    0.0023009877
      6148.31      0.98041236    0.0023143373
      6154.46      0.95474331    0.0023166977
      6160.61      0.92465854    0.0023084054
      6166.77      0.89588513    0.0023218477
      6172.94      0.86909672    0.0023137114
      6179.11      0.84539906    0.0023158072
      6185.29      0.82483683    0.0023190164
      6191.48      0.81139784    0.0023210929
      6197.67      0.80318936    0.0023235843
      6203.87      0.80051725    0.0023278633
      6210.07      0.80275773    0.0023307916
      6216.28      0.80817270    0.0023225855
      6222.50      0.81643222    0.0023360589
      6228.72      0.82435127    0.0023298692
      6234.95      0.83479412    0.0023350767
      6241.19      0.84739008    0.0023425097
      6247.42      0.86018769    0.0023497029
      6253.67      0.87291219    0.0023586627
      6259.93      0.88653266    0.0023659969
      6266.19      0.89949733    0.0023622662
      6272.46      0.91449455    0.0023792134
      6278.73      0.92909823    0.0023721965
      6285.01      0.94461250    0.0023855968
      6291.29      0.95987234    0.0023746603
      6297.58      0.97686756    0.0023735778
      6303.88      0.99416434    0.0023711821
      6310.19       1.0121206    0.0023689981
      6316.50       1.0292466    0.0023674337
      6322.81       1.0456894    0.0023569439
      6329.14       1.0616147    0.0023679187
      6335.47       1.0738803    0.0023568246
      6341.80       1.0853079    0.0023568713
      6348.14       1.0944297    0.0023574338
      6354.49       1.1015096    0.0023582287
      6360.85       1.1041791    0.0023590697
      6367.21       1.1045668    0.0023602249
      6373.57       1.1007382    0.0023509194
      6379.95       1.0951996    0.0023629066
      6386.33       1.0874195    0.0023539058
      6392.72       1.0796659    0.0023664140
      6399.11       1.0703927    0.0023576777
      6405.51       1.0610434    0.0023601432
      6411.92       1.0524638    0.0023617764
      6418.32       1.0440113    0.0023644441
      6424.74       1.0356116    0.0023677019
      6431.17       1.0299455    0.0023703125
      6437.60       1.0275856    0.0023748359
      6444.04       1.0290156    0.0023683872
      6450.48       1.0305191    0.0023825525
      6456.94       1.0316006    0.0023753457
      6463.39       1.0348833    0.0023789029
      6469.85       1.0386292    0.0023817587
      6476.33       1.0409718    0.0023843830
      6482.80       1.0406626    0.0023863608
      6489.28       1.0404860    0.0023978991
      6495.77       1.0384887    0.0024710218
      6502.27       1.0361832    0.0025621805
      6508.77       1.0331681    0.0026828595
      6515.28       1.0279049    0.0024425005
      6521.80       1.0246555    0.0024409232
      6528.32       1.0218549    0.0025042949
      6534.85       1.0191556    0.0025961936
      6541.38       1.0146097    0.0026883256
      6547.92       1.0099928    0.0028004790
      6554.47       1.0087310    0.0028867514
      6561.03       1.0075183    0.0029260776
      6567.59       1.0056977    0.0029130438
      6574.16      0.99990961    0.0028649820
      6580.73      0.99440458    0.0027578932
      6587.31      0.98892645    0.0026575950
      6593.90      0.98383376    0.0025611742
      6600.50      0.97716450    0.0024683909
      6607.10      0.96938140    0.0024249172
      6613.70      0.96078938    0.0024557322
      6620.32      0.94889034    0.0026501159
      6626.94      0.94017618    0.0025340592
      6633.57      0.93189483    0.0024456171
      6640.20      0.92363049    0.0023753755
      6646.84      0.91547517    0.0023758378
      6653.49      0.90836429    0.0023768576
      6660.14      0.90343247    0.0023778545
      6666.80      0.89391992    0.0023788549
      6673.47      0.88845933    0.0023694446
      6680.14      0.88478184    0.0023702239
      6686.82      0.88103967    0.0023709974
      6693.51      0.87836190    0.0023717213
      6700.20      0.87600037    0.0023724238
      6706.90      0.87372508    0.0023729075
      6713.61      0.87173770    0.0023734085
      6720.32      0.87025246    0.0023738942
      6727.05      0.86725046    0.0023743391
      6733.77      0.86354936    0.0023747625
      6740.51      0.85947049    0.0023648299
      6747.25      0.85548052    0.0023651489
      6754.00      0.85276256    0.0023654412
      6760.75      0.84874663    0.0023656834
      6767.51      0.84375621    0.0023658744
      6774.28      0.83987402    0.0023661675
      6781.05      0.83501452    0.0023579194
      6787.84      0.83052403    0.0024117263
      6794.62      0.82437134    0.0024902564
      6801.42      0.82179982    0.0025920332
      6808.22      0.81779656    0.0027312698
      6815.03      0.81329298    0.0029350532
      6821.85      0.80923317    0.0028802187
      6828.67      0.80514660    0.0026936418
      6835.50      0.80166067    0.0027769193
      6842.33      0.79918385    0.0029406902
      6849.17      0.79604329    0.0031412624
      6856.02      0.79233303    0.0033578447
      6862.88      0.79083603    0.0035535603
      6869.74      0.78756045    0.0037281467
      6876.61      0.78052483    0.0036482876
      6883.49      0.77712503    0.0034829176
      6890.37      0.77337715    0.0032746763
      6897.27      0.77225517    0.0030682694
      6904.16      0.77197647    0.0028924948
      6911.07      0.77150793    0.0027715025
      6917.98      0.77011170    0.0029156283
      6924.89      0.76936830    0.0030111294
      6931.82      0.76762933    0.0027773437
      6938.75      0.76582364    0.0026197097
      6945.69      0.76412630    0.0025065893
      6952.64      0.76057733    0.0024207304
      6959.59      0.75614385    0.0023620352
      6966.55      0.75364767    0.0023551714
      6973.52      0.75297590    0.0023500831
      6980.49      0.75201860    0.0023368188
      6987.47      0.74946497    0.0023340578
      6994.46      0.74714782    0.0023316011
      7001.46      0.74298529    0.0023285971
      7008.46      0.73977448    0.0023247736
      7015.46      0.73859273    0.0023200527
      7022.48      0.73636105    0.0023049547
      7029.51      0.73502200    0.0022997073
      7036.53      0.73363007    0.0022949442
      7043.57      0.73262684    0.0022904748
      7050.62      0.73079546    0.0022858065
      7057.66      0.73147460    0.0022713521
      7064.72      0.73234517    0.0022759070
      7071.79      0.73370931    0.0022718022
      7078.86      0.73334373    0.0022683159
      7085.94      0.73232585    0.0022571667
      7093.03      0.73639223    0.0022560332
      7100.12      0.74193248    0.0022550580
      7107.22      0.75027934    0.0022545710
      7114.33      0.75818566    0.0022467350
      7121.44      0.76727806    0.0022594882
      7128.56      0.77500658    0.0022668893
      7135.69      0.78347655    0.0022796238
      7142.83      0.79408728    0.0022903088
      7149.97      0.80658501    0.0023118408
      7157.12      0.81780799    0.0023320429
      7164.28      0.82608828    0.0023490203
      7171.44      0.83255666    0.0023573022
      7178.62      0.83623499    0.0023603689
      7185.80      0.84065354    0.0023487284
      7192.98      0.84747572    0.0023433688
      7200.17      0.84903777    0.0023432459
      7207.38      0.84735439    0.0023223244
      7214.58      0.84547843    0.0023128667
      7221.80      0.84354202    0.0023064209
      7229.02      0.84561755    0.0023025807
      7236.25      0.84515654    0.0022993109
      7243.49      0.84316521    0.0022852211
      7250.73      0.83844309    0.0022789391
      7257.98      0.83336319    0.0022777134
      7265.24      0.82798537    0.0022539064
      7272.51      0.82669195    0.0022385065
      7279.78      0.82651434    0.0022236389
      7287.06      0.82573688    0.0022065827
      7294.35      0.81997911    0.0021908023
      7301.64      0.81148195    0.0021632477
      7308.94      0.80343878    0.0021528346
      7316.25      0.79435944    0.0021261300
      7323.57      0.78840043    0.0021105136
      7330.89      0.78200799    0.0020944320
      7338.22      0.77599557    0.0020809582
      7345.56      0.77080573    0.0020600552
      7352.91      0.76679986    0.0020337726
      7360.26      0.76385290    0.0020068499
      7367.62      0.76291875    0.0019823884
      7374.99      0.76160467    0.0019504308
      7382.37      0.75871556    0.0019328759
      7389.75      0.75385470    0.0019020590
      7397.14      0.75038248    0.0018724831
      7404.53      0.74550428    0.0018565629
      7411.94      0.73822702    0.0018287012
      7419.35      0.72900019    0.0018084955
      7426.77      0.71557170    0.0017874449
      7434.20      0.69649718    0.0017618445
      7441.63      0.67571714    0.0017428651
      7449.07      0.65088461    0.0017230758
      7456.52      0.62385416    0.0017047378
      7463.98      0.59448565    0.0016810914
      7471.45      0.56399742    0.0016624709
      7478.92      0.53569407    0.0016436529
      7486.40      0.51285917    0.0016408905
      7493.88      0.49114014    0.0016461837
      7501.38      0.46672364    0.0016325386
      7508.88      0.43921227    0.0016096806
      7516.39      0.42231961    0.0015902283
      7523.91      0.40816889    0.0015780175
      7531.43      0.39624860    0.0015821093
      7538.96      0.39250200    0.0015966502
      7546.50      0.39304273    0.0016194188
      7554.05      0.39770089    0.0016569057
      7561.60      0.40549416    0.0016916741
      7569.16      0.41575961    0.0017307936
      7576.73      0.43075115    0.0017586283
      7584.31      0.45279812    0.0017747006
      7591.89      0.47967278    0.0017877361
      7599.49      0.50776027    0.0017791922
      7607.09      0.53760411    0.0017619229
      7614.70      0.56439615    0.0017334364
      7622.31      0.58917919    0.0016910949
      7629.93      0.61145008    0.0016378400
      7637.56      0.63357557    0.0015798221
      7645.20      0.65283202    0.0015221912
      7652.85      0.66882583    0.0014650225
      7660.50      0.68405358    0.0014092754
      7668.16      0.69988326    0.0013679930
      7675.83      0.71394546    0.0013669322
      7683.50      0.72699721    0.0013707691
      7691.19      0.73919326    0.0013751327
      7698.88      0.75056858    0.0013872658
      7706.58      0.76059811    0.0014193739
      7714.29      0.76931754    0.0014750217
      7722.00      0.77525835    0.0015575443
      7729.73      0.77673951    0.0016559537
      7737.45      0.77982489    0.0017745333
      7745.19      0.78279249    0.0018896662
      7752.94      0.78830918    0.0020449862
      7760.69      0.79260759    0.0022680479
      7768.45      0.79495117    0.0025715541
      7776.22      0.79789132    0.0028783693
      7784.00      0.80124167    0.0032290142
      7791.78      0.80203918    0.0037018004
