# starting wavelength =        3850.5068
# ending wavelength =        9200.0400
# O2 telluric scale =        0
# O2 telluric shift =        0
# H2O telluric scale =        0
# H2O telluric shift =        0
      3851.22      -3.5305921      -1.9815624
      3855.07      -2.9956459      -1.9750090
      3858.92      -3.5525548      -1.9684881
      3862.78      -3.5441680      -1.9619321
      3866.64      -3.5727225      -1.9553972
      3870.51      -4.2824886      -1.9488663
      3874.38      -3.8979394      -1.9423189
      3878.26      -3.7293140      -1.9357889
      3882.13      -4.0410641      -1.9293437
      3886.02      -4.2159746      -1.9229303
      3889.90      -4.5627786      -1.9164826
      3893.79      -4.4829956      -1.9100555
      3897.69      -4.4187231      -1.9036349
      3901.59      -4.5456520      -1.8972002
      3905.49      -3.1275031      -1.8907831
      3909.39      -2.9902536      -1.8609039
      3913.30      -2.3562074      -1.8546323
      3917.22      -2.2319168      -1.8483945
      3921.13      -2.5607334      -1.8421851
      3925.06      -1.8504062      -1.8359458
      3928.98      -1.5713046      -1.8297410
      3932.91      -1.6832541      -1.8235624
      3936.84      -1.9093127      -1.8174749
      3940.78      -2.1184040      -1.8113540
      3944.72      -3.0134416      -1.8052735
      3948.67      -3.8742027      -1.7992277
      3952.61      -4.0226691      -1.7931531
      3956.57      -4.2341392      -1.7871273
      3960.52      -4.0503102      -1.7811362
      3964.48      -4.3112941      -1.7751847
      3968.45      -3.5733578      -1.7692975
      3972.42      -3.3835697      -1.7634490
      3976.39      -3.1426802      -1.7576404
      3980.37      -2.3353311      -1.7283306
      3984.35      -2.9176321      -1.7222858
      3988.33      -1.9932972      -1.7367412
      3992.32      -1.2142631      -1.7307212
      3996.31     -0.67876244      -1.7248061
      4000.31     0.039175620      -1.7188617
      4004.31     -0.26700974      -1.7129672
      4008.31     -0.26007463      -1.7071161
      4012.32     -0.51397666      -1.7012550
      4016.33     -0.56750063      -1.6955014
      4020.35     -0.89800819      -1.6897708
      4024.37      -1.0674167      -1.6629798
      4028.40     -0.68371280      -1.6570453
      4032.42     -0.36101262      -1.6511108
      4036.46     0.055753709      -1.6452824
      4040.50     -0.49286578      -1.6394630
      4044.54     -0.86697154      -1.6336468
      4048.58      -1.3100897      -1.6279466
      4052.63      -1.8288671      -1.6223509
      4056.68      -2.0879057      -1.6167563
      4060.74      -3.0856700      -1.6303362
      4064.80      -2.5827695      -1.6049566
      4068.86      -2.5817142      -1.5990795
      4072.93      -2.2544908      -1.5932261
      4077.01      -2.6645422      -1.5874839
      4081.08      -2.7592881      -1.5817712
      4085.17      -2.6528395      -1.5761794
      4089.25      -2.1699826      -1.5706236
      4093.34      -2.0499902      -1.5650929
      4097.43      -1.7804082      -1.5409508
      4101.53      -1.5339424      -1.5356780
      4105.63      -1.6079252      -1.5305196
      4109.74      -2.0364860      -1.5422563
      4113.85      -2.9914378      -1.5365886
      4117.96      -3.4608055      -1.5310576
      4122.08      -3.2121204      -1.5255811
      4126.20      -2.9088897      -1.5019024
      4130.33      -3.3909903      -1.4966935
      4134.46      -3.8756888      -1.4915776
      4138.59      -3.8490562      -1.4865609
      4142.73      -3.6866588      -1.4816166
      4146.88      -3.8291182      -1.4922571
      4151.02      -3.4088576      -1.4689721
      4155.18      -3.3142929      -1.4637388
      4159.33      -3.0034875      -1.4586510
      4163.49      -3.1431238      -1.4536370
      4167.65      -2.7017964      -1.4487328
      4171.82      -2.8834463      -1.4439548
      4175.99      -2.5779555      -1.4207090
      4180.17      -2.5891361      -1.4314929
      4184.35      -3.3947452      -1.4264240
      4188.54      -3.7422705      -1.4214773
      4192.72      -3.7832529      -1.4166607
      4196.92      -3.1917124      -1.4119461
      4201.11      -2.8274078      -1.3893443
      4205.31      -3.3847966      -1.3842732
      4209.52      -3.5666238      -1.3948475
      4213.73      -3.7674073      -1.3899990
      4217.94      -3.3162321      -1.3853007
      4222.16      -3.5298317      -1.3635720
      4226.38      -3.1243400      -1.3584987
      4230.61      -2.4202447      -1.3535753
      4234.84      -1.2766289      -1.3639417
      4239.08      -1.3676389      -1.3592245
      4243.32      -1.0606114      -1.3381563
      4247.56     -0.74206391      -1.3331101
      4251.81     -0.94283118      -1.3282189
      4256.06      -1.4689912      -1.3234927
      4260.32      -1.7237174      -1.3182243
      4264.58      -2.4634179      -1.3130403
      4268.84      -2.5341242      -1.3080659
      4273.11      -2.7325600      -1.3032370
      4277.38      -3.1809742      -1.2986225
      4281.66      -3.1573272      -1.2792194
      4285.94      -3.4518495      -1.2883461
      4290.23      -3.6321154      -1.2834604
      4294.52      -3.6122675      -1.2787529
      4298.81      -3.8971211      -1.2595273
      4303.11      -3.8361549      -1.2552402
      4307.42      -3.7063864      -1.2639514
      4311.72      -3.4720689      -1.2592041
      4316.04      -3.4514820      -1.2401804
      4320.35      -3.7451842      -1.2358716
      4324.67      -3.1583756      -1.2317281
      4329.00      -2.8408413      -1.2399316
      4333.33      -2.3593429      -1.2211402
      4337.66      -2.2017160      -1.2168847
      4342.00      -1.6871647      -1.2128077
      4346.34      -1.8077876      -1.2209907
      4350.69      -1.8869542      -1.2024176
      4355.04      -1.8700829      -1.1981935
      4359.39      -1.6280182      -1.1941708
      4363.75      -1.3578151      -1.1757895
      4368.12      -1.1373457      -1.1839873
      4372.48      -1.4076694      -1.1797896
      4376.86      -1.6116276      -1.1758468
      4381.23      -2.3077731      -1.1576772
      4385.61      -2.2927736      -1.1657892
      4390.00      -2.5828705      -1.1617232
      4394.39      -3.0389585      -1.1578638
      4398.79      -3.3018445      -1.1398774
      4403.18      -2.9022844      -1.1478976
      4407.59      -2.2156206      -1.1439483
      4412.00      -1.7910108      -1.1265494
      4416.41      -1.5379352      -1.1223297
      4420.82      -1.5547904      -1.1302957
      4425.25     -0.74942960      -1.1134420
      4429.67     -0.62321566      -1.1091464
      4434.10     -0.56166206      -1.1050825
      4438.54    -0.017217518      -1.1005229
      4442.97      0.36136363      -1.0961536
      4447.42      0.55813099      -1.0920408
      4451.86      0.18477851      -1.0881961
      4456.32     -0.38850220      -1.0833522
      4460.77     -0.36674400      -1.0791865
      4465.24     -0.17292068      -1.0752935
      4469.70      0.56676041      -1.0706864
      4474.17      0.11399029      -1.0665126
      4478.65     -0.33325528      -1.0626194
      4483.12     -0.65660596       1.0472354
      4487.61     -0.37023004      -1.0539987
      4492.09     -0.35572130       1.0500827
      4496.59     -0.65873961       1.0348576
      4501.08     -0.48502779       1.0416248
      4505.58    -0.095166252       1.0377389
      4510.09       1.1386177       1.0226602
      4514.60       1.3638869       1.0293859
      4519.12      0.98753002       1.0141433
      4523.63       1.3737904       1.0106278
      4528.16       1.2173515       1.0073966
      4532.69       1.8344066       1.0022378
      4537.22       1.7212489      0.99877991
      4541.76       2.4229269      0.99562652
      4546.30       3.3933205      0.99049009
      4550.85       3.3879780      0.98711484
      4555.40       3.9435578      0.98401928
      4559.95       4.0019270      0.97889517
      4564.51       3.7559289      0.97560516
      4569.08       3.8487832      0.96115914
      4573.65       3.6720678      0.96747539
      4578.22       3.2180512      0.96430273
      4582.80       2.0631149      0.94990310
      4587.38       1.6538396      0.95622367
      4591.97       1.7544464      0.94232647
      4596.56       1.3971814      0.93882247
      4601.16      0.92218217      0.94517143
      4605.76     -0.10615411      0.93128402
      4610.37     0.090997873     -0.93738975
      4614.98     -0.60033677     -0.92396052
      4619.59     -0.45656492     -0.92041301
      4624.21      -1.0262161     -0.92658510
      4628.84     -0.82252083     -0.91311439
      4633.47      -1.2789034     -0.90976637
      4638.10      -1.6568253     -0.90596838
      4642.74      -1.2736795     -0.90245835
      4647.38      -1.3969703     -0.89928115
      4652.03      -2.0865524     -0.89530822
      4656.68      -2.3345166     -0.89201920
      4661.34      -3.4862515     -0.88832495
      4666.00      -3.6656953     -0.88490045
      4670.67      -3.7368029     -0.87244043
      4675.33      -3.5272235     -0.87793637
      4680.01      -3.4259000     -0.87473493
      4684.69      -3.2029211     -0.87107809
      4689.38      -3.3442267     -0.86779084
      4694.07      -3.6128936     -0.85565984
      4698.76      -3.3634615     -0.86095755
      4703.46      -3.4577984     -0.84879744
      4708.16      -2.9167490     -0.85422870
      4712.87      -2.5894727     -0.84204249
      4717.58      -2.0067001     -0.83934890
      4722.30      -2.1211036     -0.83540809
      4727.03      -1.8131467     -0.83263360
      4731.75      -1.3238577     -0.83780014
      4736.48      -1.2528446     -0.82603939
      4741.22     -0.92435189     -0.82356996
      4745.96     -0.82702433     -0.81954483
      4750.71     -0.97928221     -0.81703310
      4755.46     -0.72883617     -0.81313132
      4760.22     -0.71855051     -0.81056898
      4764.97      -1.0355563     -0.80681151
      4769.74      -1.5189972     -0.80421697
      4774.51      -2.0384456     -0.79281614
      4779.29      -2.8085559     -0.79795325
      4784.07      -3.2089288     -0.78670761
      4788.85      -3.1314585     -0.79177053
      4793.64      -3.2165449     -0.78068721
      4798.43      -3.1391541     -0.78568685
      4803.23      -3.4392640     -0.77474192
      4808.03      -3.1855091     -0.77965691
      4812.84      -3.1131093     -0.76883889
      4817.66      -2.6969071     -0.77372186
      4822.48      -2.2348920     -0.76301736
      4827.30      -2.1242335     -0.76040557
      4832.12      -1.8007740     -0.75727535
      4836.96      -1.8086857     -0.75465990
      4841.79      -1.8764150     -0.75157823
      4846.63      -1.8801367     -0.74898981
      4851.48      -2.2509912     -0.74595748
      4856.33      -2.4463799     -0.74340298
      4861.19      -2.6533814     -0.74038217
      4866.05      -2.5149560     -0.73033734
      4870.92      -2.4042000     -0.73488395
      4875.79      -2.0372812     -0.72495671
      4880.66      -1.7497231     -0.72945474
      4885.55      -1.9918382     -0.71964735
      4890.43      -2.0104210     -0.72409189
      4895.32      -2.3258976     -0.71440449
      4900.22      -1.8952820     -0.71879558
      4905.12      -2.4598644     -0.70923061
      4910.02      -2.5511087     -0.71356749
      4914.94      -2.4034057     -0.70415277
      4919.85      -2.3754384     -0.70119768
      4924.77      -2.3003106     -0.69914743
      4929.70      -3.0205260     -0.69618697
      4934.62      -2.9871062     -0.69422205
      4939.56      -3.2435050     -0.69125165
      4944.50      -3.6349907     -0.68938756
      4949.44      -3.7758014     -0.68638950
      4954.39      -3.6377429     -0.67729084
      4959.35      -2.9328987     -0.68161247
      4964.31      -2.1468352     -0.67254570
      4969.27      -1.3771125     -0.67694867
      4974.24     -0.71302071     -0.67418432
      4979.22     -0.19365842     -0.66539126
      4984.20      0.10365335     -0.66955843
      4989.18      0.11617970      0.66077141
      4994.17      0.70282383      0.66504282
      4999.16      0.56646841      0.65624570
      5004.16       1.1367568      0.65393251
      5009.17       1.4500616      0.65180295
      5014.18       1.7398267      0.64944175
      5019.19       1.7129786      0.65360761
      5024.21       1.3046615      0.64506682
      5029.23       1.7582816      0.64288305
      5034.26       1.3157213      0.64077954
      5039.30      0.90887018      0.63853232
      5044.34      0.11826076      0.63662056
      5049.39     0.033211658      0.63431002
      5054.43      0.10412210      0.63221015
      5059.49     -0.21657101     -0.63019242
      5064.55     -0.73810369     -0.62801711
      5069.61      -1.1205996     -0.62009921
      5074.68      -1.8354388     -0.62395458
      5079.76      -2.4164187      0.61630011
      5084.84      -2.2572498     -0.61400512
      5089.92      -1.8649103     -0.61790920
      5095.01      -2.1346080     -0.61026100
      5100.11      -1.9183853     -0.60808162
      5105.21      -2.0688341     -0.61204627
      5110.31      -2.1061024     -0.60442471
      5115.42      -1.9358909     -0.60234490
      5120.54      -2.3046970     -0.60089322
      5125.66      -2.0028522     -0.59873448
      5130.79      -1.8299187     -0.59675201
      5135.92      -1.8704239     -0.59530086
      5141.05      -1.9585024     -0.59322315
      5146.20      -1.4532260     -0.58592415
      5151.34      -1.3484457     -0.58987584
      5156.49      -1.1659024     -0.58787599
      5161.65      -1.2774217     -0.58069691
      5166.81      -1.0425664     -0.58463739
      5171.98     -0.65856911     -0.58269803
      5177.15    -0.026090157     -0.57560082
      5182.33      0.32576605     -0.57954391
      5187.51     -0.30190545     -0.57767017
      5192.70      -1.0658258     -0.57066741
      5197.89      -1.4382368     -0.56905643
      5203.09      -1.7566879     -0.57279038
      5208.29      -1.8569400     -0.56586290
      5213.50      -1.7759471     -0.56428827
      5218.72      -2.1988813     -0.56808299
      5223.93      -1.8436337     -0.56122400
      5229.16      -2.1474105     -0.55967511
      5234.39      -1.8616249     -0.55824229
      5239.62      -1.4877395     -0.55673017
      5244.86      -1.6185013     -0.55521416
      5250.11      -1.6148247     -0.55379957
      5255.36      -1.9025248     -0.54729684
      5260.61      -1.8829785     -0.55089865
      5265.87      -1.3348594     -0.54949191
      5271.14     -0.76222113     -0.54318843
      5276.41     -0.81070673     -0.54170842
      5281.69      -1.2465591     -0.54536312
      5286.97     -0.86376231     -0.53924942
      5292.26     -0.12239588     -0.53777708
      5297.55    -0.044908531     -0.53640334
      5302.85      0.31505447     -0.54009851
      5308.15      0.23195214     -0.53405264
      5313.46      0.12989115     -0.53266969
      5318.77   -0.0018978539     -0.53136824
      5324.09      0.24051697     -0.53051026
      5329.42     -0.33283095     -0.52913531
      5334.75    0.0083282375     -0.52783493
      5340.08     -0.96299564     -0.52660976
      5345.42      -1.1576404     -0.52077317
      5350.77      -1.4747246     -0.52449960
      5356.12      -1.4334803     -0.52327288
      5361.48     -0.83060702     -0.52211368
      5366.83     -0.58049568     -0.51636781
      5372.20    -0.019825465     -0.52015147
      5377.58    -0.053670030      0.51897980
      5382.95      0.70910055     -0.51787907
      5388.34      0.93693839      0.51221363
      5393.72       1.3395324      0.51123499
      5399.12       1.4818929      0.51031192
      5404.52       1.5848175      0.51391535
      5409.92       1.5298811      0.50831775
      5415.33       1.8722486      0.50738486
      5420.75       1.9713760      0.50650242
      5426.17       2.4622185      0.50566959
      5431.60       2.4477040      0.50471057
      5437.03       2.4745710      0.50380710
      5442.47       1.5329488      0.50295858
      5447.91       1.2952334      0.50215504
      5453.36      0.53303622      0.50139593
      5458.81      0.54456470      0.49612846
      5464.27      0.34593251      0.49531922
      5469.73      0.40845968      0.49892421
      5475.20      0.90288958      0.49818817
      5480.68      0.94350182      0.49320603
      5486.16       1.6456877      0.49241026
      5491.65       2.0018089      0.49167070
      5497.14       2.0022001      0.49096794
      5502.64       2.4473746      0.49030158
      5508.14       2.6534451      0.49398452
      5513.65       3.4607207      0.48913615
      5519.16       3.9524822      0.48845247
      5524.68       4.1188046      0.48780786
      5530.20       5.1258370      0.48719673
      5535.73       5.8122934      0.48661808
      5541.27       5.0476449      0.48181474
      5546.81       3.7278970      0.48130209
      5552.36       4.2823345      0.48510150
      5557.91       3.8611048      0.48454164
      5563.47       3.0735064      0.48401160
      5569.04       3.6217070      0.48351003
      5574.60       4.2749855      0.47879879
      5580.18       3.8748733      0.47836362
      5585.76       3.0142482      0.47795379
      5591.35       3.6883415      0.47756926
      5596.94       4.4962662      0.47720818
      5602.53       4.5806448      0.47688207
      5608.14       5.7307886      0.47657752
      5613.75       6.0120841      0.48026956
      5619.36       6.1587406      0.47568094
      5624.98       6.1580294      0.47535818
      5630.60       6.3875147      0.47506401
      5636.23       6.3095504      0.47479765
      5641.87       5.8538154      0.47455004
      5647.51       4.8941816      0.47432057
      5653.16       4.4863935      0.47410955
      5658.82       4.4505666      0.47393072
      5664.47       3.2226370      0.46967513
      5670.14       2.1676990      0.46947206
      5675.81       2.3613917     -0.46928716
      5681.48      0.96888279     -0.46911927
      5687.17     -0.63568715      0.46898058
      5692.85      -1.3528733      0.46885779
      5698.55     -0.73554339     -0.46875140
      5704.25     -0.60935859     -0.46866034
      5709.95     -0.93310417     -0.46858431
      5715.66     -0.38412265     -0.46853811
      5721.38      -1.1068484     -0.46851602
      5727.10      -1.0364628     -0.46448507
      5732.83      -1.3257920     -0.46453932
      5738.56      -1.0583834     -0.46460740
      5744.30     -0.99482175     -0.46466617
      5750.04     -0.97088347     -0.46476450
      5755.79     -0.53129947     -0.46493767
      5761.55     -0.87113021     -0.46525629
      5767.31     -0.92523791     -0.46571840
      5773.08     -0.69140338     -0.46624133
      5778.85     -0.57603172     -0.46678330
      5784.63     -0.52563502     -0.46739894
      5790.41     -0.82660659      0.46805747
      5796.21     -0.64468666      0.46860821
      5802.00     -0.37970965      0.46901315
      5807.81     -0.18930994      0.46934353
      5813.61     -0.28976222      0.46962022
      5819.43      0.38458755      0.46983021
      5825.25      0.68660546      0.46997742
      5831.07      0.40943620      0.47010896
      5836.90      0.67904589      0.47028111
      5842.74      0.96817983      0.47049264
      5848.58       1.5391116      0.47068677
      5854.43       1.8282347      0.47083279
      5860.29       2.1578854      0.47093132
      5866.15       2.2542273      0.47099582
      5872.01       2.9354191      0.47108128
      5877.89       3.3912767      0.47117453
      5883.76       3.7486784      0.47120828
      5889.65       3.8972331      0.47122811
      5895.54       4.0015121      0.47135807
      5901.43       3.4280381      0.46787045
      5907.34       3.7711748      0.46807636
      5913.24       3.2142591      0.46826399
      5919.16       3.0699306      0.46852745
      5925.08       2.9278507      0.46886977
      5931.00       2.7919712      0.46926378
      5936.93       2.6196516      0.46969002
      5942.87       2.2917813      0.47015551
      5948.81       2.1725374      0.47066200
      5954.76       2.1814079      0.47119083
      5960.72       1.9402612      0.47173288
      5966.68       1.8191656      0.46861242
      5972.64       1.7510453      0.46914749
      5978.62       1.8063801      0.46970312
      5984.60       2.1862229      0.47027614
      5990.58       1.8282057      0.47086928
      5996.57       1.6292091      0.47147453
      6002.57       1.6016088      0.47210213
      6008.57       1.7732791      0.47274737
      6014.58       1.0515891      0.46987282
      6020.60      0.71454868      0.47459838
      6026.62     0.069682209      0.47523888
      6032.65      0.11176119      0.47589687
      6038.68      0.19470229      0.47657354
      6044.72      0.14475140      0.47727041
      6050.76      0.38524948      0.47798810
      6056.81     0.074087436      0.47516799
      6062.87      0.11391506      0.47592996
      6068.93     0.074579681      0.47671360
      6075.00      0.31392935      0.47752393
      6081.08      0.15745171      0.47835419
      6087.16      0.45250833      0.48309906
      6093.25      0.79631581      0.48030022
      6099.34       1.2851075      0.48112751
      6105.44       1.5534330      0.48199952
      6111.54       1.4411353      0.48301264
      6117.66       1.3575703      0.48417998
      6123.78       1.4135783      0.48143101
      6129.90       1.1507897      0.48226735
      6136.03      0.79189710      0.48750254
      6142.17      0.61210931      0.48890534
      6148.31       1.0671983      0.49058463
      6154.46      0.83047670      0.48913439
      6160.61      0.70394057      0.49112341
      6166.77      0.78566255      0.49315443
      6172.94      0.98957333      0.49513843
      6179.11       1.4084050      0.50134753
      6185.29       1.5459793      0.49926275
      6191.48       2.2870652      0.50032125
      6197.67       2.5041970      0.50106199
      6203.87       3.6545498      0.50151198
      6210.07       4.6969358      0.49807499
      6216.28       5.8373672      0.50215575
      6222.50       6.7287279      0.50229231
      6228.72       7.7315102      0.50273895
      6234.95       9.3876181      0.50346155
      6241.19       11.029976      0.50042690
      6247.42       12.979487      0.50099895
      6253.67       14.511015      0.50573427
      6259.93       17.136319      0.50285076
      6266.19       19.592928      0.50369237
      6272.46       21.775503      0.50461773
      6278.73       24.105344      0.50562182
      6285.01       26.453783      0.50696156
      6291.29       27.843468      0.50799498
      6297.58       28.683988      0.50912338
      6303.88       29.288732      0.51033825
      6310.19       29.670485      0.51195667
      6316.50       29.089624      0.51315443
      6322.81       28.466523      0.51443153
      6329.14       27.172471      0.51206454
      6335.47       25.766990      0.51343380
      6341.80       23.886537      0.51929685
      6348.14       22.080654      0.51747281
      6354.49       19.752620      0.51905475
      6360.85       17.599495      0.52061620
      6367.21       15.630830      0.52662726
      6373.57       14.044866      0.52447864
      6379.95       12.739433      0.52592948
      6386.33       11.446397      0.52732766
      6392.72       10.103621      0.52924571
      6399.11       9.0592210      0.53034964
      6405.51       7.9166837      0.53147736
      6411.92       6.6373454      0.53328393
      6418.32       5.6002361      0.53439971
      6424.74       4.5653403      0.53565171
      6431.17       3.3615318      0.53332532
      6437.60       2.4850568      0.53891488
      6444.04       2.2968601      0.53638171
      6450.48       2.2058190      0.53759042
      6456.94       2.2971068      0.54303443
      6463.39       2.4708652      0.54046893
      6469.85       2.1773629      0.54177858
      6476.33       1.9616434      0.54311394
      6482.80       2.1305393      0.54466199
      6489.28       1.9850975      0.54591475
      6495.77       1.8285748      0.54340954
      6502.27       1.6543843      0.54914766
      6508.77       1.5358342      0.55060975
      6515.28       1.3291631      0.54820113
      6521.80       1.4499049      0.55409753
      6528.32       1.5124009      0.55181762
      6534.85       1.4898792      0.55321474
      6541.38       1.3309071      0.55920026
      6547.92       1.2681732      0.55686081
      6554.47       1.4418312      0.55831646
      6561.03       1.6963355      0.56060902
      6567.59       1.6811201      0.56203095
      6574.16       1.4440510      0.56814811
      6580.73       1.2694868      0.56582485
      6587.31      0.96272418      0.56730708
      6593.90      0.73721531      0.56966051
      6600.50      0.87343845      0.57110570
      6607.10      0.83987843      0.56889378
      6613.70      0.58519012      0.57497824
      6620.32      0.38418704      0.57650028
      6626.94      0.16288781      0.57434061
      6633.57      0.27209049      0.58038986
      6640.20      0.65666894      0.57817154
      6646.84      0.92049240      0.58431795
      6653.49       1.0686809      0.58204572
      6660.14       1.3578228      0.58376524
      6666.80       1.6629936      0.58597502
      6673.47       1.8876320      0.58767055
      6680.14       2.7441786      0.59007831
      6686.82       2.7017931      0.59252692
      6693.51       2.8664697      0.59731297
      6700.20       3.0737497      0.59987484
      6706.90       3.0844459      0.59643835
      6713.61       3.0661917      0.60383571
      6720.32       3.2344662      0.60508482
      6727.05       2.8860356      0.61659052
      6733.77       2.1626815      0.62227177
      6740.51       1.5668739      0.63743220
      6747.25       1.1439798      0.64546069
      6754.00      0.79842079      0.65555669
      6760.75      0.61359498      0.66795122
      6767.51      0.66132110      0.67503075
      6774.28      0.21683518      0.68109044
      6781.05    -0.047580873      0.68233219
      6787.84     -0.46307898      0.68033730
      6794.62     -0.66281819      0.67629282
      6801.42     -0.64510333     -0.66970048
      6808.22     -0.45985858     -0.66455792
      6815.03     -0.64350006      0.66029395
      6821.85    -0.096394880      0.65440700
      6828.67     0.089737016      0.65735950
      6835.50    -0.095988231      0.64992072
      6842.33    -0.013077850      0.65323976
      6849.17     -0.14804096      0.64860172
      6856.02     -0.52001130      0.65318735
      6862.88     -0.52214282      0.64908407
      6869.74     -0.51026281      0.65021250
      6876.61    -0.097809851      0.65140635
      6883.49    -0.079011724      0.65352530
      6890.37     -0.18927382      0.65529395
      6897.27      0.40648964      0.65765691
      6904.16      0.25740366      0.65493851
      6911.07      0.33897320      0.66120655
      6917.98     0.067251343      0.65794329
      6924.89      0.20277961      0.66393817
      6931.82      0.45495530      0.66064260
      6938.75      0.23649588      0.66267555
      6945.69      0.25516112      0.66391119
      6952.64      0.70060908      0.66584383
      6959.59       1.1144303      0.67220534
      6966.55      0.85804439      0.66924720
      6973.52      0.94690965      0.67161459
      6980.49      0.73950831      0.67327701
      6987.47      0.42069570      0.67635195
      6994.46      0.31587667      0.67472756
      7001.46      0.16845127      0.68200130
      7008.46      0.37734642      0.68581816
      7015.46      0.21985105      0.68501982
      7022.48      0.26459274      0.69452174
      7029.51      0.35466449      0.69596909
      7036.53      0.28959369      0.70527072
      7043.57      0.24509648      0.71355485
      7050.62      0.64528967      0.72513034
      7057.66      0.96867290     -0.73572316
      7064.72      0.40311750     -0.74228367
      7071.79     -0.14266977      0.74917970
      7078.86     -0.39410698      0.75422344
      7085.94     -0.16926702      0.75680426
      7093.03     -0.42422680      0.75876921
      7100.12    -0.068404808      0.75401347
      7107.22     0.035333774      0.75999630
      7114.33    -0.043350554      0.76143125
      7121.44      0.15816583      0.75864930
      7128.56      0.65470525      0.76245522
      7135.69      0.83244263      0.77085472
      7142.83       1.1993745      0.76832192
      7149.97       1.6459280      0.77041599
      7157.12       2.5637760      0.77592442
      7164.28       2.6542117      0.76982760
      7171.44       2.6444640      0.76890317
      7178.62       3.1585893      0.76852808
      7185.80       2.9400607      0.76781738
      7192.98       2.6604604      0.76652086
      7200.17       2.2123285      0.76467661
      7207.38       2.6250376      0.75796832
      7214.58       2.8477522      0.76151986
      7221.80       3.0903316      0.76076898
      7229.02       3.5638823      0.75541628
      7236.25       4.8059682      0.75531802
      7243.49       5.2593605      0.75604851
      7250.73       6.1082221      0.75683520
      7257.98       7.0963655      0.75811471
      7265.24       8.0200990      0.75941126
      7272.51       8.8287720      0.76063647
      7279.78       9.9898975      0.76157287
      7287.06       10.797226      0.76300608
      7294.35       11.793936      0.76467367
      7301.64       11.748075      0.76118162
      7308.94       11.933584      0.76328732
      7316.25       12.265821      0.77023730
      7323.57       11.659817      0.77238883
      7330.89       11.366480      0.76918579
      7338.22       10.658212      0.77165077
      7345.56       10.106118      0.77418033
      7352.91       8.7606205      0.77675519
      7360.26       7.8085631      0.77837262
      7367.62       7.0364318      0.78097998
      7374.99       6.4278518      0.78363330
      7382.37       5.4595426      0.78635197
      7389.75       5.2460249      0.78413587
      7397.14       4.4309729      0.79078202
      7404.53       3.9085838      0.80242415
      7411.94       3.6520198      0.81498780
      7419.35       3.2509420      0.81860074
      7426.77       2.8266682      0.81490905
      7434.20       3.0113009      0.82719650
      7441.63       2.9286792      0.85225114
      7449.07       3.1351661      0.89012730
      7456.52       3.3537093      0.94095057
      7463.98       2.8082640      0.99080908
      7471.45       2.6852141       1.0546106
      7478.92       2.7389566       1.1266284
      7486.40       2.5013089       1.1938798
      7493.88       2.0881346       1.2442016
      7501.38       2.2090774       1.2655223
      7508.88       1.4354613       1.2417259
      7516.39       1.3388418       1.2036370
      7523.91       1.4547384       1.1469720
      7531.43       1.4022555       1.0837404
      7538.96       1.6703041       1.0243439
      7546.50       1.7954600      0.97800293
      7554.05       1.7787039      0.95088742
      7561.60       1.7908268      0.91925401
      7569.16       2.4196957      0.89501931
      7576.73       2.4190128      0.88236335
      7584.31       2.4196370      0.87506512
      7591.89       2.5607656      0.86841316
      7599.49       2.7791246      0.86327644
      7607.09       2.6316566      0.86014227
      7614.70       2.3138095      0.85352326
      7622.31       2.4573066      0.85342279
      7629.93       1.8210229      0.85437164
      7637.56       1.4618687     -0.85598145
      7645.20      0.49989606      0.85796922
      7652.85     -0.32917091     -0.86015710
      7660.50     -0.88424637     -0.86253239
      7668.16      -1.1024409     -0.86503394
      7675.83      -1.6277999     -0.86754158
      7683.50      -1.9233987     -0.87007110
      7691.19      -1.8651868     -0.87264420
      7698.88      -1.6451776     -0.87521964
      7706.58      -1.1847988      0.87182041
      7714.29     0.048353152     -0.87452092
      7722.00     -0.16019072      0.87738482
      7729.73     -0.25445044      0.88036680
      7737.45      0.27211602      0.88346204
      7745.19       1.1249088      0.88672523
      7752.94       2.0455670      0.89010521
      7760.69       2.7080195      0.89335178
      7768.45       3.4207557      0.89620837
      7776.22       3.3807976      0.89879573
      7784.00       3.7717122      0.90128998
      7791.78       3.2698772      0.90371404
      7799.57       2.9609416      0.90094436
      7807.37       2.6688131      0.90323241
      7815.18       2.2217071      0.90551109
      7822.99       1.4157918      0.90786886
      7830.82       1.2462625      0.91035817
      7838.65       1.6971930      0.91300609
      7846.49       1.6124535      0.91562406
      7854.34       2.0000360      0.91822802
      7862.19       1.8983590      0.92083527
      7870.05      0.74082198      0.92334779
      7877.93      0.16749933      0.92565607
      7885.80      0.43423516      0.92236289
      7893.69      0.88033053      0.92447888
      7901.58       1.2014282      0.92671422
      7909.49       1.2761787      0.92890282
      7917.40       1.2121506      0.93096673
      7925.31       1.5338362      0.93333427
      7933.24       1.6078498      0.93607601
      7941.17       1.4176184      0.93928600
      7949.11       1.4299109      0.93854908
      7957.06       1.2037123      0.94966421
      7965.02      0.94306690      0.95535285
      7972.98       1.0987364      0.96256775
      7980.96       1.8122287      0.97144353
      7988.94       2.0455644      0.98172749
      7996.93       2.4794389      0.99279103
      8004.93       2.5378698      0.99996655
      8012.93       1.9154697       1.0128211
      8020.95       1.9505422       1.0241470
      8028.97       1.5925781       1.0309340
      8036.99       1.5267415       1.0348104
      8045.03       1.2102649       1.0316886
      8053.08       1.0213388       1.0406321
      8061.13       1.1253094       1.0417924
      8069.20       1.4212793       1.0422376
      8077.26       1.7429009       1.0417536
      8085.34       1.6720507       1.0341153
      8093.43       2.1540364       1.0333919
      8101.52       1.8183237       1.0335593
      8109.62       1.2174794       1.0403734
      8117.73       1.2245146       1.0338568
      8125.85       1.2563637       1.0329565
      8133.98       2.3642391       1.0317252
      8142.11       2.7072370       1.0302644
      8150.25       2.5722744       1.0287260
      8158.41       1.3168009       1.0224372
      8166.56      0.36288078       1.0308426
      8174.73      0.47926933       1.0314654
      8182.91     -0.76397491       1.0285973
      8191.09     -0.88383453       1.0190066
      8199.28      -1.4851111       1.0164780
      8207.48      -2.2840725       1.0199030
      8215.69      -1.6359002       1.0123021
      8223.91     -0.87064224       1.0112200
      8232.13     -0.88833423       1.0099260
      8240.36      -1.1165278       1.0087920
      8248.60     -0.41188974       1.0079614
      8256.85     -0.28017260       1.0079205
      8265.11     -0.12080822       1.0083268
      8273.37      0.80452192       1.0028627
      8281.65       1.9026588       1.0032447
      8289.93       2.7108196       1.0099225
      8298.22       2.9198933       1.0051707
      8306.52       2.7972582       1.0061567
      8314.83       2.3624985       1.0072664
      8323.14       2.0231999       1.0091840
      8331.46       1.9097884       1.0104165
      8339.80      0.87443087       1.0118056
      8348.13       1.1337152       1.0078756
      8356.48    -0.097644318       1.0155940
      8364.84      -1.2619364       1.0170699
      8373.21      0.34046293       1.0130502
      8381.58      0.64865789       1.0206830
      8389.96      0.55949402       1.0219228
      8398.35       1.0876918       1.0175397
      8406.75       1.3257801       1.0187829
      8415.16       2.0950164       1.0202116
      8423.57       1.6544386       1.0212992
      8432.00       2.6316550       1.0225261
      8440.43       4.1648998       1.0240210
      8448.87       4.8014110       1.0251208
      8457.32       6.2499775       1.0204720
      8465.78       6.5429837       1.0276761
      8474.25       6.5213638       1.0289754
      8482.72       5.8078361       1.0245890
      8491.20       5.3266052       1.0320559
      8499.69       5.5152050       1.0277138
      8508.19       5.7744771       1.0289173
      8516.70       5.1030469       1.0308078
      8525.22       4.8618778       1.0318481
      8533.75       5.3615108       1.0329404
      8542.28       4.8360281       1.0344847
      8550.82       3.9146411       1.0354015
      8559.37       2.3696130       1.0307969
      8567.93      0.28886987       1.0376287
      8576.50       1.0013349       1.0329553
      8585.08      0.60664623       1.0399035
      8593.66       1.2827289       1.0352349
      8602.26       1.1652547       1.0307187
      8610.86      0.78279910       1.0261936
      8619.47      0.30775262       1.0161330
      8628.09      0.22771140       1.0118547
      8636.72      0.15619199       1.0077927
      8645.36      0.57598400       1.0036398
      8654.00       1.0482227      0.98944557
      8662.66       1.4577009      0.98555148
      8671.32       2.7184489      0.98179450
      8679.99       3.6629115     -0.97812606
      8688.67       3.6403831     -0.97468989
      8697.36       2.9207636     -0.96663351
      8706.06       2.6632804      0.95947586
      8714.76       1.7350628      0.95699344
      8723.48       1.8658503      0.95470850
      8732.21       1.0925882      0.95238328
      8740.93      0.56855855      0.94678699
      8749.68       1.2711925      0.94223966
      8758.43       1.3516587      0.94255411
      8767.19       1.8829182     -0.94439994
      8775.96       1.1206518      0.94723494
      8784.73      0.75541722      0.94423862
      8793.52     -0.19851168      0.95006075
      8802.31     -0.83199027      0.95743903
      8811.11     -0.70263159      0.96422131
      8819.92     -0.25517795      0.96672900
      8828.75     -0.54201126      0.97023421
      8837.57      0.18559356     -0.96708817
      8846.41     -0.13962709     -0.96377918
      8855.26      0.14836477     -0.96360586
      8864.12      0.47530818     -0.96257257
      8872.98     0.052776758      0.96021742
      8881.85      0.73644452     -0.95377611
      8890.73      0.54925626     -0.94671319
      8899.63      0.32230376      0.94316354
      8908.52      0.37831704      0.93610017
      8917.43     -0.12818331      0.93272960
      8926.35     -0.63870554      0.92712105
      8935.28     -0.67708508      0.92567980
      8944.22    -0.050023199      0.92457893
      8953.16     -0.57118915      0.91734667
      8962.11      0.49115988      0.91581288
      8971.08      0.81443801      0.91369291
      8980.05       1.8559465      0.90857607
      8989.03       2.3349056      0.90658277
      8998.02       2.8537499      0.90074734
      9007.02       3.0562836      0.89731980
      9016.02       3.0878453      0.89462154
      9025.04       3.8077219      0.88579966
      9034.07       3.5702966      0.88255712
      9043.10       4.3284978      0.87492107
      9052.14       4.7107190      0.88496750
      9061.20       4.6384344      0.89822302
      9070.26       5.5881740      0.91525231
      9079.33       6.0444215      0.93686015
      9088.41       6.5199162      0.96390804
      9097.50       6.6416645      0.99811044
      9106.60       6.6973290       1.0377893
      9115.70       6.6739637       1.0954846
      9124.82       6.8777762       1.1714530
      9133.94       6.5744023       1.2714488
      9143.08       6.3926809       1.4036189
      9152.22       6.1337384       1.5763623
      9161.37       5.5156852       1.7965983
      9170.54       4.9071948       2.0745240
      9179.71       3.5382274       2.4289326
      9188.89       2.8870090       2.8728205
      9198.08       2.6209614       3.4241855
