# starting wavelength =        3466.0200
# ending wavelength =        7371.0000
# O2 telluric scale =        0
# O2 telluric shift =        0
# H2O telluric scale =        0
# H2O telluric shift =        0
      3467.51       1.2793468      0.45643333
      3470.98       1.4045870      0.38692031
      3474.45       1.4366584      0.33160221
      3477.92       1.4760230      0.28799179
      3481.40       1.4992705      0.25997805
      3484.88       1.5009911      0.23227339
      3488.37       1.4639885      0.21060995
      3491.86       1.3793132      0.19380157
      3495.35       1.4016687      0.17846813
      3498.84       1.4003849      0.16880495
      3502.34       1.3465582      0.16124038
      3505.84       1.3532472      0.15522576
      3509.35       1.3920158      0.15038752
      3512.86       1.4225639      0.14619365
      3516.37       1.4255441      0.14269107
      3519.89       1.4317023      0.13973256
      3523.41       1.4412063      0.13720689
      3526.93       1.4678687      0.13412792
      3530.46       1.4818635      0.13226096
      3533.99       1.5242868      0.13235549
      3537.53       1.5522194      0.13182462
      3541.06       1.5898757      0.13106659
      3544.60       1.6199906      0.13117226
      3548.15       1.6223282      0.13065400
      3551.70       1.6038213      0.13075425
      3555.25       1.5687676      0.12936521
      3558.80       1.5717286      0.12947019
      3562.36       1.6202520      0.12959312
      3565.92       1.6292792      0.12908351
      3569.49       1.6397652      0.12831130
      3573.06       1.7486465      0.12844322
      3576.64       1.7745772      0.12790685
      3580.21       1.8410736      0.12805131
      3583.79       1.8113379      0.12663730
      3587.38       1.7570836      0.12677407
      3590.96       1.7325580      0.12690505
      3594.55       1.6774284      0.12550710
      3598.15       1.5595788      0.12563978
      3601.75       1.5447220      0.12578167
      3605.35       1.5155741      0.12527886
      3608.96       1.4000195      0.12451900
      3612.56       1.3302897      0.12467430
      3616.18       1.3820047      0.12414377
      3619.79       1.3624656      0.12431670
      3623.41       1.3144528      0.12356463
      3627.04       1.3250002      0.12305865
      3630.66       1.3258738      0.12320508
      3634.29       1.3065020      0.12248985
      3637.93       1.2797061      0.12195543
      3641.57       1.2848635      0.12213396
      3645.21       1.3653133      0.12230033
      3648.86       1.3745626      0.12088883
      3652.50       1.3674922      0.12105254
      3656.16       1.4067768      0.12124486
      3659.81       1.3820489      0.11981516
      3663.47       1.3794708      0.12000351
      3667.14       1.4822413      0.12018310
      3670.80       1.5619040      0.11947865
      3674.48       1.6685492      0.11894554
      3678.15       1.7476727      0.11915281
      3681.83       1.8416124      0.11842185
      3685.51       1.8725611      0.11792305
      3689.20       1.8234736      0.11810959
      3692.88       1.7361437      0.11740848
      3696.58       1.6813090      0.11760670
      3700.27       1.6302069      0.11711601
      3703.98       1.5236190      0.11731215
      3707.68       1.4515173      0.11660656
      3711.39       1.4067106      0.11683076
      3715.10       1.3073300      0.11634916
      3718.81       1.3218389      0.11560836
      3722.53       1.3363281      0.11584186
      3726.26       1.3213389      0.11609939
      3729.98       1.3202066      0.11462039
      3733.71       1.3338008      0.11488081
      3737.45       1.3542115      0.11416056
      3741.18       1.3253636      0.11442702
      3744.93       1.3804845      0.11390203
      3748.67       1.4018143      0.11320634
      3752.42       1.4279868      0.11346756
      3756.17       1.4332341      0.11373968
      3759.93       1.4613705      0.11226299
      3763.69       1.5741003      0.11252325
      3767.45       1.6966870      0.11282903
      3771.22       1.7148472      0.11211026
      3774.99       1.7021177      0.11240901
      3778.77       1.6943803      0.11189354
      3782.54       1.6353720      0.11119303
      3786.33       1.5066968      0.11151282
      3790.11       1.4648307      0.11080129
      3793.90       1.4172216      0.11112778
      3797.70       1.4047817      0.11060652
      3801.50       1.3733606      0.10991293
      3805.30       1.3595582      0.11025250
      3809.10       1.3885714      0.11057805
      3812.91       1.3959417      0.10989501
      3816.73       1.3960980      0.11024536
      3820.54       1.4029510      0.10868236
      3824.36       1.4076160      0.10905079
      3828.19       1.4076645      0.10939700
      3832.02       1.4539890      0.10871306
      3835.85       1.5040897      0.10909951
      3839.68       1.5033280      0.10948284
      3843.52       1.6044818      0.10881167
      3847.37       1.6594842      0.10827313
      3851.22       1.7069202      0.10758837
      3855.07       1.6438196      0.10801491
      3858.92       1.7176928      0.10730949
      3862.78       1.7029498      0.10684383
      3866.64       1.6542500      0.10612430
      3870.51       1.6806388      0.10543225
      3874.38       1.6926000      0.10496604
      3878.26       1.6432868      0.10425904
      3882.13       1.6519216      0.10357912
      3886.02       1.6539408      0.10311426
      3889.90       1.6482163      0.10241945
      3893.79       1.7117978      0.10088085
      3897.69       1.6443366      0.10128977
      3901.59       1.6433609      0.10060748
      3905.49       1.6317990     0.099091075
      3909.39       1.6493946     0.098463361
      3913.30       1.6939860     0.098819159
      3917.22       1.6466954     0.097329598
      3921.13       1.6703116     0.096704343
      3925.06       1.7160448     0.097058551
      3928.98       1.7319939     0.095587917
      3932.91       1.7553722     0.094969898
      3936.84       1.6966323     0.095322042
      3940.78       1.6499783     0.093872812
      3944.72       1.6107340     0.093260087
      3948.67       1.5996510     0.092663104
      3952.61       1.5920333     0.092183646
      3956.57       1.5663878     0.091571292
      3960.52       1.5367807     0.090980608
      3964.48       1.4748652     0.089616948
      3968.45       1.4941559     0.089911962
      3972.42       1.4202769     0.089319442
      3976.39       1.4678046     0.087996869
      3980.37       1.4567629     0.087397172
      3984.35       1.5082256     0.087686150
      3988.33       1.5105364     0.086404336
      3992.32       1.5411248     0.085805627
      3996.31       1.6104568     0.085224492
      4000.31       1.6183943     0.085505150
      4004.31       1.6193160     0.084246670
      4008.31       1.6329998     0.083661740
      4012.32       1.6478833     0.083092918
      4016.33       1.6789120     0.082714133
      4020.35       1.6579209     0.082132862
      4024.37       1.6534396     0.081563398
      4028.40       1.6608211     0.081005216
      4032.42       1.6719380     0.079803147
      4036.46       1.6793122     0.080065802
      4040.50       1.6828914     0.079509881
      4044.54       1.7173030     0.078961017
      4048.58       1.6946717     0.077785150
      4052.63       1.7172386     0.078045013
      4056.68       1.6703976     0.077499620
      4060.74       1.6938747     0.076961020
      4064.80       1.6765592     0.075809339
      4068.86       1.5980595     0.075294427
      4072.93       1.5286399     0.075532418
      4077.01       1.4327191     0.075003468
      4081.08       1.4152177     0.073873604
      4085.17       1.4437587     0.073366256
      4089.25       1.4465131     0.072865723
      4093.34       1.4171572     0.072374401
      4097.43       1.3614831     0.071984646
      4101.53       1.3294746     0.071484162
      4105.63       1.3526879     0.070992029
      4109.74       1.3435126     0.070505278
      4113.85       1.3279046     0.069466213
      4117.96       1.2668625     0.068975931
      4122.08       1.2657490     0.069164012
      4126.20       1.2757943     0.068681725
      4130.33       1.2988563     0.068207502
      4134.46       1.3126379     0.067207285
      4138.59       1.3313800     0.066728829
      4142.73       1.3625445     0.066256433
      4146.88       1.3364080     0.065789322
      4151.02       1.3541125     0.065968362
      4155.18       1.3961566     0.065014879
      4159.33       1.4353189     0.064547773
      4163.49       1.4727534     0.064088215
      4167.65       1.4689890     0.063633341
      4171.82       1.4283154     0.063184617
      4175.99       1.4139724     0.062738765
      4180.17       1.4212668     0.061812567
      4184.35       1.4411964     0.061995112
      4188.54       1.4057574     0.061550355
      4192.72       1.4094231     0.061109124
      4196.92       1.4248021     0.060673050
      4201.11       1.4724237     0.060242379
      4205.31       1.5018347     0.059347827
      4209.52       1.4915702     0.058927915
      4213.73       1.5069797     0.058513168
      4217.94       1.4805546     0.058101949
      4222.16       1.4692895     0.057695705
      4226.38       1.4423819     0.057843287
      4230.61       1.4278046     0.057430560
      4234.84       1.4146641     0.056575558
      4239.08       1.3854758     0.056172732
      4243.32       1.3682207     0.055773113
      4247.56       1.3239009     0.055377327
      4251.81       1.2941345     0.054985928
      4256.06       1.2768296     0.054597199
      4260.32       1.2882668     0.054211377
      4264.58       1.2979613     0.053829640
      4268.84       1.2705568     0.053041488
      4273.11       1.2587451     0.052662690
      4277.38       1.2623243     0.052285492
      4281.66       1.2356821     0.051912258
      4285.94       1.2544448     0.051542690
      4290.23       1.2379243     0.051174831
      4294.52       1.2609577     0.050811772
      4298.81       1.2362339     0.050449866
      4303.11       1.2306037     0.050091766
      4307.42       1.2600212     0.050210449
      4311.72       1.2816104     0.049498752
      4316.04       1.3035375     0.049144921
      4320.35       1.3036003     0.048792439
      4324.67       1.3394246     0.048444649
      4329.00       1.3480194     0.048098316
      4333.33       1.3529688     0.047755396
      4337.66       1.3572536     0.047415958
      4342.00       1.3681008     0.047077872
      4346.34       1.3519012     0.046744173
      4350.69       1.3439621     0.046411730
      4355.04       1.3175307     0.046082621
      4359.39       1.3211233     0.045756486
      4363.75       1.3172211     0.045432179
      4368.12       1.3432048     0.045111824
      4372.48       1.3019804     0.044792618
      4376.86       1.3107874     0.044476682
      4381.23       1.2803768     0.044163805
      4385.61       1.2436554     0.043452974
      4390.00       1.2432906     0.042822310
      4394.39       1.2203485     0.042521323
      4398.79       1.1718581     0.042223145
      4403.18       1.1675412     0.041928025
      4407.59       1.1828154     0.041634274
      4412.00       1.1527789     0.041344115
      4416.41       1.1490616     0.041055647
      4420.82       1.1676522     0.040769912
      4425.25       1.1695137     0.040487260
      4429.67       1.1916420     0.040205998
      4434.10       1.2046602     0.039928300
      4438.54       1.2150583     0.039652366
      4442.97       1.2335526     0.039379751
      4447.42       1.2450299     0.039109308
      4451.86       1.2600083     0.038840808
      4456.32       1.2383135     0.038575200
      4460.77       1.2102489     0.038311733
      4465.24       1.1918281     0.037690882
      4469.70       1.1758261     0.037432802
      4474.17       1.1818720     0.037177235
      4478.65       1.1709844     0.036924780
      4483.12       1.1612873     0.036942449
      4487.61       1.1888650     0.036692374
      4492.09       1.1760306     0.036445772
      4496.59       1.1591654     0.036200146
      4501.08       1.1859669     0.035958119
      4505.58       1.1980710     0.035718401
      4510.09       1.1817111     0.035481018
      4514.60       1.1969406     0.034926078
      4519.12       1.2032997     0.034691919
      4523.63       1.2131641     0.034460587
      4528.16       1.2201219     0.034232232
      4532.69       1.2310292     0.034006218
      4537.22       1.2424336     0.033783306
      4541.76       1.2430067     0.033563272
      4546.30       1.2218985     0.033052097
      4550.85       1.2346697     0.032839259
      4555.40       1.2241524     0.032629017
      4559.95       1.2238602     0.032650488
      4564.51       1.2225320     0.032439223
      4569.08       1.2432111     0.032230424
      4573.65       1.2494022     0.032024742
      4578.22       1.2540924     0.031543115
      4582.80       1.2695195     0.031345015
      4587.38       1.2976965     0.031149663
      4591.97       1.3095754     0.030957581
      4596.56       1.3177980     0.030768059
      4601.16       1.3334135     0.030582100
      4605.76       1.3407725     0.030333511
      4610.37       1.3383220     0.030147646
      4614.98       1.3146930     0.029965185
      4619.59       1.2916195     0.029785435
      4624.21       1.2701852     0.029608668
      4628.84       1.2358621     0.029173297
      4633.47       1.2073028     0.028997840
      4638.10       1.1774413     0.028825938
      4642.74       1.1708508     0.028863268
      4647.38       1.1522908     0.028696337
      4652.03       1.1288904     0.028284721
      4656.68       1.1106412     0.028119565
      4661.34       1.1030497     0.027956927
      4666.00       1.1246427     0.027798413
      4670.67       1.1588116     0.027842373
      4675.33       1.1786681     0.027451128
      4680.01       1.1909396     0.027295958
      4684.69       1.2077376     0.027143408
      4689.38       1.2259558     0.026994661
      4694.07       1.2108431     0.026624861
      4698.76       1.2082529     0.026670839
      4703.46       1.1779077     0.026525537
      4708.16       1.1494777     0.026383990
      4712.87       1.1483878     0.026026532
      4717.58       1.1614157     0.025893395
      4722.30       1.1496224     0.025763518
      4727.03       1.1546844     0.025808111
      4731.75       1.1538653     0.025464120
      4736.48       1.1424843     0.025338204
      4741.22       1.1256435     0.025215779
      4745.96       1.1174104     0.025267342
      4750.71       1.1498313     0.024935877
      4755.46       1.1766655     0.024817387
      4760.22       1.1781475     0.024703353
      4764.97       1.1828952     0.024381292
      4769.74       1.1879559     0.024440887
      4774.51       1.1960644     0.024330971
      4779.29       1.1829532     0.024224006
      4784.07       1.1631105     0.023913892
      4788.85       1.1706682     0.024402312
      4793.64       1.1497895     0.025015765
      4798.43       1.1432072     0.024577990
      4803.23       1.1595573     0.023642034
      4808.03       1.1644620     0.023990151
      4812.84       1.1402635     0.025182467
      4817.66       1.1454567     0.025728007
      4822.48       1.1395480     0.025734952
      4827.30       1.1164102     0.026231904
      4832.12       1.0867369     0.027267117
      4836.96       1.0838336     0.028336632
      4841.79       1.0711035     0.028792565
      4846.63       1.0389614     0.030146374
      4851.48       1.0067589     0.029919032
      4856.33      0.98708697     0.028203999
      4861.19      0.98090743     0.027284501
      4866.05      0.97125142     0.026040719
      4870.92       1.0041388     0.024885442
      4875.79       1.0303574     0.024000956
      4880.66       1.0515463     0.024359038
      4885.55       1.0358022     0.023765000
      4890.43       1.0287441     0.022465974
      4895.32       1.0330755     0.021755742
      4900.22       1.0487363     0.022049296
      4905.12       1.0345423     0.022616691
      4910.02       1.0234828     0.021782143
      4914.94       1.0091920     0.021394888
      4919.85      0.98336665     0.021174289
      4924.77      0.97768348     0.021271301
      4929.70      0.97072242     0.021220505
      4934.62      0.96774771     0.021004973
      4939.56      0.96857896     0.021107267
      4944.50      0.98241573     0.020900422
      4949.44      0.98776498     0.020851482
      4954.39       1.0154358     0.020959642
      4959.35       1.0408716     0.020757019
      4964.31       1.0757479     0.020714560
      4969.27       1.0979849     0.020671482
      4974.24       1.0999800     0.020630146
      4979.22       1.1085731     0.020443424
      4984.20       1.1157871     0.020554078
      4989.18       1.1182339     0.020519242
      4994.17       1.1140406     0.020486047
      4999.16       1.0860032     0.020452715
      5004.16       1.0729569     0.020276521
      5009.17       1.0443736     0.020393926
      5014.18       1.0492898     0.020220503
      5019.19       1.0526245     0.020343017
      5024.21       1.0452600     0.020171590
      5029.23       1.0374122     0.020153157
      5034.26       1.0240370     0.020130531
      5039.30       1.0137693     0.020113460
      5044.34      0.98450627     0.020096310
      5049.39      0.96696084     0.020081509
      5054.43      0.94677034     0.019923165
      5059.49      0.93721231     0.020056158
      5064.55      0.94007645     0.019902823
      5069.61      0.94919969     0.020037911
      5074.68      0.96963690     0.019888506
      5079.76      0.96419279     0.020026579
      5084.84      0.98295410     0.019881028
      5089.92      0.99846224     0.019874173
      5095.01      0.99834314     0.019879700
      5100.11       1.0097579     0.019875248
      5105.21       1.0289494     0.019884451
      5110.31       1.0518112     0.019882489
      5115.42       1.0634763     0.019895720
      5120.54       1.0553056     0.019895779
      5125.66       1.0492602     0.019912284
      5130.79       1.0416750     0.019915570
      5135.92       1.0255761     0.019935129
      5141.05       1.0102882     0.019940730
      5146.20       1.0206799     0.019963647
      5151.34       1.0310189     0.019972234
      5156.49       1.0511200     0.019997812
      5161.65       1.0785984     0.019875095
      5166.81       1.1079583     0.020038099
      5171.98       1.1180820     0.019918247
      5177.15       1.1299866     0.019940198
      5182.33       1.1560008     0.019967289
      5187.51       1.1711332     0.020134625
      5192.70       1.1713701     0.020021684
      5197.89       1.1494878     0.020057105
      5203.09       1.1418624     0.020082203
      5208.29       1.1304879     0.020119420
      5213.50       1.1083411     0.020148057
      5218.72       1.0930754     0.020187465
      5223.93       1.0866859     0.020082340
      5229.16       1.0683669     0.020260768
      5234.39       1.0659413     0.020156539
      5239.62       1.0744875     0.020340116
      5244.86       1.0776405     0.020236228
      5250.11       1.0687467     0.020288903
      5255.36       1.0731454     0.020321253
      5260.61       1.0846231     0.020375020
      5265.87       1.0952084     0.020433698
      5271.14       1.1120106     0.020466723
      5276.41       1.1170995     0.020526634
      5281.69       1.1192327     0.020434051
      5286.97       1.1183617     0.020624854
      5292.26       1.1037708     0.020536859
      5297.55       1.0767941     0.020597901
      5302.85       1.0763955     0.020794385
      5308.15       1.0767202     0.020706999
      5313.46       1.0680794     0.020904459
      5318.77       1.0884594     0.020821742
      5324.09       1.0832014     0.020888051
      5329.42       1.0716802     0.020958544
      5334.75       1.0666541     0.021009142
      5340.08       1.0756175     0.021079588
      5345.42       1.0716831     0.020997824
      5350.77       1.0576323     0.021207064
      5356.12       1.0666660     0.021282009
      5361.48       1.0851830     0.021202148
      5366.83       1.0917541     0.021415617
      5372.20       1.1138305     0.021493617
      5377.58       1.0862014     0.021415117
      5382.95       1.0605285     0.021499499
      5388.34       1.0715518     0.021714420
      5393.72       1.0628488     0.021637013
      5399.12       1.0578886     0.021724353
      5404.52       1.0654932     0.021781169
      5409.92       1.0643071     0.021867727
      5415.33       1.0603388     0.021957516
      5420.75       1.0559599     0.021885930
      5426.17       1.0377909     0.022107092
      5431.60       1.0270035     0.022198950
      5437.03       1.0200565     0.022130105
      5442.47       1.0223922     0.022220921
      5447.91       1.0057978     0.022448664
      5453.36      0.98304242     0.022545141
      5458.81      0.98517746     0.022475541
      5464.27      0.99828787     0.022570700
      5469.73      0.98999885     0.022804495
      5475.20      0.99383548     0.022738655
      5480.68      0.99727603     0.022835140
      5486.16      0.99535024     0.022934054
      5491.65       1.0287893     0.022866209
      5497.14       1.0233251     0.023108005
      5502.64       1.0588524     0.023207879
      5508.14       1.0745896     0.023310001
      5513.65       1.0885397     0.023242162
      5519.16       1.1094384     0.023347214
      5524.68       1.1255011     0.023593041
      5530.20       1.1476122     0.023697812
      5535.73       1.1555026     0.023629401
      5541.27       1.1558979     0.023736730
      5546.81       1.1330173     0.023845887
      5552.36       1.1116592     0.023956803
      5557.91       1.0954305     0.024027503
      5563.47       1.0936831     0.024136659
      5569.04       1.0685786     0.024247495
      5574.60       1.0370430     0.024359911
      5580.18       1.0101747     0.024294797
      5585.76      0.99928859     0.024404754
      5591.35      0.96537721     0.024659002
      5596.94      0.93143630     0.024772509
      5602.53      0.92715716     0.024887103
      5608.14      0.92491737     0.024823003
      5613.75      0.90157941     0.024935402
      5619.36      0.90864591     0.025049028
      5624.98      0.90552590     0.025163500
      5630.60      0.89523073     0.025279197
      5636.23      0.89100670     0.025365247
      5641.87      0.86992821     0.025479445
      5647.51      0.84801200     0.025594403
      5653.16      0.82201830     0.025710445
      5658.82      0.83255750     0.025827205
      5664.47      0.83593655     0.025759263
      5670.14      0.82836009     0.025876777
      5675.81      0.78977005     0.025995064
      5681.48      0.77376968     0.026113855
      5687.17      0.79373990     0.026233203
      5692.85      0.79350242     0.026353287
      5698.55      0.79730792     0.026473971
      5704.25      0.79387564     0.026552332
      5709.95      0.82978461     0.026671519
      5715.66      0.79508280     0.026791381
      5721.38      0.79939618     0.026911403
      5727.10      0.79204551     0.027031989
      5732.83      0.77222606     0.027152813
      5738.56      0.77067702     0.027274090
      5744.30      0.75611065     0.027395798
      5750.04      0.74838137     0.027326167
      5755.79      0.71717064     0.027445842
      5761.55      0.69743578     0.027565614
      5767.31      0.69483875     0.027685591
      5773.08      0.68217618     0.027805453
      5778.85      0.66753402     0.027926129
      5784.63      0.67037056     0.028047774
      5790.41      0.70840879     0.028170981
      5796.21      0.76094398     0.028295661
      5802.00      0.75341527     0.028419372
      5807.81      0.79150345     0.028542142
      5813.61      0.80941966     0.028466573
      5819.43      0.83741108     0.028594347
      5825.25      0.85728940     0.028730453
      5831.07      0.89109107     0.028874156
      5836.90      0.88961991     0.029019955
      5842.74      0.88534414     0.029167120
      5848.58      0.89826306     0.029317977
      5854.43      0.89182980     0.029470057
      5860.29      0.88932395     0.029614132
      5866.15      0.85278092     0.029748794
      5872.01      0.83931832     0.029878183
      5877.89      0.85617881     0.030002504
      5883.76      0.86766726     0.030121366
      5889.65      0.87353010     0.030066781
      5895.54      0.89071583     0.030178068
      5901.43      0.89222858     0.030291199
      5907.34      0.89999951     0.030405185
      5913.24      0.88878061     0.030516541
      5919.16      0.91323897     0.030623300
      5925.08      0.91236265     0.030726274
      5931.00      0.91225452     0.030826362
      5936.93      0.89454303     0.030926737
      5942.87      0.87362974     0.031025748
      5948.81      0.83177184     0.031119368
      5954.76      0.78047927     0.031032473
      5960.72      0.76581067     0.031129420
      5966.68      0.77430125     0.031230669
      5972.64      0.77193458     0.031327873
      5978.62      0.76075624     0.031422448
      5984.60      0.75150744     0.031521480
      5990.58      0.77189809     0.031624579
      5996.57      0.76348790     0.031729406
      6002.57      0.75317691     0.031660146
      6008.57      0.74801157     0.031978717
      6014.58      0.75659258     0.032084136
      6020.60      0.75861685     0.032189224
      6026.62      0.77626270     0.032294061
      6032.65      0.76701837     0.032398675
      6038.68      0.77832747     0.032503731
      6044.72      0.75741599     0.032429236
      6050.76      0.75208668     0.032533445
      6056.81      0.74569139     0.032637580
      6062.87      0.71650618     0.032741318
      6068.93      0.70804947     0.032845139
      6075.00      0.71649207     0.032758647
      6081.08      0.71242684     0.033072789
      6087.16      0.69634227     0.033172293
      6093.25      0.69477588     0.033271700
      6099.34      0.68655392     0.033370759
      6105.44      0.68466648     0.033280496
      6111.54      0.68562860     0.033374334
      6117.66      0.69106511     0.033468298
      6123.78      0.69980020     0.033780811
      6129.90      0.70093131     0.033690217
      6136.03      0.69187321     0.033778968
      6142.17      0.71877219     0.033867926
      6148.31      0.71065485     0.033957102
      6154.46      0.73322699     0.034046230
      6160.61      0.72598913     0.033949868
      6166.77      0.74663983     0.034252839
      6172.94      0.77092876     0.034339626
      6179.11      0.77027837     0.034253117
      6185.29      0.79759441     0.034352649
      6191.48      0.84411521     0.034435360
      6197.67      0.85834828     0.034731252
      6203.87      0.90049659     0.034645181
      6210.07      0.95956887     0.034763976
      6216.28      0.98898157     0.034900337
      6222.50       1.0030423     0.035051732
      6228.72       1.0655113     0.035246708
      6234.95       1.1021666     0.035400959
      6241.19       1.1395176     0.035547509
      6247.42       1.1653321     0.035479803
      6253.67       1.1936344     0.035579724
      6259.93       1.2188955     0.035882783
      6266.19       1.2080542     0.035721614
      6272.46       1.1934586     0.035739863
      6278.73       1.1822563     0.035743430
      6285.01       1.1853373     0.035750162
      6291.29       1.1845713     0.035752018
      6297.58       1.1791016     0.035775444
      6303.88       1.1713544     0.035613167
      6310.19       1.1887643     0.035843588
      6316.50       1.1646488     0.035862363
      6322.81       1.1432202     0.035695302
      6329.14       1.1345998     0.035940111
      6335.47       1.1145465     0.035771682
      6341.80       1.0816235     0.035805895
      6348.14       1.0666137     0.035843988
      6354.49       1.0446711     0.035889953
      6360.85       1.0271304     0.035928252
      6367.21       1.0075681     0.035970914
      6373.57      0.98929008     0.036644386
      6379.95      0.95729905     0.037717969
      6386.33      0.93909168     0.036057082
      6392.72      0.93314470     0.036182406
      6399.11      0.93282627     0.036558244
      6405.51      0.94084340     0.036962290
      6411.92      0.93303730     0.037945683
      6418.32      0.91697234     0.038458371
      6424.74      0.91283211     0.039111088
      6431.17      0.91069148     0.040480706
      6437.60      0.88988086     0.042332454
      6444.04      0.87326868     0.044743372
      6450.48      0.87216146     0.040474717
      6456.94      0.86039508     0.039809950
      6463.39      0.81839437     0.039887295
      6469.85      0.80834872     0.040680973
      6476.33      0.79672779     0.041179419
      6482.80      0.77376007     0.042230422
      6489.28      0.72335622     0.042913152
      6495.77      0.70794725     0.044402742
      6502.27      0.72018107     0.045475642
      6508.77      0.73893282     0.042910696
      6515.28      0.75760591     0.041871864
      6521.80      0.77530227     0.040572317
      6528.32      0.79974088     0.039024345
      6534.85      0.83133062     0.037938918
      6541.38      0.84929737     0.036779794
      6547.92      0.86419416     0.036590266
      6554.47      0.88332400     0.037339469
      6561.03      0.91985912     0.038768049
      6567.59      0.90428803     0.037335279
      6574.16      0.88686080     0.036304272
      6580.73      0.85614792     0.035867267
      6587.31      0.83758598     0.035645551
      6593.90      0.82268943     0.035816588
      6600.50      0.75789971     0.035591463
      6607.10      0.71273946     0.035756401
      6613.70      0.65635766     0.035526636
      6620.32      0.64454340     0.035685784
      6626.94      0.62128842     0.035452395
      6633.57      0.60092433     0.035606006
      6640.20      0.59334263     0.035368628
      6646.84      0.58836516     0.035318191
      6653.49      0.58646290     0.035273931
      6660.14      0.59267580     0.035216387
      6666.80      0.58215591     0.035168572
      6673.47      0.59412378     0.035103727
      6680.14      0.60996966     0.034850888
      6686.82      0.60380261     0.034980165
      6693.51      0.61270427     0.034720680
      6700.20      0.62506955     0.034649925
      6706.90      0.61611357     0.034579552
      6713.61      0.60812393     0.034500609
      6720.32      0.60094040     0.034427041
      6727.05      0.58210477     0.034339844
      6733.77      0.59596571     0.034252341
      6740.51      0.56253141     0.034167861
      6747.25      0.55946544     0.034072441
      6754.00      0.53281845     0.033812369
      6760.75      0.51499750     0.033965452
      6767.51      0.50550177     0.033839436
      6774.28      0.49166969     0.033743698
      6781.05      0.49737583     0.033770939
      6787.84      0.47505891     0.033575097
      6794.62      0.47207734     0.033696178
      6801.42      0.48657905     0.033885573
      6808.22      0.50408165     0.034220264
      6815.03      0.51249357     0.034635549
      6821.85      0.54307313     0.034851397
      6828.67      0.55112849     0.035375924
      6835.50      0.54381329     0.035425959
      6842.33      0.54947670     0.035522413
      6849.17      0.56577102     0.035644420
      6856.02      0.55548750     0.035153131
      6862.88      0.59830103     0.034681654
      6869.74      0.54752168     0.034097632
      6876.61      0.53722191     0.033592917
      6883.49      0.50395327     0.033007342
      6890.37      0.49543024     0.032544495
      6897.27      0.47449347     0.032035621
      6904.16      0.46712797     0.031825735
      6911.07      0.47843980     0.031397908
      6917.98      0.49107491     0.030927165
      6924.89      0.50142968     0.030619674
      6931.82      0.49397130     0.030321854
      6938.75      0.47874313     0.030096449
      6945.69      0.46683580     0.029833588
      6952.64      0.47231589     0.029589735
      6959.59      0.50343446     0.029223060
      6966.55      0.49569951     0.028993063
      6973.52      0.47899403     0.028929198
      6980.49      0.48784190     0.028674918
      6987.47      0.48680986     0.028109258
      6994.46      0.51152915     0.027432004
      7001.46      0.53367219     0.027044592
      7008.46      0.49148645     0.026501137
      7015.46      0.48834694     0.025973535
      7022.48      0.50038295     0.025604666
      7029.51      0.52270423     0.025094987
      7036.53      0.54009461     0.024595209
      7043.57      0.54381269     0.024118917
      7050.62      0.56897182     0.023715968
      7057.66      0.58314365     0.023278916
      7064.72      0.61833890     0.022840055
      7071.79      0.61441026     0.022398244
      7078.86      0.61211162     0.022086283
      7085.94      0.61821778     0.021674788
      7093.03      0.60068719     0.021328527
      7100.12      0.60631481     0.021048047
      7107.22      0.62722842     0.020876846
      7114.33      0.62221634     0.020583121
      7121.44      0.61176317     0.020257162
      7128.56      0.60875388     0.019847074
      7135.69      0.59789730     0.019493581
      7142.83      0.59583195     0.019116390
      7149.97      0.58677294     0.018820634
      7157.12      0.56549121     0.018410665
      7164.28      0.55761405     0.017985481
      7171.44      0.56658907     0.017542708
      7178.62      0.57409996     0.017100624
      7185.80      0.58971717     0.016663027
      7192.98      0.60349782     0.016224734
      7200.17      0.61611087     0.015785917
      7207.38      0.64414557     0.015348001
      7214.58      0.65271276     0.015001359
      7221.80      0.67280776     0.014573409
      7229.02      0.68566640     0.014142257
      7236.25      0.69536830     0.013754870
      7243.49      0.70084578     0.013392383
      7250.73      0.72832013     0.013124768
      7257.98      0.73890796     0.013205797
      7265.24      0.75286089     0.013324215
      7272.51      0.76263158     0.013487366
      7279.78      0.76773582     0.013706822
      7287.06      0.77622952     0.014000276
      7294.35      0.78356368     0.014392426
      7301.64      0.78761236     0.014923621
      7308.94      0.78728362     0.015652330
      7316.25      0.78752838     0.016648975
      7323.57      0.79266288     0.017991813
      7330.89      0.78628682     0.019746516
      7338.22      0.77593593     0.021996902
      7345.56      0.76259526     0.024850253
      7352.91      0.74538818     0.028470387
      7360.26      0.72314426     0.033026132
      7367.62      0.70003449     0.038716716
